Elapsed Time (s),Position (mm),Force (N)
-0.015,74.9903,-0.080988
0.017,74.9903,-0.080988
0.047,74.9903,-0.080988
0.077,74.9903,-0.080988
0.108,74.9903,-0.080988
0.140,74.9903,-0.078265
0.171,74.9903,-0.078265
0.202,74.9903,-0.078265
0.233,74.9903,-0.078265
0.264,74.9903,-0.078265
0.295,74.9903,-0.078265
0.325,74.9903,-0.078265
0.357,74.9903,-0.078265
0.388,74.9903,-0.075816
0.419,74.9903,-0.075816
0.450,74.9903,-0.075816
0.482,74.9903,-0.075816
0.512,74.9903,-0.075816
0.543,74.9903,-0.075816
0.574,74.9903,-0.075816
0.604,74.9903,-0.075816
0.636,74.9903,-0.073884
0.667,74.9903,-0.073884
0.698,74.9903,-0.073884
0.729,74.9903,-0.073884
0.760,74.9903,-0.073884
0.792,74.9903,-0.073884
0.823,74.9903,-0.073884
0.855,74.9903,-0.073884
0.885,74.9903,-0.072264
0.916,74.9903,-0.072264
0.947,74.9903,-0.072264
0.979,74.9903,-0.072264
1.010,74.9903,-0.072264
1.041,74.9903,-0.072264
1.073,74.9903,-0.072264
1.103,74.9903,-0.072264
1.134,74.9903,-0.070888
1.165,74.9903,-0.070888
1.195,74.9903,-0.070888
1.227,74.9903,-0.070888
1.258,74.9903,-0.070888
1.290,74.9903,-0.070888
1.320,74.9903,-0.070888
1.351,74.9903,-0.070888
1.381,74.9903,-0.070888
1.414,74.9903,-0.069663
1.444,74.9903,-0.069663
1.476,74.9903,-0.069663
1.507,74.9903,-0.069663
1.538,74.9903,-0.069663
1.569,74.9903,-0.069663
1.599,74.9903,-0.069663
1.631,74.9903,-0.068533
1.663,74.9903,-0.068533
1.693,74.9903,-0.068533
1.725,74.9903,-0.068533
1.756,74.9903,-0.068533
1.788,74.9903,-0.068533
1.820,74.9903,-0.068533
1.850,74.9903,-0.068533
1.881,74.9903,-0.068533
1.911,74.9903,-0.068533
1.942,74.9903,-0.067628
1.973,74.9903,-0.067628
2.004,74.9903,-0.067628
2.035,74.9903,-0.067628
2.066,74.9903,-0.067628
2.097,74.9903,-0.067628
2.127,74.9903,-0.067628
2.159,74.9903,-0.067628
2.190,74.9903,-0.066790
2.222,74.9903,-0.066790
2.254,74.9903,-0.066790
2.286,74.9903,-0.066790
2.316,74.9903,-0.066790
2.347,74.9903,-0.066790
2.378,74.9903,-0.066790
2.409,74.9903,-0.066790
2.441,74.9903,-0.065970
2.470,74.9903,-0.065970
2.502,74.9903,-0.065970
2.533,74.9903,-0.065970
2.563,74.9903,-0.065970
2.595,74.9903,-0.065970
2.626,74.9903,-0.065970
2.656,74.9903,-0.065970
2.688,74.9903,-0.065282
2.718,74.9903,-0.065282
2.751,74.9903,-0.065282
2.781,74.9903,-0.065282
2.813,74.9903,-0.065282
2.843,74.9903,-0.065282
2.874,74.9903,-0.065282
2.906,74.9903,-0.064651
2.938,74.9903,-0.064651
2.968,74.9903,-0.064651
2.999,74.9903,-0.064651
3.030,74.9903,-0.064651
3.061,74.9903,-0.064651
3.093,74.9903,-0.064651
3.123,74.9903,-0.064651
3.154,74.9903,-0.064651
3.186,74.9903,-0.064086
3.217,74.9903,-0.064086
3.248,74.9903,-0.064086
3.279,74.9903,-0.064086
3.310,74.9903,-0.064086
3.341,74.9903,-0.064086
3.372,74.9903,-0.064086
3.403,74.9903,-0.064086
3.435,74.9903,-0.063407
3.467,74.9903,-0.063407
3.498,74.9903,-0.063407
3.530,74.9903,-0.063407
3.561,74.9903,-0.063407
3.592,74.9903,-0.063407
3.622,74.9903,-0.063407
3.654,74.9903,-0.062211
3.686,74.9903,-0.062211
3.717,74.9903,-0.062211
3.748,74.9903,-0.062211
3.779,74.9903,-0.062211
3.810,74.9903,-0.062211
3.842,74.9903,-0.062211
3.873,74.9903,-0.062211
3.904,74.9903,-0.062211
3.935,74.9903,-0.059789
3.966,74.9903,-0.059789
3.997,74.9903,-0.059789
4.029,74.9903,-0.059789
4.061,74.9903,-0.059789
4.091,74.9897,-0.059789
4.122,74.9884,-0.059789
4.153,74.9863,-0.059789
4.184,74.9837,-0.057462
4.215,74.9804,-0.057462
4.246,74.9761,-0.057462
4.278,74.9712,-0.057462
4.309,74.9653,-0.057462
4.340,74.9593,-0.057462
4.371,74.9531,-0.057462
4.403,74.9466,-0.053458
4.433,74.9405,-0.053458
4.465,74.9343,-0.053458
4.496,74.9279,-0.053458
4.527,74.9218,-0.053458
4.557,74.9156,-0.053458
4.589,74.9093,-0.053458
4.621,74.9031,-0.053458
4.652,74.8968,-0.040937
4.683,74.8906,-0.040937
4.714,74.8841,-0.040937
4.744,74.8782,-0.040937
4.774,74.8722,-0.040937
4.806,74.8661,-0.040937
4.837,74.8596,-0.040937
4.868,74.8536,-0.040937
4.899,74.8472,-0.023460
4.931,74.8411,-0.023460
4.962,74.8347,-0.023460
4.993,74.8285,-0.023460
5.025,74.8221,-0.023460
5.056,74.8161,-0.023460
5.088,74.8096,-0.023460
5.119,74.8034,-0.023460
5.150,74.7972,-0.007829
5.181,74.7910,-0.007829
5.213,74.7846,-0.007829
5.243,74.7784,-0.007829
5.274,74.7721,-0.007829
5.305,74.7662,-0.007829
5.336,74.7598,-0.007829
5.367,74.7538,-0.007829
5.398,74.7476,0.006039
5.430,74.7411,0.006039
5.462,74.7348,0.006039
5.492,74.7287,0.006039
5.524,74.7224,0.006039
5.555,74.7162,0.006039
5.585,74.7101,0.006039
5.617,74.7038,0.006039
5.647,74.6978,0.018334
5.678,74.6914,0.018334
5.709,74.6852,0.018334
5.741,74.6791,0.018334
5.773,74.6727,0.018334
5.804,74.6666,0.018334
5.835,74.6602,0.018334
5.866,74.6540,0.018334
5.897,74.6478,0.029329
5.927,74.6416,0.029329
5.958,74.6356,0.029329
5.989,74.6294,0.029329
6.020,74.6232,0.029329
6.051,74.6170,0.029329
6.082,74.6108,0.029329
6.114,74.6044,0.029329
6.145,74.5981,0.039250
6.176,74.5919,0.039250
6.207,74.5860,0.039250
6.238,74.5796,0.039250
6.269,74.5734,0.039250
6.300,74.5674,0.039250
6.331,74.5610,0.039250
6.361,74.5548,0.039250
6.393,74.5488,0.039250
6.424,74.5423,0.048634
6.455,74.5362,0.048634
6.487,74.5298,0.048634
6.518,74.5236,0.048634
6.549,74.5172,0.048634
6.580,74.5112,0.048634
6.612,74.5048,0.048634
6.641,74.4989,0.048634
6.673,74.4924,0.057745
6.704,74.4864,0.057745
6.735,74.4800,0.057745
6.766,74.4740,0.057745
6.797,74.4679,0.057745
6.827,74.4618,0.057745
6.858,74.4557,0.057745
6.889,74.4495,0.057745
6.919,74.4436,0.066931
6.950,74.4374,0.066931
6.980,74.4313,0.066931
7.011,74.4250,0.066931
7.042,74.4188,0.066931
7.073,74.4126,0.066931
7.104,74.4065,0.066931
7.136,74.4000,0.066931
7.166,74.3940,0.076560
7.198,74.3876,0.076560
7.229,74.3816,0.076560
7.260,74.3751,0.076560
7.291,74.3690,0.076560
7.322,74.3628,0.076560
7.354,74.3564,0.076560
7.385,74.3503,0.076560
7.416,74.3440,0.086792
7.447,74.3378,0.086792
7.478,74.3312,0.086792
7.510,74.3251,0.086792
7.542,74.3189,0.086792
7.571,74.3129,0.086792
7.602,74.3069,0.086792
7.633,74.3006,0.086792
7.664,74.2944,0.097928
7.695,74.2881,0.097928
7.727,74.2819,0.097928
7.758,74.2755,0.097928
7.789,74.2695,0.097928
7.820,74.2630,0.097928
7.851,74.2570,0.097928
7.881,74.2508,0.097928
7.912,74.2448,0.110110
7.943,74.2387,0.110110
7.974,74.2324,0.110110
8.005,74.2262,0.110110
8.035,74.2197,0.110110
8.066,74.2139,0.110110
8.098,74.2074,0.110110
8.130,74.2011,0.110110
8.162,74.1948,0.123715
8.193,74.1887,0.123715
8.223,74.1825,0.123715
8.254,74.1764,0.123715
8.287,74.1699,0.123715
8.317,74.1638,0.123715
8.348,74.1576,0.123715
8.379,74.1513,0.123715
8.411,74.1452,0.138724
8.441,74.1390,0.138724
8.471,74.1330,0.138724
8.503,74.1266,0.138724
8.533,74.1206,0.138724
8.564,74.1144,0.138724
8.595,74.1082,0.138724
8.626,74.1019,0.138724
8.657,74.0958,0.155381
8.689,74.0895,0.155381
8.720,74.0833,0.155381
8.751,74.0770,0.155381
8.782,74.0708,0.155381
8.814,74.0646,0.155381
8.845,74.0584,0.155381
8.876,74.0519,0.155381
8.908,74.0456,0.173866
8.939,74.0395,0.173866
8.969,74.0333,0.173866
9.000,74.0272,0.173866
9.032,74.0207,0.173866
9.062,74.0150,0.173866
9.093,74.0086,0.173866
9.124,74.0023,0.193906
9.155,73.9964,0.193906
9.187,73.9899,0.193906
9.217,73.9839,0.193906
9.248,73.9775,0.193906
9.280,73.9713,0.193906
9.311,73.9648,0.193906
9.341,73.9590,0.193906
9.371,73.9529,0.193906
9.402,73.9470,0.215783
9.433,73.9408,0.215783
9.464,73.9346,0.215783
9.495,73.9281,0.215783
9.526,73.9221,0.215783
9.556,73.9159,0.215783
9.588,73.9097,0.215783
9.619,73.9035,0.239318
9.649,73.8974,0.239318
9.680,73.8912,0.239318
9.711,73.8851,0.239318
9.741,73.8790,0.239318
9.772,73.8727,0.239318
9.803,73.8666,0.239318
9.834,73.8605,0.239318
9.864,73.8542,0.239318
9.895,73.8483,0.239318
9.926,73.8421,0.264379
9.957,73.8356,0.264379
9.989,73.8295,0.264379
10.020,73.8231,0.264379
10.051,73.8171,0.264379
10.082,73.8108,0.264379
10.113,73.8046,0.264379
10.144,73.7984,0.264379
10.175,73.7922,0.290798
10.206,73.7860,0.290798
10.237,73.7798,0.290798
10.268,73.7736,0.290798
10.298,73.7675,0.290798
10.330,73.7612,0.290798
10.361,73.7551,0.290798
10.392,73.7488,0.290798
10.422,73.7428,0.318130
10.454,73.7364,0.318130
10.486,73.7301,0.318130
10.518,73.7236,0.318130
10.549,73.7174,0.318130
10.582,73.7108,0.318130
10.612,73.7049,0.318130
10.644,73.6986,0.318130
10.674,73.6922,0.346102
10.705,73.6862,0.346102
10.737,73.6798,0.346102
10.767,73.6738,0.346102
10.798,73.6676,0.346102
10.829,73.6612,0.346102
10.860,73.6552,0.346102
10.891,73.6488,0.346102
10.922,73.6429,0.373972
10.953,73.6364,0.373972
10.985,73.6304,0.373972
11.015,73.6240,0.373972
11.046,73.6180,0.373972
11.077,73.6118,0.373972
11.109,73.6056,0.373972
11.140,73.5992,0.373972
11.171,73.5930,0.401106
11.203,73.5867,0.401106
11.234,73.5804,0.401106
11.266,73.5741,0.401106
11.296,73.5680,0.401106
11.328,73.5616,0.401106
11.359,73.5553,0.401106
11.389,73.5494,0.426290
11.420,73.5432,0.426290
11.451,73.5370,0.426290
11.482,73.5309,0.426290
11.513,73.5247,0.426290
11.544,73.5185,0.426290
11.575,73.5123,0.426290
11.606,73.5061,0.426290
11.637,73.4999,0.426290
11.668,73.4937,0.447696
11.699,73.4875,0.447696
11.729,73.4814,0.447696
11.761,73.4750,0.447696
11.792,73.4689,0.447696
11.824,73.4624,0.447696
11.855,73.4562,0.447696
11.886,73.4500,0.447696
11.917,73.4438,0.461724
11.948,73.4376,0.461724
11.979,73.4315,0.461724
12.009,73.4253,0.461724
12.040,73.4191,0.461724
12.071,73.4131,0.461724
12.102,73.4070,0.461724
12.133,73.4007,0.461724
12.164,73.3946,0.457221
12.194,73.3884,0.457221
12.226,73.3821,0.457221
12.257,73.3757,0.457221
12.288,73.3697,0.457221
12.319,73.3635,0.457221
12.350,73.3574,0.457221
12.381,73.3511,0.457221
12.413,73.3446,0.457221
12.444,73.3384,0.297609
12.475,73.3322,0.297609
12.506,73.3260,0.297609
12.537,73.3198,0.297609
12.567,73.3139,0.297609
12.598,73.3075,0.297609
12.630,73.3013,0.297609
12.660,73.2951,0.083278
12.692,73.2888,0.083278
12.723,73.2825,0.083278
12.755,73.2763,0.083278
12.786,73.2699,0.083278
12.817,73.2637,0.083278
12.848,73.2578,0.083278
12.879,73.2515,0.083278
12.910,73.2453,0.019898
12.941,73.2391,0.019898
12.971,73.2330,0.019898
13.002,73.2268,0.019898
13.033,73.2206,0.019898
13.064,73.2144,0.019898
13.095,73.2083,0.019898
13.126,73.2020,0.019898
13.157,73.1959,0.020351
13.189,73.1896,0.020351
13.220,73.1834,0.020351
13.250,73.1772,0.020351
13.281,73.1710,0.020351
13.313,73.1648,0.020351
13.344,73.1584,0.020351
13.376,73.1521,0.020351
13.406,73.1459,0.020501
13.437,73.1400,0.020501
13.468,73.1338,0.020501
13.499,73.1274,0.020501
13.530,73.1212,0.020501
13.562,73.1149,0.020501
13.592,73.1090,0.020501
13.623,73.1025,0.020501
13.654,73.0966,0.020549
13.685,73.0901,0.020549
13.715,73.0842,0.020549
13.747,73.0778,0.020549
13.778,73.0716,0.020549
13.810,73.0652,0.020549
13.841,73.0590,0.020549
13.872,73.0528,0.020549
13.903,73.0466,0.020539
13.935,73.0404,0.020539
13.965,73.0344,0.020539
13.995,73.0282,0.020539
14.026,73.0219,0.020539
14.057,73.0159,0.020539
14.088,73.0096,0.020539
14.119,73.0034,0.020539
14.150,72.9973,0.020530
14.181,72.9911,0.020530
14.211,72.9851,0.020530
14.242,72.9789,0.020530
14.274,72.9725,0.020530
14.304,72.9665,0.020530
14.335,72.9603,0.020530
14.367,72.9538,0.020530
14.398,72.9476,0.020530
14.429,72.9414,0.020473
14.460,72.9352,0.020473
14.491,72.9291,0.020473
14.522,72.9228,0.020473
14.553,72.9166,0.020473
14.585,72.9103,0.020473
14.616,72.9040,0.020473
14.646,72.8979,0.020473
14.677,72.8919,0.020426
14.708,72.8857,0.020426
14.738,72.8796,0.020426
14.770,72.8734,0.020426
14.801,72.8671,0.020426
14.832,72.8608,0.020426
14.863,72.8547,0.020426
14.895,72.8484,0.020492
14.926,72.8421,0.020492
14.958,72.8357,0.020492
14.989,72.8294,0.020492
15.020,72.8233,0.020492
15.051,72.8171,0.020492
15.082,72.8109,0.020492
15.112,72.8049,0.020492
15.143,72.7985,0.020473
15.174,72.7925,0.020473
15.205,72.7863,0.020473
15.235,72.7802,0.020473
15.267,72.7739,0.020473
15.298,72.7677,0.020473
15.330,72.7612,0.020473
15.361,72.7550,0.020473
15.392,72.7488,0.020464
15.423,72.7426,0.020464
15.455,72.7363,0.020464
15.485,72.7303,0.020464
15.515,72.7242,0.020464
15.547,72.7179,0.020464
15.578,72.7117,0.020464
15.609,72.7053,0.020464
15.640,72.6993,0.020435
15.671,72.6931,0.020435
15.702,72.6867,0.020435
15.732,72.6808,0.020435
15.763,72.6748,0.020435
15.795,72.6683,0.020435
15.825,72.6622,0.020435
15.856,72.6560,0.020435
15.886,72.6501,0.020388
15.918,72.6436,0.020388
15.950,72.6374,0.020388
15.981,72.6312,0.020388
16.011,72.6251,0.020388
16.042,72.6189,0.020388
16.073,72.6125,0.020388
16.105,72.6063,0.020388
16.136,72.6001,0.020445
16.168,72.5936,0.020445
16.198,72.5877,0.020445
16.229,72.5812,0.020445
16.260,72.5753,0.020445
16.292,72.5687,0.020445
16.323,72.5626,0.020445
16.354,72.5563,0.020445
16.386,72.5501,0.020445
16.418,72.5437,0.020492
16.449,72.5373,0.020492
16.481,72.5310,0.020492
16.512,72.5248,0.020492
16.543,72.5185,0.020492
16.574,72.5124,0.020492
16.606,72.5058,0.020492
16.638,72.4996,0.020492
16.670,72.4932,0.020473
16.700,72.4872,0.020473
16.731,72.4812,0.020473
16.761,72.4750,0.020473
16.792,72.4688,0.020473
16.822,72.4628,0.020473
16.853,72.4566,0.020473
16.885,72.4503,0.020473
16.916,72.4442,0.020520
16.947,72.4379,0.020520
16.978,72.4317,0.020520
17.010,72.4251,0.020520
17.041,72.4191,0.020520
17.072,72.4127,0.020520
17.103,72.4067,0.020520
17.133,72.4007,0.020520
17.164,72.3945,0.020530
17.195,72.3883,0.020530
17.226,72.3819,0.020530
17.257,72.3760,0.020530
17.288,72.3695,0.020530
17.320,72.3633,0.020530
17.351,72.3571,0.020530
17.382,72.3508,0.020530
17.413,72.3446,0.020501
17.444,72.3385,0.020501
17.475,72.3323,0.020501
17.506,72.3261,0.020501
17.537,72.3199,0.020501
17.568,72.3136,0.020501
17.600,72.3074,0.020501
17.630,72.3013,0.020501
17.662,72.2950,0.020501
17.693,72.2888,0.020501
17.724,72.2825,0.020501
17.754,72.2765,0.020501
17.785,72.2703,0.020501
17.816,72.2639,0.020501
17.848,72.2578,0.020501
17.880,72.2513,0.020501
17.911,72.2450,0.020511
17.942,72.2389,0.020511
17.972,72.2327,0.020511
18.004,72.2267,0.020511
18.035,72.2202,0.020511
18.066,72.2141,0.020511
18.098,72.2077,0.020511
18.128,72.2017,0.020511
18.160,72.1953,0.020520
18.191,72.1890,0.020520
18.223,72.1828,0.020520
18.253,72.1767,0.020520
18.284,72.1706,0.020520
18.315,72.1642,0.020520
18.347,72.1580,0.020520
18.377,72.1519,0.020520
18.408,72.1457,0.020520
18.439,72.1393,0.020520
18.470,72.1330,0.020520
18.501,72.1271,0.020520
18.532,72.1209,0.020520
18.563,72.1147,0.020520
18.596,72.1081,0.020520
18.626,72.1020,0.020520
18.658,72.0958,0.020567
18.689,72.0895,0.020567
18.721,72.0829,0.020567
18.752,72.0768,0.020567
18.785,72.0703,0.020567
18.814,72.0644,0.020567
18.846,72.0581,0.020567
18.877,72.0520,0.020567
18.908,72.0457,0.020567
18.939,72.0395,0.020567
18.970,72.0333,0.020567
19.001,72.0270,0.020567
19.032,72.0209,0.020567
19.063,72.0147,0.020567
19.093,72.0086,0.020567
19.125,72.0022,0.020567
19.156,71.9960,0.020539
19.188,71.9897,0.020539
19.218,71.9836,0.020539
19.250,71.9771,0.020539
19.280,71.9713,0.020539
19.311,71.9650,0.020539
19.342,71.9594,0.020539
19.374,71.9542,0.020539
19.404,71.9503,0.020567
19.436,71.9469,0.020567
19.467,71.9441,0.020567
19.498,71.9420,0.020567
19.529,71.9408,0.020567
19.563,71.9403,0.020567
19.590,71.9403,0.020567
19.622,71.9403,0.020567
19.652,71.9403,0.020567
19.683,71.9403,0.020473
19.714,71.9410,0.020473
19.745,71.9424,0.020473
19.776,71.9445,0.020473
19.806,71.9472,0.020473
19.836,71.9507,0.020473
19.869,71.9552,0.020473
19.898,71.9600,0.020256
19.932,71.9661,0.020256
19.961,71.9720,0.020256
19.992,71.9781,0.020256
20.024,71.9844,0.020256
20.055,71.9908,0.020256
20.086,71.9971,0.020256
20.117,72.0033,0.020256
20.149,72.0096,0.020256
20.179,72.0157,0.020125
20.210,72.0217,0.020125
20.241,72.0281,0.020125
20.273,72.0343,0.020125
20.303,72.0405,0.020125
20.335,72.0466,0.020125
20.367,72.0532,0.020125
20.398,72.0592,0.020125
20.429,72.0657,0.020106
20.460,72.0718,0.020106
20.492,72.0781,0.020106
20.522,72.0842,0.020106
20.553,72.0904,0.020106
20.585,72.0968,0.020106
20.616,72.1029,0.020106
20.647,72.1093,0.020068
20.678,72.1153,0.020068
20.709,72.1217,0.020068
20.741,72.1281,0.020068
20.772,72.1341,0.020068
20.803,72.1402,0.020068
20.834,72.1465,0.020068
20.865,72.1527,0.020068
20.896,72.1589,0.020068
20.927,72.1653,0.020049
20.958,72.1715,0.020049
20.990,72.1779,0.020049
21.020,72.1837,0.020049
21.053,72.1903,0.020049
21.083,72.1963,0.020049
21.114,72.2026,0.020049
21.145,72.2088,0.019974
21.176,72.2149,0.019974
21.207,72.2212,0.019974
21.238,72.2273,0.019974
21.269,72.2337,0.019974
21.300,72.2398,0.019974
21.331,72.2460,0.019974
21.362,72.2521,0.019974
21.393,72.2584,0.019974
21.424,72.2646,0.019880
21.456,72.2708,0.019880
21.487,72.2770,0.019880
21.518,72.2833,0.019880
21.549,72.2895,0.019880
21.580,72.2957,0.019880
21.611,72.3019,0.019880
21.642,72.3081,0.019880
21.674,72.3146,0.019842
21.704,72.3205,0.019842
21.735,72.3266,0.019842
21.766,72.3329,0.019842
21.798,72.3392,0.019842
21.828,72.3455,0.019842
21.859,72.3514,0.019842
21.889,72.3576,0.019842
21.920,72.3637,0.019795
21.952,72.3702,0.019795
21.982,72.3761,0.019795
22.012,72.3823,0.019795
22.044,72.3884,0.019795
22.076,72.3950,0.019795
22.106,72.4010,0.019795
22.138,72.4075,0.019795
22.170,72.4137,0.019795
22.201,72.4200,0.019795
22.232,72.4261,0.019795
22.263,72.4323,0.019795
22.294,72.4386,0.019795
22.325,72.4447,0.019795
22.356,72.4508,0.019795
22.387,72.4572,0.019738
22.418,72.4633,0.019738
22.450,72.4696,0.019738
22.480,72.4758,0.019738
22.512,72.4821,0.019738
22.543,72.4884,0.019738
22.574,72.4947,0.019738
22.605,72.5008,0.019738
22.636,72.5071,0.019738
22.667,72.5132,0.019701
22.699,72.5195,0.019701
22.731,72.5258,0.019701
22.762,72.5323,0.019701
22.794,72.5385,0.019701
22.825,72.5448,0.019701
22.857,72.5511,0.019701
22.887,72.5573,0.019701
22.919,72.5634,0.019729
22.949,72.5697,0.019729
22.980,72.5758,0.019729
23.011,72.5820,0.019729
23.042,72.5882,0.019729
23.073,72.5944,0.019729
23.104,72.6007,0.019729
23.136,72.6069,0.019729
23.168,72.6132,0.019653
23.197,72.6192,0.019653
23.228,72.6254,0.019653
23.258,72.6315,0.019653
23.290,72.6379,0.019653
23.321,72.6440,0.019653
23.351,72.6500,0.019653
23.382,72.6560,0.019578
23.413,72.6622,0.019578
23.445,72.6688,0.019578
23.477,72.6751,0.019578
23.507,72.6812,0.019578
23.539,72.6877,0.019578
23.570,72.6937,0.019578
23.601,72.6999,0.019578
23.633,72.7063,0.019503
23.664,72.7127,0.019503
23.695,72.7188,0.019503
23.725,72.7247,0.019503
23.755,72.7308,0.019503
23.787,72.7370,0.019503
23.817,72.7432,0.019503
23.848,72.7493,0.019503
23.879,72.7556,0.019446
23.912,72.7621,0.019446
23.943,72.7683,0.019446
23.974,72.7746,0.019446
24.005,72.7808,0.019446
24.036,72.7869,0.019446
24.067,72.7932,0.019446
24.099,72.7996,0.019446
24.130,72.8057,0.019446
24.161,72.8122,0.019474
24.192,72.8181,0.019474
24.223,72.8243,0.019474
24.254,72.8305,0.019474
24.285,72.8367,0.019474
24.316,72.8429,0.019474
24.347,72.8493,0.019474
24.378,72.8553,0.019474
24.409,72.8614,0.019474
24.440,72.8676,0.019484
24.472,72.8741,0.019484
24.503,72.8804,0.019484
24.535,72.8867,0.019484
24.565,72.8928,0.019484
24.596,72.8990,0.019484
24.628,72.9053,0.019484
24.658,72.9113,0.019484
24.690,72.9178,0.019427
24.721,72.9240,0.019427
24.753,72.9302,0.019427
24.785,72.9367,0.019427
24.815,72.9429,0.019427
24.847,72.9490,0.019427
24.877,72.9551,0.019427
24.908,72.9613,0.019324
24.938,72.9673,0.019324
24.969,72.9737,0.019324
24.999,72.9796,0.019324
25.030,72.9858,0.019324
25.061,72.9920,0.019324
25.093,72.9985,0.019324
25.123,73.0044,0.019324
25.155,73.0107,0.019267
25.186,73.0168,0.019267
25.217,73.0231,0.019267
25.249,73.0296,0.019267
25.280,73.0358,0.019267
25.311,73.0419,0.019267
25.342,73.0481,0.019267
25.374,73.0544,0.019267
25.404,73.0605,0.019239
25.434,73.0667,0.019239
25.465,73.0726,0.019239
25.496,73.0788,0.019239
25.526,73.0849,0.019239
25.557,73.0911,0.019239
25.587,73.0973,0.019239
25.618,73.1034,0.019239
25.649,73.1095,0.019201
25.680,73.1157,0.019201
25.710,73.1216,0.019201
25.741,73.1279,0.019201
25.772,73.1340,0.019201
25.803,73.1402,0.019201
25.832,73.1463,0.019201
25.863,73.1525,0.019201
25.894,73.1586,0.019192
25.925,73.1648,0.019192
25.957,73.1710,0.019192
25.987,73.1771,0.019192
26.017,73.1831,0.019192
26.048,73.1892,0.019192
26.079,73.1954,0.019192
26.109,73.2015,0.019192
26.140,73.2081,0.019126
26.171,73.2140,0.019126
26.202,73.2201,0.019126
26.231,73.2260,0.019126
26.263,73.2322,0.019126
26.294,73.2384,0.019126
26.324,73.2445,0.019126
26.355,73.2507,0.019126
26.386,73.2568,0.019013
26.417,73.2631,0.019013
26.448,73.2695,0.019013
26.479,73.2755,0.019013
26.509,73.2815,0.019013
26.540,73.2877,0.019013
26.571,73.2938,0.019013
26.602,73.3000,0.019013
26.632,73.3062,0.019003
26.664,73.3124,0.019003
26.695,73.3187,0.019003
26.726,73.3249,0.019003
26.756,73.3310,0.019003
26.787,73.3373,0.019003
26.819,73.3434,0.019003
26.850,73.3498,0.019003
26.882,73.3560,0.018956
26.913,73.3623,0.018956
26.944,73.3685,0.018956
26.975,73.3747,0.018956
27.007,73.3809,0.018956
27.037,73.3873,0.018956
27.068,73.3932,0.018956
27.099,73.3994,0.018956
27.131,73.4058,0.018843
27.161,73.4120,0.018843
27.193,73.4183,0.018843
27.223,73.4244,0.018843
27.254,73.4306,0.018843
27.286,73.4370,0.018843
27.316,73.4431,0.018843
27.347,73.4492,0.018843
27.378,73.4555,0.018843
27.410,73.4617,0.018787
27.442,73.4680,0.018787
27.472,73.4741,0.018787
27.504,73.4805,0.018787
27.535,73.4867,0.018787
27.567,73.4932,0.018787
27.598,73.4993,0.018787
27.630,73.5057,0.018787
27.661,73.5119,0.018674
27.693,73.5184,0.018674
27.724,73.5244,0.018674
27.755,73.5306,0.018674
27.786,73.5370,0.018674
27.816,73.5429,0.018674
27.847,73.5491,0.018674
27.877,73.5551,0.018674
27.908,73.5613,0.018617
27.939,73.5675,0.018617
27.970,73.5738,0.018617
28.001,73.5799,0.018617
28.032,73.5862,0.018617
28.062,73.5922,0.018617
28.092,73.5981,0.018617
28.122,73.6042,0.018617
28.154,73.6104,0.018551
28.185,73.6167,0.018551
28.216,73.6228,0.018551
28.247,73.6291,0.018551
28.278,73.6352,0.018551
28.309,73.6415,0.018551
28.340,73.6478,0.018551
28.370,73.6538,0.018551
28.403,73.6602,0.018419
28.433,73.6663,0.018419
28.464,73.6725,0.018419
28.496,73.6789,0.018419
28.528,73.6852,0.018419
28.559,73.6915,0.018419
28.591,73.6978,0.018419
28.623,73.7043,0.018419
28.653,73.7104,0.018297
28.685,73.7167,0.018297
28.716,73.7229,0.018297
28.746,73.7291,0.018297
28.777,73.7350,0.018297
28.808,73.7414,0.018297
28.839,73.7476,0.018297
28.870,73.7538,0.018297
28.901,73.7600,0.018193
28.932,73.7662,0.018193
28.962,73.7721,0.018193
28.994,73.7786,0.018193
29.025,73.7846,0.018193
29.056,73.7911,0.018193
29.088,73.7973,0.018193
29.118,73.8035,0.018193
29.150,73.8097,0.018193
29.181,73.8159,0.018052
29.211,73.8219,0.018052
29.242,73.8281,0.018052
29.273,73.8343,0.018052
29.304,73.8406,0.018052
29.335,73.8469,0.018052
29.366,73.8530,0.018052
29.398,73.8592,0.018052
29.429,73.8654,0.017779
29.460,73.8717,0.017779
29.492,73.8780,0.017779
29.522,73.8841,0.017779
29.552,73.8901,0.017779
29.583,73.8964,0.017779
29.614,73.9023,0.017779
29.645,73.9087,0.017779
29.676,73.9150,0.017515
29.708,73.9212,0.017515
29.739,73.9275,0.017515
29.771,73.9338,0.017515
29.802,73.9403,0.017515
29.833,73.9462,0.017515
29.863,73.9523,0.017515
29.894,73.9585,0.017515
29.925,73.9646,0.017326
29.956,73.9709,0.017326
29.986,73.9771,0.017326
30.017,73.9832,0.017326
30.048,73.9892,0.017326
30.079,73.9956,0.017326
30.110,74.0017,0.017326
30.141,74.0081,0.017326
30.173,74.0143,0.017015
30.205,74.0208,0.017015
30.236,74.0267,0.017015
30.268,74.0333,0.017015
30.299,74.0394,0.017015
30.331,74.0460,0.017015
30.362,74.0520,0.017015
30.394,74.0584,0.016582
30.424,74.0643,0.016582
30.454,74.0705,0.016582
30.484,74.0767,0.016582
30.515,74.0827,0.016582
30.546,74.0889,0.016582
30.576,74.0950,0.016582
30.607,74.1013,0.016582
30.639,74.1074,0.016092
30.669,74.1136,0.016092
30.700,74.1198,0.016092
30.733,74.1263,0.016092
30.763,74.1322,0.016092
30.795,74.1387,0.016092
30.826,74.1448,0.016092
30.858,74.1513,0.016092
30.888,74.1572,0.015546
30.919,74.1635,0.015546
30.950,74.1696,0.015546
30.981,74.1758,0.015546
31.012,74.1823,0.015546
31.044,74.1883,0.015546
31.075,74.1947,0.015546
31.106,74.2010,0.015546
31.137,74.2071,0.014792
31.168,74.2134,0.014792
31.199,74.2195,0.014792
31.230,74.2258,0.014792
31.261,74.2319,0.014792
31.292,74.2381,0.014792
31.323,74.2443,0.014792
31.354,74.2505,0.014792
31.386,74.2569,0.013831
31.418,74.2632,0.013831
31.449,74.2695,0.013831
31.481,74.2759,0.013831
31.512,74.2821,0.013831
31.544,74.2883,0.013831
31.575,74.2946,0.013831
31.605,74.3008,0.013831
31.636,74.3070,0.012663
31.667,74.3131,0.012663
31.697,74.3191,0.012663
31.729,74.3255,0.012663
31.760,74.3317,0.012663
31.791,74.3380,0.012663
31.822,74.3440,0.012663
31.853,74.3502,0.012663
31.885,74.3565,0.011165
31.915,74.3627,0.011165
31.946,74.3688,0.011165
31.977,74.3751,0.011165
32.009,74.3814,0.011165
32.040,74.3878,0.011165
32.072,74.3940,0.011165
32.103,74.4002,0.011165
32.134,74.4064,0.009214
32.165,74.4128,0.009214
32.196,74.4189,0.009214
32.227,74.4251,0.009214
32.259,74.4314,0.009214
32.291,74.4378,0.009214
32.322,74.4441,0.009214
32.352,74.4502,0.009214
32.384,74.4565,0.006708
32.414,74.4626,0.006708
32.445,74.4688,0.006708
32.476,74.4750,0.006708
32.507,74.4813,0.006708
32.539,74.4874,0.006708
32.570,74.4937,0.006708
32.601,74.5000,0.006708
32.633,74.5063,0.003580
32.664,74.5125,0.003580
32.696,74.5191,0.003580
32.727,74.5251,0.003580
32.757,74.5311,0.003580
32.789,74.5373,0.003580
32.820,74.5437,0.003580
32.851,74.5500,0.003580
32.882,74.5561,0.003580
32.913,74.5623,-0.000283
32.944,74.5685,-0.000283
32.975,74.5747,-0.000283
33.006,74.5809,-0.000283
33.037,74.5872,-0.000283
33.068,74.5932,-0.000283
33.099,74.5995,-0.000283
33.130,74.6056,-0.000283
33.161,74.6119,-0.000283
33.193,74.6181,-0.004993
33.225,74.6247,-0.004993
33.256,74.6309,-0.004993
33.287,74.6372,-0.004993
33.318,74.6433,-0.004993
33.350,74.6497,-0.004993
33.382,74.6560,-0.004993
33.412,74.6621,-0.010741
33.443,74.6683,-0.010741
33.475,74.6746,-0.010741
33.505,74.6806,-0.010741
33.536,74.6869,-0.010741
33.567,74.6930,-0.010741
33.598,74.6993,-0.010741
33.630,74.7056,-0.010741
33.660,74.7117,-0.010741
33.690,74.7177,-0.017505
33.722,74.7241,-0.017505
33.752,74.7301,-0.017505
33.783,74.7363,-0.017505
33.813,74.7422,-0.017505
33.844,74.7484,-0.017505
33.874,74.7544,-0.017505
33.906,74.7608,-0.025561
33.937,74.7670,-0.025561
33.967,74.7732,-0.025561
33.999,74.7794,-0.025561
34.031,74.7858,-0.025561
34.061,74.7920,-0.025561
34.092,74.7980,-0.025561
34.123,74.8045,-0.025561
34.155,74.8107,-0.025561
34.186,74.8169,-0.035048
34.217,74.8230,-0.035048
34.248,74.8294,-0.035048
34.280,74.8356,-0.035048
34.311,74.8419,-0.035048
34.341,74.8479,-0.035048
34.372,74.8541,-0.035048
34.403,74.8602,-0.046251
34.433,74.8663,-0.046251
34.464,74.8726,-0.046251
34.496,74.8788,-0.046251
34.527,74.8851,-0.046251
34.559,74.8914,-0.046251
34.590,74.8976,-0.046251
34.621,74.9038,-0.046251
34.651,74.9099,-0.046251
34.683,74.9161,-0.059403
34.713,74.9216,-0.059403
34.744,74.9264,-0.059403
34.775,74.9306,-0.059403
34.806,74.9340,-0.059403
34.837,74.9366,-0.059403
34.867,74.9386,-0.059403
34.897,74.9398,-0.073432
34.929,74.9403,-0.073432
34.959,74.9403,-0.073432
34.991,74.9403,-0.073432
35.023,74.9403,-0.073432
35.054,74.9403,-0.073432
35.085,74.9403,-0.073432
35.116,74.9403,-0.073432
35.147,74.9403,-0.081111
35.178,74.9403,-0.081111
35.209,74.9403,-0.081111
35.240,74.9403,-0.081111
35.271,74.9403,-0.081111
35.303,74.9403,-0.081111
35.335,74.9403,-0.081111
35.366,74.9403,-0.081111
35.396,74.9403,-0.080234
35.428,74.9403,-0.080234
35.459,74.9403,-0.080234
35.490,74.9403,-0.080234
35.521,74.9403,-0.080234
35.552,74.9403,-0.080234
35.583,74.9403,-0.080234
35.614,74.9403,-0.080234
35.645,74.9403,-0.077530
35.676,74.9403,-0.077530
35.708,74.9403,-0.077530
35.738,74.9403,-0.077530
35.770,74.9403,-0.077530
35.802,74.9403,-0.077530
35.832,74.9403,-0.077530
35.864,74.9403,-0.077530
35.895,74.9403,-0.075486
35.926,74.9403,-0.075486
35.957,74.9403,-0.075486
35.988,74.9403,-0.075486
36.020,74.9403,-0.075486
36.051,74.9403,-0.075486
36.081,74.9403,-0.075486
36.113,74.9403,-0.075486
36.144,74.9403,-0.073733
36.175,74.9403,-0.073733
36.206,74.9403,-0.073733
36.237,74.9403,-0.073733
36.268,74.9403,-0.073733
36.299,74.9403,-0.073733
36.330,74.9403,-0.073733
36.362,74.9403,-0.073733
36.393,74.9403,-0.072169
36.424,74.9403,-0.072169
36.455,74.9403,-0.072169
36.486,74.9403,-0.072169
36.517,74.9403,-0.072169
36.549,74.9403,-0.072169
36.580,74.9403,-0.072169
36.611,74.9403,-0.072169
36.642,74.9403,-0.072169
36.673,74.9403,-0.070888
36.704,74.9403,-0.070888
36.735,74.9403,-0.070888
36.766,74.9403,-0.070888
36.797,74.9403,-0.070888
36.827,74.9403,-0.070888
36.858,74.9403,-0.070888
36.889,74.9403,-0.070888
36.921,74.9403,-0.069767
36.952,74.9403,-0.069767
36.984,74.9403,-0.069767
37.015,74.9403,-0.069767
37.047,74.9403,-0.069767
37.078,74.9403,-0.069767
37.109,74.9403,-0.069767
37.140,74.9403,-0.069767
37.171,74.9403,-0.068740
37.202,74.9403,-0.068740
37.233,74.9403,-0.068740
37.263,74.9403,-0.068740
37.294,74.9403,-0.068740
37.325,74.9403,-0.068740
37.355,74.9403,-0.068740
37.386,74.9403,-0.068740
37.417,74.9403,-0.067873
37.448,74.9403,-0.067873
37.480,74.9403,-0.067873
37.511,74.9403,-0.067873
37.542,74.9403,-0.067873
37.573,74.9403,-0.067873
37.604,74.9403,-0.067873
37.636,74.9403,-0.067873
37.668,74.9403,-0.067091
37.699,74.9403,-0.067091
37.730,74.9403,-0.067091
37.761,74.9403,-0.067091
37.792,74.9403,-0.067091
37.824,74.9403,-0.067091
37.855,74.9403,-0.067091
37.886,74.9403,-0.067091
37.918,74.9403,-0.066347
37.948,74.9403,-0.066347
37.979,74.9403,-0.066347
38.009,74.9403,-0.066347
38.041,74.9403,-0.066347
38.072,74.9403,-0.066347
38.103,74.9403,-0.066347
38.135,74.9403,-0.066347
38.167,74.9403,-0.065650
38.197,74.9403,-0.065650
38.228,74.9403,-0.065650
38.259,74.9403,-0.065650
38.290,74.9403,-0.065650
38.321,74.9403,-0.065650
38.353,74.9403,-0.065650
38.383,74.9403,-0.064924
38.414,74.9403,-0.064924
38.445,74.9403,-0.064924
38.477,74.9403,-0.064924
38.509,74.9403,-0.064924
38.540,74.9403,-0.064924
38.571,74.9403,-0.064924
38.602,74.9403,-0.064924
38.633,74.9403,-0.064924
38.664,74.9403,-0.064048
38.695,74.9403,-0.064048
38.727,74.9403,-0.064048
38.758,74.9403,-0.064048
38.790,74.9403,-0.064048
38.820,74.9403,-0.064048
38.852,74.9403,-0.064048
38.882,74.9403,-0.064048
38.914,74.9403,-0.061862
38.945,74.9403,-0.061862
38.976,74.9403,-0.061862
39.006,74.9403,-0.061862
39.038,74.9403,-0.061862
39.070,74.9403,-0.061862
39.102,74.9403,-0.061862
39.132,74.9403,-0.061862
39.163,74.9403,-0.059215
39.195,74.9397,-0.059215
39.227,74.9383,-0.059215
39.258,74.9363,-0.059215
39.289,74.9335,-0.059215
39.319,74.9300,-0.059215
39.350,74.9258,-0.059215
39.381,74.9207,-0.059215
39.412,74.9151,-0.057528
39.444,74.9088,-0.057528
39.474,74.9027,-0.057528
39.505,74.8965,-0.057528
39.536,74.8903,-0.057528
39.568,74.8840,-0.057528
39.600,74.8775,-0.057528
39.631,74.8713,-0.049049
39.663,74.8650,-0.049049
39.695,74.8586,-0.049049
39.726,74.8524,-0.049049
39.756,74.8464,-0.049049
39.787,74.8402,-0.049049
39.817,74.8341,-0.049049
39.848,74.8279,-0.049049
39.879,74.8217,-0.032165
39.911,74.8154,-0.032165
39.941,74.8093,-0.032165
39.973,74.8030,-0.032165
40.004,74.7967,-0.032165
40.035,74.7906,-0.032165
40.066,74.7844,-0.032165
40.097,74.7783,-0.032165
40.128,74.7720,-0.032165
40.160,74.7657,-0.032165
40.190,74.7595,-0.015093
40.221,74.7534,-0.015093
40.252,74.7471,-0.015093
40.283,74.7411,-0.015093
40.314,74.7348,-0.015093
40.346,74.7285,-0.015093
40.377,74.7223,-0.015093
40.408,74.7159,-0.000283
40.442,74.7092,-0.000283
40.470,74.7035,-0.000283
40.502,74.6972,-0.000283
40.534,74.6909,-0.000283
40.564,74.6848,-0.000283
40.594,74.6789,-0.000283
40.625,74.6725,-0.000283
40.656,74.6663,-0.000283
40.687,74.6600,0.012719
40.719,74.6538,0.012719
40.751,74.6474,0.012719
40.783,74.6411,0.012719
40.814,74.6347,0.012719
40.845,74.6285,0.012719
40.877,74.6220,0.012719
40.909,74.6160,0.012719
40.940,74.6095,0.024270
40.971,74.6034,0.024270
41.002,74.5972,0.024270
41.033,74.5910,0.024270
41.063,74.5850,0.024270
41.095,74.5785,0.024270
41.126,74.5724,0.024270
41.156,74.5662,0.034596
41.188,74.5600,0.034596
41.219,74.5540,0.034596
41.250,74.5476,0.034596
41.281,74.5413,0.034596
41.312,74.5354,0.034596
41.343,74.5290,0.034596
41.375,74.5227,0.034596
41.405,74.5166,0.034596
41.436,74.5104,0.044329
41.467,74.5041,0.044329
41.498,74.4979,0.044329
41.530,74.4916,0.044329
41.561,74.4854,0.044329
41.592,74.4792,0.044329
41.624,74.4728,0.044329
41.655,74.4665,0.053562
41.686,74.4604,0.053562
41.718,74.4541,0.053562
41.748,74.4480,0.053562
41.780,74.4416,0.053562
41.811,74.4354,0.053562
41.841,74.4294,0.053562
41.872,74.4232,0.053562
41.903,74.4170,0.053562
41.934,74.4108,0.062682
41.965,74.4046,0.062682
41.996,74.3984,0.062682
42.027,74.3922,0.062682
42.058,74.3859,0.062682
42.089,74.3798,0.062682
42.120,74.3736,0.062682
42.151,74.3674,0.072028
42.182,74.3612,0.072028
42.213,74.3550,0.072028
42.244,74.3487,0.072028
42.275,74.3425,0.072028
42.306,74.3364,0.072028
42.337,74.3302,0.072028
42.368,74.3240,0.072028
42.398,74.3179,0.072028
42.429,74.3119,0.081893
42.461,74.3054,0.081893
42.491,74.2993,0.081893
42.523,74.2930,0.081893
42.554,74.2868,0.081893
42.586,74.2804,0.081893
42.618,74.2742,0.081893
42.648,74.2680,0.092501
42.678,74.2620,0.092501
42.710,74.2556,0.092501
42.742,74.2491,0.092501
42.773,74.2430,0.092501
42.805,74.2367,0.092501
42.836,74.2304,0.092501
42.867,74.2242,0.092501
42.899,74.2179,0.092501
42.930,74.2115,0.104014
42.961,74.2055,0.104014
42.992,74.1991,0.104014
43.023,74.1929,0.104014
43.054,74.1869,0.104014
43.085,74.1808,0.104014
43.116,74.1744,0.104014
43.147,74.1681,0.116950
43.179,74.1619,0.116950
43.209,74.1556,0.116950
43.241,74.1495,0.116950
43.272,74.1432,0.116950
43.302,74.1371,0.116950
43.334,74.1308,0.116950
43.365,74.1246,0.116950
43.397,74.1181,0.131139
43.428,74.1121,0.131139
43.458,74.1059,0.131139
43.489,74.0998,0.131139
43.521,74.0935,0.131139
43.552,74.0873,0.131139
43.583,74.0809,0.131139
43.614,74.0746,0.131139
43.645,74.0687,0.146798
43.677,74.0623,0.146798
43.707,74.0559,0.146798
43.739,74.0498,0.146798
43.770,74.0435,0.146798
43.801,74.0375,0.146798
43.831,74.0313,0.146798
43.862,74.0252,0.146798
43.893,74.0189,0.164096
43.925,74.0126,0.164096
43.956,74.0064,0.164096
43.987,74.0002,0.164096
44.018,73.9940,0.164096
44.050,73.9878,0.164096
44.080,73.9816,0.164096
44.111,73.9754,0.164096
44.143,73.9692,0.182930
44.175,73.9626,0.182930
44.205,73.9565,0.182930
44.237,73.9502,0.182930
44.269,73.9439,0.182930
44.301,73.9376,0.182930
44.332,73.9311,0.182930
44.363,73.9250,0.182930
44.395,73.9187,0.203601
44.426,73.9125,0.203601
44.456,73.9064,0.203601
44.487,73.9002,0.203601
44.517,73.8942,0.203601
44.548,73.8881,0.203601
44.579,73.8819,0.203601
44.610,73.8756,0.203601
44.642,73.8694,0.225911
44.674,73.8629,0.225911
44.705,73.8567,0.225911
44.736,73.8503,0.225911
44.768,73.8441,0.225911
44.799,73.8380,0.225911
44.830,73.8314,0.225911
44.861,73.8254,0.225911
44.891,73.8194,0.225911
44.922,73.8132,0.249776
44.953,73.8071,0.249776
44.984,73.8008,0.249776
45.015,73.7947,0.249776
45.046,73.7885,0.249776
45.077,73.7822,0.249776
45.108,73.7761,0.249776
45.140,73.7698,0.275035
45.171,73.7633,0.275035
45.202,73.7574,0.275035
45.233,73.7510,0.275035
45.263,73.7451,0.275035
45.294,73.7386,0.275035
45.325,73.7327,0.275035
45.357,73.7262,0.275035
45.388,73.7200,0.275035
45.419,73.7137,0.301322
45.451,73.7075,0.301322
45.481,73.7014,0.301322
45.512,73.6952,0.301322
45.543,73.6889,0.301322
45.575,73.6828,0.301322
45.606,73.6764,0.301322
45.638,73.6702,0.328267
45.669,73.6638,0.328267
45.700,73.6576,0.328267
45.732,73.6512,0.328267
45.761,73.6454,0.328267
45.793,73.6390,0.328267
45.823,73.6332,0.328267
45.854,73.6269,0.328267
45.885,73.6206,0.355175
45.915,73.6146,0.355175
45.947,73.6082,0.355175
45.978,73.6020,0.355175
46.009,73.5958,0.355175
46.041,73.5894,0.355175
46.072,73.5831,0.355175
46.103,73.5772,0.355175
46.134,73.5708,0.381292
46.165,73.5647,0.381292
46.196,73.5583,0.381292
46.227,73.5522,0.381292
46.259,73.5458,0.381292
46.291,73.5394,0.381292
46.322,73.5334,0.381292
46.352,73.5272,0.381292
46.384,73.5208,0.405581
46.416,73.5143,0.405581
46.447,73.5083,0.405581
46.478,73.5021,0.405581
46.509,73.4958,0.405581
46.541,73.4895,0.405581
46.571,73.4834,0.405581
46.601,73.4773,0.405581
46.633,73.4710,0.426450
46.664,73.4648,0.426450
46.695,73.4585,0.426450
46.726,73.4524,0.426450
46.758,73.4461,0.426450
46.789,73.4397,0.426450
46.820,73.4335,0.426450
46.851,73.4275,0.426450
46.882,73.4211,0.441129
46.913,73.4151,0.441129
46.945,73.4087,0.441129
46.975,73.4027,0.441129
47.005,73.3966,0.441129
47.036,73.3902,0.441129
47.067,73.3839,0.441129
47.099,73.3778,0.441129
47.129,73.3718,0.444539
47.161,73.3656,0.444539
47.191,73.3595,0.444539
47.222,73.3533,0.444539
47.253,73.3471,0.444539
47.284,73.3409,0.444539
47.315,73.3348,0.444539
47.346,73.3285,0.444539
47.377,73.3223,0.394040
47.408,73.3160,0.394040
47.440,73.3096,0.394040
47.470,73.3037,0.394040
47.501,73.2974,0.394040
47.533,73.2912,0.394040
47.564,73.2850,0.394040
47.594,73.2786,0.394040
47.625,73.2727,0.394040
47.656,73.2663,0.181083
47.687,73.2601,0.181083
47.718,73.2539,0.181083
47.749,73.2479,0.181083
47.781,73.2414,0.181083
47.811,73.2355,0.181083
47.842,73.2290,0.181083
47.874,73.2229,0.181083
47.906,73.2165,0.018231
47.937,73.2103,0.018231
47.969,73.2038,0.018231
48.000,73.1976,0.018231
48.031,73.1914,0.018231
48.062,73.1852,0.018231
48.094,73.1790,0.018231
48.125,73.1726,0.018231
48.155,73.1668,0.018231
48.186,73.1604,0.020059
48.217,73.1542,0.020059
48.248,73.1479,0.020059
48.279,73.1420,0.020059
48.310,73.1358,0.020059
48.340,73.1297,0.020059
48.371,73.1235,0.020059
48.402,73.1173,0.020483
48.434,73.1109,0.020483
48.465,73.1047,0.020483
48.497,73.0984,0.020483
48.527,73.0922,0.020483
48.559,73.0859,0.020483
48.590,73.0796,0.020483
48.621,73.0735,0.020483
48.651,73.0674,0.020577
48.683,73.0611,0.020577
48.714,73.0546,0.020577
48.746,73.0484,0.020577
48.776,73.0425,0.020577
48.807,73.0364,0.020577
48.838,73.0301,0.020577
48.870,73.0236,0.020577
48.901,73.0176,0.020520
48.932,73.0112,0.020520
48.963,73.0050,0.020520
48.995,72.9987,0.020520
49.026,72.9926,0.020520
49.058,72.9861,0.020520
49.087,72.9802,0.020520
49.118,72.9740,0.020520
49.149,72.9677,0.020464
49.180,72.9616,0.020464
49.212,72.9554,0.020464
49.243,72.9491,0.020464
49.274,72.9430,0.020464
49.306,72.9364,0.020464
49.336,72.9305,0.020464
49.366,72.9244,0.020464
49.398,72.9181,0.020464
49.428,72.9119,0.020464
49.460,72.9058,0.020464
49.490,72.8995,0.020464
49.521,72.8934,0.020464
49.553,72.8871,0.020464
49.584,72.8810,0.020464
49.615,72.8748,0.020464
49.645,72.8686,0.020511
49.675,72.8627,0.020511
49.706,72.8565,0.020511
49.737,72.8501,0.020511
49.769,72.8439,0.020511
49.800,72.8377,0.020511
49.830,72.8315,0.020511
49.862,72.8252,0.020511
49.893,72.8190,0.020520
49.923,72.8129,0.020520
49.954,72.8068,0.020520
49.985,72.8005,0.020520
50.016,72.7944,0.020520
50.047,72.7881,0.020520
50.079,72.7819,0.020520
50.111,72.7753,0.020520
50.142,72.7691,0.020473
50.173,72.7631,0.020473
50.205,72.7567,0.020473
50.236,72.7505,0.020473
50.267,72.7442,0.020473
50.298,72.7381,0.020473
50.329,72.7318,0.020473
50.360,72.7257,0.020473
50.392,72.7192,0.020473
50.422,72.7133,0.020483
50.453,72.7071,0.020483
50.484,72.7009,0.020483
50.515,72.6946,0.020483
50.546,72.6885,0.020483
50.577,72.6823,0.020483
50.608,72.6760,0.020483
50.640,72.6697,0.020483
50.671,72.6636,0.020464
50.703,72.6570,0.020464
50.734,72.6509,0.020464
50.765,72.6446,0.020464
50.797,72.6383,0.020464
50.828,72.6320,0.020464
50.859,72.6258,0.020464
50.890,72.6196,0.020445
50.922,72.6134,0.020445
50.953,72.6073,0.020445
50.984,72.6010,0.020445
51.015,72.5945,0.020445
51.046,72.5884,0.020445
51.077,72.5822,0.020445
51.108,72.5762,0.020445
51.139,72.5700,0.020445
51.169,72.5639,0.020483
51.200,72.5577,0.020483
51.231,72.5515,0.020483
51.263,72.5452,0.020483
51.294,72.5387,0.020483
51.326,72.5325,0.020483
51.357,72.5264,0.020483
51.387,72.5203,0.020483
51.418,72.5140,0.020530
51.450,72.5078,0.020530
51.480,72.5016,0.020530
51.511,72.4954,0.020530
51.542,72.4893,0.020530
51.573,72.4829,0.020530
51.604,72.4769,0.020530
51.635,72.4706,0.020530
51.666,72.4645,0.020530
51.697,72.4582,0.020530
51.729,72.4520,0.020530
51.760,72.4456,0.020530
51.791,72.4395,0.020530
51.823,72.4330,0.020530
51.854,72.4270,0.020530
51.886,72.4206,0.020530
51.916,72.4146,0.020483
51.946,72.4085,0.020483
51.977,72.4023,0.020483
52.009,72.3960,0.020483
52.040,72.3896,0.020483
52.071,72.3834,0.020483
52.103,72.3772,0.020483
52.133,72.3711,0.020549
52.163,72.3652,0.020549
52.194,72.3589,0.020549
52.226,72.3525,0.020549
52.257,72.3462,0.020549
52.287,72.3403,0.020549
52.317,72.3342,0.020549
52.350,72.3279,0.020549
52.379,72.3219,0.020549
52.410,72.3156,0.020605
52.441,72.3094,0.020605
52.472,72.3033,0.020605
52.504,72.2970,0.020605
52.535,72.2907,0.020605
52.565,72.2847,0.020605
52.596,72.2783,0.020605
52.628,72.2721,0.020539
52.659,72.2660,0.020539
52.690,72.2598,0.020539
52.721,72.2535,0.020539
52.752,72.2472,0.020539
52.783,72.2409,0.020539
52.814,72.2350,0.020539
52.843,72.2289,0.020539
52.874,72.2228,0.020530
52.906,72.2165,0.020530
52.937,72.2102,0.020530
52.968,72.2042,0.020530
52.999,72.1979,0.020530
53.030,72.1917,0.020530
53.062,72.1852,0.020530
53.093,72.1792,0.020530
53.124,72.1727,0.020530
53.155,72.1666,0.020549
53.186,72.1606,0.020549
53.217,72.1542,0.020549
53.249,72.1479,0.020549
53.280,72.1418,0.020549
53.311,72.1355,0.020549
53.342,72.1293,0.020549
53.373,72.1231,0.020549
53.403,72.1171,0.020549
53.434,72.1108,0.020549
53.466,72.1045,0.020549
53.496,72.0984,0.020549
53.527,72.0922,0.020549
53.558,72.0860,0.020549
53.590,72.0798,0.020549
53.621,72.0735,0.020549
53.652,72.0673,0.020549
53.684,72.0610,0.020586
53.714,72.0549,0.020586
53.744,72.0487,0.020586
53.775,72.0426,0.020586
53.806,72.0364,0.020586
53.836,72.0306,0.020586
53.868,72.0241,0.020586
53.899,72.0179,0.020605
53.930,72.0115,0.020605
53.962,72.0053,0.020605
53.994,71.9987,0.020605
54.026,71.9926,0.020605
54.058,71.9861,0.020605
54.090,71.9799,0.020605
54.120,71.9735,0.020605
54.151,71.9676,0.020614
54.182,71.9614,0.020614
54.213,71.9552,0.020614
54.244,71.9488,0.020614
54.276,71.9424,0.020614
54.306,71.9366,0.020614
54.337,71.9305,0.020614
54.368,71.9242,0.020614
54.400,71.9178,0.020624
54.431,71.9118,0.020624
54.462,71.9067,0.020624
54.493,71.9020,0.020624
54.524,71.8982,0.020624
54.555,71.8953,0.020624
54.586,71.8929,0.020624
54.618,71.8913,0.020624
54.650,71.8904,0.020558
54.680,71.8903,0.020558
54.711,71.8903,0.020558
54.742,71.8903,0.020558
54.773,71.8903,0.020558
54.804,71.8906,0.020558
54.835,71.8915,0.020558
54.866,71.8933,0.020558
54.897,71.8958,0.020464
54.928,71.8990,0.020464
54.960,71.9028,0.020464
54.991,71.9075,0.020464
55.022,71.9129,0.020464
55.053,71.9190,0.020464
55.083,71.9250,0.020464
55.115,71.9314,0.020464
55.146,71.9376,0.020256
55.177,71.9438,0.020256
55.208,71.9500,0.020256
55.239,71.9563,0.020256
55.270,71.9622,0.020256
55.300,71.9683,0.020256
55.331,71.9745,0.020256
55.362,71.9808,0.020256
55.392,71.9868,0.020106
55.423,71.9931,0.020106
55.454,71.9991,0.020106
55.485,72.0054,0.020106
55.517,72.0119,0.020106
55.549,72.0182,0.020106
55.580,72.0244,0.020106
55.612,72.0307,0.020106
55.642,72.0368,0.020125
55.673,72.0430,0.020125
55.703,72.0491,0.020125
55.734,72.0553,0.020125
55.766,72.0615,0.020125
55.797,72.0678,0.020125
55.828,72.0739,0.020125
55.858,72.0801,0.020125
55.889,72.0865,0.020068
55.921,72.0926,0.020068
55.953,72.0989,0.020068
55.983,72.1050,0.020068
56.014,72.1112,0.020068
56.045,72.1174,0.020068
56.076,72.1235,0.020068
56.106,72.1297,0.020068
56.138,72.1359,0.019974
56.169,72.1421,0.019974
56.200,72.1484,0.019974
56.232,72.1549,0.019974
56.262,72.1608,0.019974
56.294,72.1671,0.019974
56.325,72.1736,0.019974
56.355,72.1794,0.019974
56.386,72.1856,0.019955
56.416,72.1917,0.019955
56.448,72.1980,0.019955
56.479,72.2043,0.019955
56.510,72.2105,0.019955
56.541,72.2166,0.019955
56.573,72.2231,0.019955
56.604,72.2291,0.019955
56.635,72.2353,0.019955
56.666,72.2414,0.019964
56.696,72.2476,0.019964
56.727,72.2537,0.019964
56.758,72.2599,0.019964
56.790,72.2665,0.019964
56.820,72.2724,0.019964
56.852,72.2786,0.019964
56.883,72.2850,0.019964
56.914,72.2912,0.019898
56.945,72.2975,0.019898
56.976,72.3036,0.019898
57.007,72.3099,0.019898
57.038,72.3160,0.019898
57.069,72.3224,0.019898
57.101,72.3286,0.019898
57.133,72.3351,0.019898
57.164,72.3411,0.019861
57.196,72.3476,0.019861
57.226,72.3535,0.019861
57.257,72.3600,0.019861
57.289,72.3661,0.019861
57.320,72.3725,0.019861
57.351,72.3786,0.019861
57.384,72.3852,0.019814
57.414,72.3911,0.019814
57.445,72.3973,0.019814
57.475,72.4034,0.019814
57.506,72.4096,0.019814
57.538,72.4160,0.019814
57.569,72.4221,0.019814
57.599,72.4282,0.019814
57.629,72.4342,0.019701
57.661,72.4407,0.019701
57.691,72.4467,0.019701
57.722,72.4528,0.019701
57.754,72.4591,0.019701
57.785,72.4654,0.019701
57.816,72.4715,0.019701
57.846,72.4777,0.019701
57.877,72.4839,0.019701
57.908,72.4900,0.019719
57.939,72.4962,0.019719
57.971,72.5025,0.019719
58.002,72.5087,0.019719
58.033,72.5150,0.019719
58.063,72.5210,0.019719
58.094,72.5273,0.019719
58.125,72.5334,0.019719
58.156,72.5397,0.019719
58.187,72.5458,0.019710
58.218,72.5521,0.019710
58.249,72.5582,0.019710
58.281,72.5647,0.019710
58.312,72.5707,0.019710
58.344,72.5773,0.019710
58.375,72.5834,0.019710
58.407,72.5898,0.019710
58.439,72.5960,0.019653
58.470,72.6026,0.019653
58.503,72.6089,0.019653
58.533,72.6150,0.019653
58.565,72.6214,0.019653
58.596,72.6275,0.019653
58.626,72.6337,0.019653
58.658,72.6400,0.019616
58.690,72.6462,0.019616
58.721,72.6526,0.019616
58.752,72.6588,0.019616
58.783,72.6650,0.019616
58.814,72.6712,0.019616
58.845,72.6774,0.019616
58.877,72.6837,0.019616
58.907,72.6898,0.019616
58.938,72.6960,0.019512
58.969,72.7022,0.019512
59.000,72.7082,0.019512
59.032,72.7148,0.019512
59.062,72.7208,0.019512
59.093,72.7272,0.019512
59.123,72.7329,0.019512
59.154,72.7392,0.019474
59.186,72.7455,0.019474
59.216,72.7517,0.019474
59.247,72.7579,0.019474
59.277,72.7638,0.019474
59.309,72.7703,0.019474
59.340,72.7762,0.019474
59.370,72.7824,0.019474
59.400,72.7885,0.019474
59.431,72.7948,0.019465
59.461,72.8006,0.019465
59.493,72.8068,0.019465
59.524,72.8132,0.019465
59.554,72.8191,0.019465
59.585,72.8254,0.019465
59.617,72.8316,0.019465
59.648,72.8381,0.019456
59.678,72.8439,0.019456
59.709,72.8500,0.019456
59.739,72.8562,0.019456
59.770,72.8624,0.019456
59.801,72.8686,0.019456
59.832,72.8747,0.019456
59.862,72.8809,0.019456
59.894,72.8871,0.019427
59.924,72.8933,0.019427
59.956,72.8996,0.019427
59.987,72.9059,0.019427
60.017,72.9118,0.019427
60.049,72.9181,0.019427
60.080,72.9243,0.019427
60.112,72.9306,0.019427
60.143,72.9371,0.019390
60.174,72.9431,0.019390
60.205,72.9492,0.019390
60.235,72.9554,0.019390
60.266,72.9617,0.019390
60.298,72.9678,0.019390
60.328,72.9739,0.019390
60.358,72.9800,0.019390
60.389,72.9861,0.019352
60.419,72.9921,0.019352
60.451,72.9985,0.019352
60.483,73.0050,0.019352
60.514,73.0110,0.019352
60.545,73.0173,0.019352
60.576,73.0235,0.019352
60.606,73.0296,0.019352
60.637,73.0359,0.019239
60.668,73.0420,0.019239
60.699,73.0481,0.019239
60.729,73.0541,0.019239
60.760,73.0603,0.019239
60.791,73.0665,0.019239
60.822,73.0729,0.019239
60.853,73.0790,0.019239
60.884,73.0850,0.019239
60.915,73.0912,0.019220
60.945,73.0973,0.019220
60.976,73.1036,0.019220
61.008,73.1098,0.019220
61.038,73.1160,0.019220
61.070,73.1224,0.019220
61.101,73.1287,0.019220
61.132,73.1348,0.019211
61.164,73.1412,0.019211
61.194,73.1472,0.019211
61.225,73.1534,0.019211
61.256,73.1596,0.019211
61.287,73.1658,0.019211
61.318,73.1720,0.019211
61.349,73.1780,0.019211
61.379,73.1844,0.019211
61.409,73.1902,0.019145
61.440,73.1964,0.019145
61.471,73.2026,0.019145
61.503,73.2088,0.019145
61.534,73.2151,0.019145
61.566,73.2215,0.019145
61.597,73.2277,0.019145
61.628,73.2340,0.019116
61.660,73.2404,0.019116
61.691,73.2464,0.019116
61.721,73.2526,0.019116
61.752,73.2587,0.019116
61.783,73.2649,0.019116
61.813,73.2709,0.019116
61.844,73.2771,0.019116
61.875,73.2835,0.019116
61.906,73.2895,0.019116
61.938,73.2960,0.019050
61.969,73.3022,0.019050
62.000,73.3084,0.019050
62.030,73.3143,0.019050
62.062,73.3209,0.019050
62.093,73.3269,0.019050
62.124,73.3332,0.019050
62.155,73.3394,0.018919
62.187,73.3458,0.018919
62.219,73.3520,0.018919
62.250,73.3584,0.018919
62.281,73.3645,0.018919
62.312,73.3707,0.018919
62.342,73.3767,0.018919
62.373,73.3829,0.018919
62.404,73.3893,0.018815
62.435,73.3953,0.018815
62.465,73.4015,0.018815
62.495,73.4075,0.018815
62.526,73.4134,0.018815
62.557,73.4196,0.018815
62.588,73.4258,0.018815
62.618,73.4320,0.018815
62.650,73.4382,0.018730
62.681,73.4444,0.018730
62.712,73.4508,0.018730
62.744,73.4572,0.018730
62.775,73.4632,0.018730
62.805,73.4694,0.018730
62.837,73.4757,0.018730
62.868,73.4820,0.018645
62.900,73.4884,0.018645
62.931,73.4946,0.018645
62.962,73.5006,0.018645
62.992,73.5067,0.018645
63.023,73.5130,0.018645
63.054,73.5191,0.018645
63.086,73.5254,0.018645
63.117,73.5316,0.018645
63.148,73.5378,0.018645
63.179,73.5440,0.018570
63.211,73.5505,0.018570
63.242,73.5566,0.018570
63.273,73.5629,0.018570
63.305,73.5692,0.018570
63.336,73.5754,0.018570
63.367,73.5819,0.018570
63.398,73.5878,0.018570
63.429,73.5940,0.018495
63.460,73.6003,0.018495
63.491,73.6064,0.018495
63.522,73.6127,0.018495
63.552,73.6187,0.018495
63.583,73.6250,0.018495
63.615,73.6315,0.018495
63.646,73.6376,0.018495
63.677,73.6436,0.018325
63.708,73.6501,0.018325
63.739,73.6560,0.018325
63.771,73.6625,0.018325
63.801,73.6684,0.018325
63.831,73.6744,0.018325
63.861,73.6805,0.018325
63.893,73.6868,0.018325
63.923,73.6931,0.018193
63.955,73.6993,0.018193
63.986,73.7055,0.018193
64.018,73.7118,0.018193
64.049,73.7180,0.018193
64.081,73.7245,0.018193
64.111,73.7304,0.018193
64.142,73.7368,0.018193
64.173,73.7431,0.018118
64.204,73.7493,0.018118
64.235,73.7554,0.018118
64.267,73.7618,0.018118
64.299,73.7680,0.018118
64.330,73.7743,0.018118
64.361,73.7806,0.018118
64.393,73.7870,0.018118
64.425,73.7932,0.017910
64.457,73.7997,0.017910
64.487,73.8057,0.017910
64.518,73.8119,0.017910
64.549,73.8180,0.017910
64.581,73.8245,0.017910
64.612,73.8309,0.017910
64.643,73.8370,0.017703
64.675,73.8432,0.017703
64.706,73.8495,0.017703
64.738,73.8558,0.017703
64.767,73.8619,0.017703
64.798,73.8679,0.017703
64.830,73.8743,0.017703
64.861,73.8804,0.017703
64.892,73.8868,0.017703
64.923,73.8928,0.017477
64.952,73.8989,0.017477
64.984,73.9049,0.017477
65.015,73.9114,0.017477
65.046,73.9176,0.017477
65.078,73.9242,0.017477
65.110,73.9302,0.017477
65.142,73.9368,0.017477
65.173,73.9429,0.017147
65.204,73.9491,0.017147
65.234,73.9552,0.017147
65.265,73.9613,0.017147
65.296,73.9677,0.017147
65.328,73.9739,0.017147
65.358,73.9800,0.017147
65.389,73.9862,0.017147
65.420,73.9924,0.016770
65.452,73.9987,0.016770
65.483,74.0049,0.016770
65.514,74.0111,0.016770
65.545,74.0172,0.016770
65.575,74.0234,0.016770
65.606,74.0295,0.016770
65.636,74.0357,0.016384
65.668,74.0419,0.016384
65.699,74.0482,0.016384
65.729,74.0541,0.016384
65.760,74.0602,0.016384
65.791,74.0667,0.016384
65.821,74.0724,0.016384
65.852,74.0790,0.016384
65.883,74.0849,0.016384
65.914,74.0912,0.015838
65.945,74.0972,0.015838
65.975,74.1035,0.015838
66.007,74.1097,0.015838
66.039,74.1162,0.015838
66.070,74.1224,0.015838
66.101,74.1286,0.015838
66.130,74.1344,0.015103
66.161,74.1406,0.015103
66.192,74.1468,0.015103
66.224,74.1531,0.015103
66.254,74.1593,0.015103
66.285,74.1653,0.015103
66.316,74.1716,0.015103
66.347,74.1777,0.015103
66.378,74.1840,0.014236
66.409,74.1901,0.014236
66.440,74.1964,0.014236
66.471,74.2025,0.014236
66.501,74.2087,0.014236
66.532,74.2148,0.014236
66.564,74.2210,0.014236
66.594,74.2270,0.014236
66.626,74.2335,0.013115
66.657,74.2398,0.013115
66.687,74.2459,0.013115
66.718,74.2518,0.013115
66.749,74.2582,0.013115
66.781,74.2646,0.013115
66.812,74.2707,0.013115
66.843,74.2770,0.013115
66.875,74.2833,0.013115
66.905,74.2894,0.011711
66.937,74.2956,0.011711
66.968,74.3018,0.011711
66.999,74.3080,0.011711
67.030,74.3142,0.011711
67.062,74.3205,0.011711
67.092,74.3266,0.011711
67.123,74.3331,0.011711
67.155,74.3393,0.009996
67.186,74.3456,0.009996
67.218,74.3518,0.009996
67.248,74.3580,0.009996
67.278,74.3640,0.009996
67.309,74.3700,0.009996
67.340,74.3764,0.009996
67.372,74.3827,0.009996
67.403,74.3889,0.007829
67.434,74.3951,0.007829
67.465,74.4015,0.007829
67.496,74.4075,0.007829
67.527,74.4136,0.007829
67.558,74.4198,0.007829
67.588,74.4260,0.007829
67.620,74.4324,0.007829
67.651,74.4385,0.005003
67.683,74.4449,0.005003
67.715,74.4511,0.005003
67.746,74.4575,0.005003
67.777,74.4638,0.005003
67.808,74.4697,0.005003
67.839,74.4762,0.005003
67.870,74.4824,0.001479
67.901,74.4885,0.001479
67.932,74.4948,0.001479
67.963,74.5009,0.001479
67.994,74.5072,0.001479
68.026,74.5134,0.001479
68.057,74.5197,0.001479
68.088,74.5259,0.001479
68.119,74.5323,0.001479
68.150,74.5383,-0.003015
68.181,74.5445,-0.003015
68.212,74.5507,-0.003015
68.243,74.5569,-0.003015
68.274,74.5631,-0.003015
68.305,74.5693,-0.003015
68.336,74.5754,-0.003015
68.367,74.5816,-0.003015
68.398,74.5878,-0.003015
68.428,74.5939,-0.008423
68.460,74.6002,-0.008423
68.491,74.6064,-0.008423
68.523,74.6127,-0.008423
68.553,74.6189,-0.008423
68.585,74.6253,-0.008423
68.617,74.6316,-0.008423
68.646,74.6376,-0.008423
68.676,74.6436,-0.014782
68.708,74.6498,-0.014782
68.738,74.6559,-0.014782
68.769,74.6621,-0.014782
68.801,74.6684,-0.014782
68.833,74.6748,-0.014782
68.864,74.6812,-0.014782
68.895,74.6873,-0.022414
68.926,74.6935,-0.022414
68.957,74.6996,-0.022414
68.988,74.7059,-0.022414
69.020,74.7122,-0.022414
69.050,74.7184,-0.022414
69.081,74.7245,-0.022414
69.112,74.7307,-0.022414
69.143,74.7370,-0.031383
69.175,74.7432,-0.031383
69.206,74.7495,-0.031383
69.237,74.7557,-0.031383
69.268,74.7619,-0.031383
69.298,74.7680,-0.031383
69.329,74.7742,-0.031383
69.360,74.7804,-0.031383
69.392,74.7866,-0.041954
69.423,74.7928,-0.041954
69.454,74.7990,-0.041954
69.485,74.8055,-0.041954
69.517,74.8116,-0.041954
69.547,74.8178,-0.041954
69.578,74.8238,-0.041954
69.610,74.8302,-0.041954
69.641,74.8366,-0.054278
69.672,74.8426,-0.054278
69.703,74.8490,-0.054278
69.733,74.8550,-0.054278
69.765,74.8613,-0.054278
69.795,74.8671,-0.054278
69.827,74.8728,-0.054278
69.857,74.8773,-0.054278
69.889,74.8815,-0.054278
69.920,74.8846,-0.068523
69.951,74.8871,-0.068523
69.982,74.8889,-0.068523
70.012,74.8899,-0.068523
70.043,74.8903,-0.068523
70.075,74.8903,-0.068523
70.106,74.8903,-0.068523
70.136,74.8903,-0.079942
70.167,74.8903,-0.079942
70.198,74.8903,-0.079942
70.229,74.8903,-0.079942
70.259,74.8903,-0.079942
70.290,74.8903,-0.079942
70.321,74.8903,-0.079942
70.353,74.8903,-0.079942
70.384,74.8903,-0.079942
70.416,74.8903,-0.082317
70.446,74.8903,-0.082317
70.476,74.8903,-0.082317
70.507,74.8903,-0.082317
70.537,74.8903,-0.082317
70.569,74.8903,-0.082317
70.599,74.8903,-0.082317
70.630,74.8903,-0.082317
70.662,74.8903,-0.079603
70.692,74.8903,-0.079603
70.723,74.8903,-0.079603
70.754,74.8903,-0.079603
70.785,74.8903,-0.079603
70.816,74.8903,-0.079603
70.847,74.8903,-0.079603
70.879,74.8903,-0.077238
70.910,74.8903,-0.077238
70.941,74.8903,-0.077238
70.972,74.8903,-0.077238
71.005,74.8903,-0.077238
71.034,74.8903,-0.077238
71.065,74.8903,-0.077238
71.096,74.8903,-0.077238
71.127,74.8903,-0.077238
71.158,74.8903,-0.077238
71.190,74.8903,-0.075316
71.221,74.8903,-0.075316
71.253,74.8903,-0.075316
71.283,74.8903,-0.075316
71.315,74.8903,-0.075316
71.347,74.8903,-0.075316
71.377,74.8903,-0.075316
71.408,74.8903,-0.073649
71.440,74.8903,-0.073649
71.472,74.8903,-0.073649
71.503,74.8903,-0.073649
71.535,74.8903,-0.073649
71.566,74.8903,-0.073649
71.597,74.8903,-0.073649
71.627,74.8903,-0.073649
71.658,74.8903,-0.072283
71.689,74.8903,-0.072283
71.720,74.8903,-0.072283
71.751,74.8903,-0.072283
71.783,74.8903,-0.072283
71.812,74.8903,-0.072283
71.844,74.8903,-0.072283
71.874,74.8903,-0.072283
71.905,74.8903,-0.071161
71.936,74.8903,-0.071161
71.969,74.8903,-0.071161
71.999,74.8903,-0.071161
72.031,74.8903,-0.071161
72.063,74.8903,-0.071161
72.095,74.8903,-0.071161
72.126,74.8903,-0.071161
72.159,74.8903,-0.070097
72.188,74.8903,-0.070097
72.220,74.8903,-0.070097
72.250,74.8903,-0.070097
72.281,74.8903,-0.070097
72.312,74.8903,-0.070097
72.344,74.8903,-0.070097
72.375,74.8903,-0.069117
72.406,74.8903,-0.069117
72.438,74.8903,-0.069117
72.468,74.8903,-0.069117
72.499,74.8903,-0.069117
72.529,74.8903,-0.069117
72.561,74.8903,-0.069117
72.592,74.8903,-0.069117
72.622,74.8903,-0.069117
72.653,74.8903,-0.068307
72.684,74.8903,-0.068307
72.714,74.8903,-0.068307
72.745,74.8903,-0.068307
72.778,74.8903,-0.068307
72.807,74.8903,-0.068307
72.840,74.8903,-0.068307
72.870,74.8903,-0.067534
72.901,74.8903,-0.067534
72.932,74.8903,-0.067534
72.963,74.8903,-0.067534
72.994,74.8903,-0.067534
73.025,74.8903,-0.067534
73.056,74.8903,-0.067534
73.089,74.8903,-0.067534
73.118,74.8903,-0.067534
73.149,74.8903,-0.066827
73.179,74.8903,-0.066827
73.211,74.8903,-0.066827
73.242,74.8903,-0.066827
73.274,74.8903,-0.066827
73.306,74.8903,-0.066827
73.338,74.8903,-0.066827
73.370,74.8903,-0.066827
73.400,74.8903,-0.066196
73.431,74.8903,-0.066196
73.461,74.8903,-0.066196
73.491,74.8903,-0.066196
73.522,74.8903,-0.066196
73.553,74.8903,-0.066196
73.584,74.8903,-0.066196
73.615,74.8903,-0.066196
73.647,74.8903,-0.065574
73.677,74.8903,-0.065574
73.708,74.8903,-0.065574
73.739,74.8903,-0.065574
73.770,74.8903,-0.065574
73.801,74.8903,-0.065574
73.832,74.8903,-0.065574
73.864,74.8903,-0.065574
73.896,74.8903,-0.065574
73.927,74.8903,-0.065574
73.959,74.8903,-0.064981
73.990,74.8903,-0.064981
74.020,74.8903,-0.064981
74.051,74.8903,-0.064981
74.082,74.8903,-0.064981
74.112,74.8903,-0.064981
74.144,74.8903,-0.064981
74.175,74.8903,-0.064321
74.206,74.8903,-0.064321
74.237,74.8903,-0.064321
74.268,74.8903,-0.064321
74.299,74.8903,-0.064321
74.330,74.8903,-0.064321
74.361,74.8903,-0.064321
74.393,74.8903,-0.064321
74.424,74.8903,-0.062531
74.455,74.8903,-0.062531
74.486,74.8903,-0.062531
74.517,74.8903,-0.062531
74.548,74.8903,-0.062531
74.580,74.8903,-0.062531
74.611,74.8903,-0.062531
74.642,74.8903,-0.062531
74.673,74.8903,-0.059874
74.705,74.8901,-0.059874
74.735,74.8892,-0.059874
74.767,74.8875,-0.059874
74.798,74.8851,-0.059874
74.830,74.8819,-0.059874
74.860,74.8783,-0.059874
74.891,74.8736,-0.057830
74.921,74.8685,-0.057830
74.952,74.8625,-0.057830
74.984,74.8562,-0.057830
75.015,74.8500,-0.057830
75.048,74.8433,-0.057830
75.077,74.8375,-0.057830
75.108,74.8314,-0.057830
75.139,74.8251,-0.049859
75.171,74.8189,-0.049859
75.202,74.8125,-0.049859
75.233,74.8065,-0.049859
75.264,74.8003,-0.049859
75.296,74.7937,-0.049859
75.325,74.7879,-0.049859
75.357,74.7817,-0.049859
75.388,74.7753,-0.049859
75.419,74.7693,-0.033494
75.449,74.7632,-0.033494
75.480,74.7570,-0.033494
75.512,74.7505,-0.033494
75.542,74.7446,-0.033494
75.573,74.7383,-0.033494
75.607,74.7317,-0.033494
75.636,74.7257,-0.016535
75.667,74.7195,-0.016535
75.699,74.7132,-0.016535
75.729,74.7070,-0.016535
75.760,74.7009,-0.016535
75.792,74.6945,-0.016535
75.823,74.6883,-0.016535
75.853,74.6822,-0.016535
75.884,74.6761,-0.016535
75.915,74.6698,-0.001658
75.947,74.6637,-0.001658
75.977,74.6574,-0.001658
76.008,74.6513,-0.001658
76.040,74.6451,-0.001658
76.070,74.6389,-0.001658
76.101,74.6327,-0.001658
76.132,74.6265,-0.001658
76.164,74.6202,0.011457
76.194,74.6142,0.011457
76.225,74.6080,0.011457
76.255,74.6020,0.011457
76.287,74.5956,0.011457
76.317,74.5896,0.011457
76.348,74.5834,0.011457
76.379,74.5772,0.011457
76.410,74.5710,0.023121
76.440,74.5649,0.023121
76.473,74.5585,0.023121
76.504,74.5522,0.023121
76.535,74.5459,0.023121
76.567,74.5396,0.023121
76.599,74.5332,0.023121
76.630,74.5269,0.023121
76.662,74.5206,0.033692
76.693,74.5143,0.033692
76.724,74.5083,0.033692
76.755,74.5019,0.033692
76.786,74.4958,0.033692
76.817,74.4896,0.033692
76.848,74.4834,0.033692
76.879,74.4772,0.043405
76.910,74.4709,0.043405
76.941,74.4648,0.043405
76.972,74.4585,0.043405
77.004,74.4521,0.043405
77.035,74.4459,0.043405
77.066,74.4397,0.043405
77.097,74.4334,0.043405
77.128,74.4275,0.043405
77.160,74.4209,0.052714
77.191,74.4147,0.052714
77.222,74.4085,0.052714
77.253,74.4023,0.052714
77.284,74.3961,0.052714
77.315,74.3898,0.052714
77.347,74.3837,0.052714
77.378,74.3774,0.052714
77.409,74.3712,0.061815
77.441,74.3648,0.061815
77.472,74.3586,0.061815
77.503,74.3524,0.061815
77.535,74.3460,0.061815
77.565,74.3398,0.061815
77.597,74.3337,0.061815
77.628,74.3274,0.071105
77.658,74.3214,0.071105
77.689,74.3152,0.071105
77.720,74.3088,0.071105
77.751,74.3027,0.071105
77.782,74.2966,0.071105
77.812,74.2905,0.071105
77.843,74.2845,0.071105
77.874,74.2783,0.071105
77.905,74.2718,0.080790
77.936,74.2659,0.080790
77.968,74.2594,0.080790
77.998,74.2535,0.080790
78.029,74.2473,0.080790
78.060,74.2408,0.080790
78.091,74.2348,0.080790
78.122,74.2286,0.080790
78.152,74.2224,0.091239
78.183,74.2164,0.091239
78.214,74.2100,0.091239
78.245,74.2040,0.091239
78.277,74.1975,0.091239
78.307,74.1916,0.091239
78.338,74.1852,0.091239
78.370,74.1792,0.091239
78.402,74.1726,0.102629
78.433,74.1665,0.102629
78.463,74.1602,0.102629
78.495,74.1540,0.102629
78.526,74.1475,0.102629
78.558,74.1415,0.102629
78.589,74.1353,0.102629
78.620,74.1291,0.102629
78.651,74.1229,0.115179
78.682,74.1164,0.115179
78.713,74.1105,0.115179
78.743,74.1044,0.115179
78.775,74.0981,0.115179
78.806,74.0918,0.115179
78.837,74.0856,0.115179
78.868,74.0793,0.115179
78.900,74.0730,0.129255
78.930,74.0670,0.129255
78.961,74.0608,0.129255
78.992,74.0545,0.129255
79.023,74.0483,0.129255
79.055,74.0420,0.129255
79.086,74.0358,0.129255
79.117,74.0296,0.129255
79.147,74.0234,0.144735
79.179,74.0172,0.144735
79.210,74.0111,0.144735
79.241,74.0048,0.144735
79.272,73.9986,0.144735
79.303,73.9923,0.144735
79.334,73.9863,0.144735
79.365,73.9800,0.144735
79.396,73.9738,0.161769
79.427,73.9676,0.161769
79.458,73.9613,0.161769
79.488,73.9554,0.161769
79.520,73.9491,0.161769
79.551,73.9428,0.161769
79.582,73.9367,0.161769
79.613,73.9304,0.161769
79.644,73.9242,0.180480
79.675,73.9178,0.180480
79.707,73.9116,0.180480
79.738,73.9056,0.180480
79.769,73.8990,0.180480
79.800,73.8930,0.180480
79.831,73.8867,0.180480
79.864,73.8803,0.180480
79.894,73.8742,0.200812
79.925,73.8681,0.200812
79.955,73.8620,0.200812
79.987,73.8556,0.200812
80.018,73.8494,0.200812
80.049,73.8431,0.200812
80.080,73.8369,0.200812
80.112,73.8305,0.200812
80.143,73.8243,0.200812
80.174,73.8180,0.223009
80.204,73.8122,0.223009
80.236,73.8057,0.223009
80.267,73.7997,0.223009
80.297,73.7936,0.223009
80.329,73.7872,0.223009
80.359,73.7812,0.223009
80.391,73.7747,0.223009
80.423,73.7685,0.246676
80.454,73.7622,0.246676
80.484,73.7561,0.246676
80.515,73.7499,0.246676
80.546,73.7436,0.246676
80.577,73.7376,0.246676
80.608,73.7314,0.246676
80.639,73.7252,0.246676
80.670,73.7189,0.271662
80.701,73.7127,0.271662
80.733,73.7064,0.271662
80.764,73.7002,0.271662
80.795,73.6939,0.271662
80.827,73.6877,0.271662
80.858,73.6813,0.271662
80.890,73.6750,0.271662
80.922,73.6686,0.297873
80.952,73.6626,0.297873
80.983,73.6565,0.297873
81.013,73.6505,0.297873
81.044,73.6441,0.297873
81.075,73.6379,0.297873
81.106,73.6318,0.297873
81.137,73.6255,0.324781
81.168,73.6194,0.324781
81.199,73.6130,0.324781
81.231,73.6068,0.324781
81.262,73.6006,0.324781
81.293,73.5944,0.324781
81.324,73.5882,0.324781
81.355,73.5820,0.324781
81.386,73.5757,0.351953
81.417,73.5695,0.351953
81.449,73.5631,0.351953
81.481,73.5569,0.351953
81.513,73.5502,0.351953
81.543,73.5443,0.351953
81.576,73.5376,0.351953
81.606,73.5319,0.351953
81.637,73.5257,0.378475
81.668,73.5192,0.378475
81.700,73.5130,0.378475
81.731,73.5067,0.378475
81.763,73.5004,0.378475
81.792,73.4946,0.378475
81.823,73.4884,0.378475
81.854,73.4823,0.378475
81.885,73.4761,0.403169
81.916,73.4697,0.403169
81.947,73.4637,0.403169
81.978,73.4575,0.403169
82.009,73.4513,0.403169
82.041,73.4448,0.403169
82.072,73.4386,0.403169
82.104,73.4322,0.403169
82.136,73.4258,0.424773
82.166,73.4198,0.424773
82.197,73.4136,0.424773
82.228,73.4074,0.424773
82.261,73.4008,0.424773
82.291,73.3950,0.424773
82.321,73.3888,0.424773
82.353,73.3823,0.424773
82.384,73.3762,0.441016
82.415,73.3699,0.441016
82.446,73.3638,0.441016
82.477,73.3576,0.441016
82.509,73.3512,0.441016
82.539,73.3452,0.441016
82.569,73.3392,0.441016
82.601,73.3327,0.441016
82.632,73.3266,0.441016
82.663,73.3204,0.447912
82.694,73.3142,0.447912
82.725,73.3079,0.447912
82.755,73.3021,0.447912
82.786,73.2957,0.447912
82.817,73.2897,0.447912
82.849,73.2832,0.447912
82.879,73.2773,0.447912
82.910,73.2711,0.429107
82.940,73.2649,0.429107
82.971,73.2587,0.429107
83.003,73.2526,0.429107
83.034,73.2463,0.429107
83.066,73.2399,0.429107
83.096,73.2340,0.429107
83.127,73.2277,0.429107
83.159,73.2212,0.429107
83.190,73.2150,0.219033
83.221,73.2088,0.219033
83.253,73.2025,0.219033
83.284,73.1964,0.219033
83.315,73.1900,0.219033
83.346,73.1839,0.219033
83.378,73.1774,0.219033
83.410,73.1711,0.025212
83.440,73.1649,0.025212
83.471,73.1587,0.025212
83.502,73.1526,0.025212
83.533,73.1464,0.025212
83.564,73.1401,0.025212
83.595,73.1340,0.025212
83.626,73.1277,0.025212
83.657,73.1217,0.021651
83.688,73.1153,0.021651
83.719,73.1092,0.021651
83.750,73.1029,0.021651
83.781,73.0967,0.021651
83.812,73.0904,0.021651
83.843,73.0844,0.021651
83.875,73.0781,0.021651
83.904,73.0721,0.020963
83.936,73.0657,0.020963
83.967,73.0596,0.020963
83.998,73.0533,0.020963
84.030,73.0471,0.020963
84.061,73.0406,0.020963
84.093,73.0344,0.020963
84.125,73.0279,0.020963
84.156,73.0219,0.020737
84.187,73.0157,0.020737
84.218,73.0095,0.020737
84.249,73.0033,0.020737
84.280,72.9968,0.020737
84.312,72.9906,0.020737
84.343,72.9843,0.020737
84.375,72.9781,0.020737
84.406,72.9718,0.020671
84.437,72.9656,0.020671
84.468,72.9593,0.020671
84.499,72.9533,0.020671
84.530,72.9470,0.020671
84.561,72.9408,0.020671
84.592,72.9345,0.020671
84.623,72.9284,0.020671
84.654,72.9222,0.020577
84.686,72.9159,0.020577
84.717,72.9095,0.020577
84.747,72.9035,0.020577
84.778,72.8975,0.020577
84.809,72.8912,0.020577
84.840,72.8851,0.020577
84.871,72.8788,0.020577
84.902,72.8727,0.020530
84.933,72.8664,0.020530
84.965,72.8602,0.020530
84.995,72.8540,0.020530
85.026,72.8479,0.020530
85.058,72.8414,0.020530
85.089,72.8352,0.020530
85.120,72.8290,0.020530
85.151,72.8228,0.020539
85.183,72.8165,0.020539
85.214,72.8102,0.020539
85.245,72.8040,0.020539
85.276,72.7978,0.020539
85.307,72.7915,0.020539
85.338,72.7853,0.020539
85.370,72.7791,0.020539
85.401,72.7730,0.020483
85.432,72.7667,0.020483
85.462,72.7607,0.020483
85.493,72.7544,0.020483
85.524,72.7483,0.020483
85.555,72.7420,0.020483
85.586,72.7359,0.020483
85.617,72.7296,0.020483
85.647,72.7236,0.020483
85.679,72.7172,0.020483
85.710,72.7111,0.020483
85.742,72.7046,0.020483
85.772,72.6987,0.020483
85.804,72.6921,0.020483
85.835,72.6860,0.020483
85.866,72.6798,0.020483
85.896,72.6739,0.020520
85.927,72.6677,0.020520
85.958,72.6615,0.020520
85.988,72.6553,0.020520
86.020,72.6491,0.020520
86.049,72.6431,0.020520
86.080,72.6368,0.020520
86.111,72.6309,0.020520
86.142,72.6245,0.020539
86.174,72.6182,0.020539
86.205,72.6119,0.020539
86.237,72.6057,0.020539
86.268,72.5994,0.020539
86.299,72.5933,0.020539
86.330,72.5868,0.020539
86.361,72.5809,0.020539
86.392,72.5748,0.020501
86.423,72.5685,0.020501
86.454,72.5623,0.020501
86.486,72.5558,0.020501
86.516,72.5499,0.020501
86.547,72.5437,0.020501
86.578,72.5376,0.020501
86.608,72.5313,0.020501
86.639,72.5253,0.020435
86.669,72.5191,0.020435
86.700,72.5130,0.020435
86.732,72.5066,0.020435
86.763,72.5003,0.020435
86.794,72.4942,0.020435
86.825,72.4880,0.020435
86.856,72.4818,0.020435
86.887,72.4756,0.020454
86.918,72.4694,0.020454
86.950,72.4632,0.020454
86.981,72.4568,0.020454
87.012,72.4508,0.020454
87.043,72.4443,0.020454
87.074,72.4381,0.020454
87.105,72.4319,0.020454
87.136,72.4258,0.020454
87.168,72.4194,0.020511
87.199,72.4132,0.020511
87.230,72.4070,0.020511
87.261,72.4009,0.020511
87.293,72.3943,0.020511
87.325,72.3881,0.020511
87.356,72.3818,0.020511
87.387,72.3756,0.020511
87.418,72.3693,0.020473
87.449,72.3632,0.020473
87.480,72.3568,0.020473
87.511,72.3508,0.020473
87.542,72.3447,0.020473
87.572,72.3387,0.020473
87.603,72.3326,0.020473
87.633,72.3263,0.020445
87.664,72.3202,0.020445
87.696,72.3138,0.020445
87.726,72.3079,0.020445
87.758,72.3014,0.020445
87.789,72.2952,0.020445
87.820,72.2889,0.020445
87.851,72.2830,0.020445
87.882,72.2765,0.020445
87.913,72.2706,0.020511
87.945,72.2640,0.020511
87.976,72.2579,0.020511
88.007,72.2515,0.020511
88.038,72.2455,0.020511
88.069,72.2393,0.020511
88.100,72.2329,0.020511
88.131,72.2268,0.020520
88.163,72.2206,0.020520
88.194,72.2141,0.020520
88.225,72.2082,0.020520
88.256,72.2019,0.020520
88.287,72.1958,0.020520
88.317,72.1895,0.020520
88.348,72.1835,0.020520
88.379,72.1772,0.020520
88.410,72.1710,0.020577
88.442,72.1646,0.020577
88.473,72.1584,0.020577
88.506,72.1519,0.020577
88.537,72.1455,0.020577
88.568,72.1393,0.020577
88.599,72.1334,0.020577
88.630,72.1269,0.020586
88.661,72.1209,0.020586
88.691,72.1148,0.020586
88.722,72.1085,0.020586
88.753,72.1025,0.020586
88.784,72.0963,0.020586
88.815,72.0901,0.020586
88.846,72.0839,0.020586
88.877,72.0777,0.020586
88.908,72.0715,0.020558
88.939,72.0652,0.020558
88.970,72.0591,0.020558
89.000,72.0530,0.020558
89.032,72.0467,0.020558
89.063,72.0406,0.020558
89.093,72.0344,0.020558
89.125,72.0280,0.020633
89.155,72.0220,0.020633
89.186,72.0159,0.020633
89.217,72.0095,0.020633
89.247,72.0037,0.020633
89.278,71.9973,0.020633
89.309,71.9913,0.020633
89.340,71.9849,0.020633
89.371,71.9790,0.020633
89.402,71.9727,0.020596
89.433,71.9666,0.020596
89.464,71.9601,0.020596
89.495,71.9541,0.020596
89.525,71.9480,0.020596
89.556,71.9419,0.020596
89.587,71.9357,0.020596
89.619,71.9293,0.020596
89.651,71.9229,0.020567
89.682,71.9167,0.020567
89.713,71.9104,0.020567
89.744,71.9044,0.020567
89.775,71.8980,0.020567
89.805,71.8920,0.020567
89.836,71.8858,0.020567
89.867,71.8796,0.020567
89.898,71.8733,0.020567
89.930,71.8671,0.020586
89.961,71.8610,0.020586
89.993,71.8560,0.020586
90.024,71.8514,0.020586
90.055,71.8478,0.020586
90.085,71.8448,0.020586
90.116,71.8427,0.020586
90.147,71.8412,0.020586
90.177,71.8403,0.020501
90.207,71.8402,0.020501
90.238,71.8402,0.020501
90.270,71.8402,0.020501
90.300,71.8402,0.020501
90.331,71.8402,0.020501
90.362,71.8402,0.020501
90.393,71.8402,0.020398
90.424,71.8402,0.020398
90.455,71.8402,0.020398
90.487,71.8402,0.020398
90.518,71.8402,0.020398
90.550,71.8402,0.020398
90.580,71.8402,0.020398
90.612,71.8402,0.020398
90.643,71.8402,0.020398
90.674,71.8402,0.020351
90.705,71.8402,0.020351
90.736,71.8402,0.020351
90.767,71.8402,0.020351
90.798,71.8402,0.020351
90.829,71.8402,0.020351
90.860,71.8402,0.020351
90.892,71.8402,0.020351
90.923,71.8402,0.020398
90.953,71.8405,0.020398
90.983,71.8413,0.020398
91.014,71.8431,0.020398
91.045,71.8454,0.020398
91.076,71.8485,0.020398
91.107,71.8524,0.020398
91.138,71.8569,0.020398
91.168,71.8619,0.020313
91.200,71.8682,0.020313
91.232,71.8744,0.020313
91.262,71.8805,0.020313
91.293,71.8867,0.020313
91.324,71.8928,0.020313
91.355,71.8991,0.020313
91.386,71.9053,0.020134
91.416,71.9114,0.020134
91.447,71.9175,0.020134
91.479,71.9239,0.020134
91.509,71.9299,0.020134
91.539,71.9360,0.020134
91.570,71.9420,0.020134
91.601,71.9484,0.020134
91.633,71.9546,0.020011
91.663,71.9608,0.020011
91.694,71.9670,0.020011
91.725,71.9730,0.020011
91.757,71.9794,0.020011
91.788,71.9856,0.020011
91.819,71.9918,0.020011
91.849,71.9981,0.020011
91.880,72.0040,0.020011
91.911,72.0104,0.020011
91.943,72.0166,0.020011
91.973,72.0228,0.020011
92.005,72.0292,0.020011
92.036,72.0353,0.020011
92.067,72.0414,0.020011
92.098,72.0476,0.020011
92.129,72.0540,0.020011
92.161,72.0602,0.020049
92.192,72.0664,0.020049
92.223,72.0725,0.020049
92.254,72.0788,0.020049
92.284,72.0849,0.020049
92.316,72.0914,0.020049
92.346,72.0973,0.020049
92.377,72.1036,0.020049
92.409,72.1097,0.019993
92.440,72.1162,0.019993
92.471,72.1225,0.019993
92.503,72.1287,0.019993
92.534,72.1349,0.019993
92.564,72.1411,0.019993
92.596,72.1473,0.019993
92.627,72.1535,0.019993
92.658,72.1596,0.019964
92.689,72.1659,0.019964
92.720,72.1721,0.019964
92.751,72.1783,0.019964
92.782,72.1845,0.019964
92.814,72.1908,0.019964
92.845,72.1970,0.019964
92.875,72.2031,0.019964
92.907,72.2094,0.019917
92.937,72.2156,0.019917
92.968,72.2217,0.019917
92.999,72.2279,0.019917
93.031,72.2342,0.019917
93.062,72.2406,0.019917
93.094,72.2469,0.019917
93.125,72.2533,0.019917
93.156,72.2594,0.019889
93.187,72.2656,0.019889
93.218,72.2718,0.019889
93.249,72.2781,0.019889
93.281,72.2843,0.019889
93.313,72.2908,0.019889
93.344,72.2970,0.019889
93.374,72.3031,0.019889
93.405,72.3093,0.019795
93.436,72.3152,0.019795
93.467,72.3217,0.019795
93.498,72.3277,0.019795
93.530,72.3339,0.019795
93.560,72.3401,0.019795
93.591,72.3462,0.019795
93.622,72.3525,0.019795
93.653,72.3589,0.019757
93.683,72.3648,0.019757
93.715,72.3710,0.019757
93.746,72.3772,0.019757
93.777,72.3834,0.019757
93.808,72.3896,0.019757
93.839,72.3958,0.019757
93.870,72.4019,0.019757
93.901,72.4082,0.019785
93.932,72.4144,0.019785
93.962,72.4205,0.019785
93.994,72.4268,0.019785
94.026,72.4333,0.019785
94.057,72.4394,0.019785
94.088,72.4457,0.019785
94.119,72.4519,0.019785
94.150,72.4580,0.019710
94.181,72.4644,0.019710
94.213,72.4706,0.019710
94.244,72.4769,0.019710
94.274,72.4830,0.019710
94.305,72.4891,0.019710
94.336,72.4952,0.019710
94.367,72.5015,0.019710
94.399,72.5078,0.019635
94.429,72.5138,0.019635
94.462,72.5205,0.019635
94.492,72.5264,0.019635
94.523,72.5326,0.019635
94.555,72.5391,0.019635
94.586,72.5453,0.019635
94.617,72.5516,0.019635
94.650,72.5579,0.019597
94.681,72.5643,0.019597
94.711,72.5703,0.019597
94.742,72.5764,0.019597
94.774,72.5830,0.019597
94.803,72.5888,0.019597
94.834,72.5950,0.019597
94.865,72.6012,0.019588
94.897,72.6075,0.019588
94.928,72.6137,0.019588
94.959,72.6198,0.019588
94.990,72.6261,0.019588
95.021,72.6323,0.019588
95.053,72.6388,0.019588
95.084,72.6449,0.019588
95.115,72.6512,0.019588
95.147,72.6574,0.019588
95.178,72.6638,0.019531
95.211,72.6702,0.019531
95.240,72.6762,0.019531
95.272,72.6824,0.019531
95.302,72.6884,0.019531
95.334,72.6948,0.019531
95.364,72.7008,0.019531
95.396,72.7073,0.019531
95.427,72.7133,0.019474
95.458,72.7197,0.019474
95.489,72.7259,0.019474
95.520,72.7321,0.019474
95.551,72.7381,0.019474
95.581,72.7443,0.019474
95.612,72.7504,0.019474
95.643,72.7567,0.019474
95.674,72.7628,0.019465
95.705,72.7691,0.019465
95.736,72.7753,0.019465
95.768,72.7817,0.019465
95.798,72.7876,0.019465
95.829,72.7938,0.019465
95.859,72.8000,0.019465
95.890,72.8062,0.019465
95.921,72.8124,0.019408
95.952,72.8184,0.019408
95.983,72.8246,0.019408
96.014,72.8309,0.019408
96.045,72.8371,0.019408
96.076,72.8433,0.019408
96.107,72.8495,0.019408
96.138,72.8558,0.019408
96.170,72.8619,0.019380
96.201,72.8684,0.019380
96.232,72.8744,0.019380
96.263,72.8808,0.019380
96.295,72.8871,0.019380
96.326,72.8933,0.019380
96.358,72.8997,0.019380
96.389,72.9058,0.019380
96.420,72.9120,0.019343
96.452,72.9185,0.019343
96.482,72.9244,0.019343
96.513,72.9307,0.019343
96.544,72.9368,0.019343
96.576,72.9433,0.019343
96.607,72.9493,0.019343
96.638,72.9557,0.019343
96.668,72.9617,0.019361
96.700,72.9681,0.019361
96.730,72.9742,0.019361
96.762,72.9808,0.019361
96.795,72.9870,0.019361
96.824,72.9930,0.019361
96.856,72.9993,0.019361
96.887,73.0054,0.019295
96.917,73.0116,0.019295
96.948,73.0177,0.019295
96.980,73.0240,0.019295
97.011,73.0303,0.019295
97.042,73.0364,0.019295
97.072,73.0425,0.019295
97.103,73.0486,0.019295
97.134,73.0548,0.019154
97.165,73.0611,0.019154
97.196,73.0672,0.019154
97.226,73.0732,0.019154
97.257,73.0794,0.019154
97.288,73.0856,0.019154
97.320,73.0920,0.019154
97.351,73.0982,0.019154
97.381,73.1043,0.019116
97.412,73.1106,0.019116
97.443,73.1167,0.019116
97.474,73.1231,0.019116
97.505,73.1291,0.019116
97.536,73.1354,0.019116
97.568,73.1416,0.019116
97.599,73.1480,0.019116
97.631,73.1542,0.019079
97.663,73.1607,0.019079
97.693,73.1669,0.019079
97.725,73.1731,0.019079
97.756,73.1792,0.019079
97.787,73.1855,0.019079
97.817,73.1917,0.019079
97.849,73.1980,0.019079
97.880,73.2041,0.019079
97.911,73.2102,0.019013
97.942,73.2162,0.019013
97.972,73.2224,0.019013
98.003,73.2286,0.019013
98.034,73.2350,0.019013
98.066,73.2413,0.019013
98.097,73.2475,0.019013
98.127,73.2536,0.019013
98.158,73.2597,0.018909
98.189,73.2659,0.018909
98.221,73.2721,0.018909
98.252,73.2784,0.018909
98.283,73.2846,0.018909
98.313,73.2908,0.018909
98.344,73.2969,0.018909
98.376,73.3033,0.018909
98.407,73.3095,0.018900
98.438,73.3157,0.018900
98.469,73.3220,0.018900
98.501,73.3281,0.018900
98.533,73.3346,0.018900
98.563,73.3406,0.018900
98.594,73.3468,0.018900
98.626,73.3532,0.018900
98.656,73.3592,0.018834
98.687,73.3654,0.018834
98.718,73.3716,0.018834
98.750,73.3780,0.018834
98.781,73.3842,0.018834
98.811,73.3904,0.018834
98.843,73.3966,0.018834
98.874,73.4029,0.018834
98.905,73.4090,0.018711
98.937,73.4153,0.018711
98.967,73.4215,0.018711
98.997,73.4273,0.018711
99.028,73.4337,0.018711
99.059,73.4399,0.018711
99.090,73.4461,0.018711
99.122,73.4524,0.018711
99.152,73.4588,0.018711
99.184,73.4648,0.018645
99.215,73.4711,0.018645
99.246,73.4774,0.018645
99.277,73.4834,0.018645
99.308,73.4897,0.018645
99.339,73.4958,0.018645
99.371,73.5024,0.018645
99.402,73.5084,0.018570
99.433,73.5149,0.018570
99.465,73.5210,0.018570
99.496,73.5273,0.018570
99.527,73.5334,0.018570
99.559,73.5399,0.018570
99.590,73.5459,0.018570
99.620,73.5520,0.018570
99.650,73.5581,0.018466
99.681,73.5643,0.018466
99.711,73.5703,0.018466
99.744,73.5768,0.018466
99.775,73.5830,0.018466
99.804,73.5889,0.018466
99.836,73.5953,0.018466
99.867,73.6015,0.018466
99.898,73.6077,0.018344
99.929,73.6140,0.018344
99.959,73.6199,0.018344
99.991,73.6263,0.018344
100.022,73.6326,0.018344
100.054,73.6388,0.018344
100.085,73.6449,0.018344
100.117,73.6514,0.018344
100.148,73.6576,0.018221
100.179,73.6638,0.018221
100.211,73.6702,0.018221
100.241,73.6764,0.018221
100.273,73.6826,0.018221
100.304,73.6889,0.018221
100.335,73.6950,0.018221
100.366,73.7013,0.018221
100.397,73.7075,0.018033
100.428,73.7136,0.018033
100.459,73.7199,0.018033
100.490,73.7262,0.018033
100.522,73.7326,0.018033
100.553,73.7385,0.018033
100.584,73.7448,0.018033
100.615,73.7509,0.018033
100.646,73.7572,0.017826
100.677,73.7633,0.017826
100.708,73.7698,0.017826
100.739,73.7758,0.017826
100.770,73.7820,0.017826
100.801,73.7882,0.017826
100.832,73.7943,0.017826
100.864,73.8009,0.017826
100.895,73.8070,0.017618
100.926,73.8133,0.017618
100.957,73.8194,0.017618
100.988,73.8256,0.017618
101.019,73.8318,0.017618
101.049,73.8381,0.017618
101.080,73.8439,0.017618
101.112,73.8504,0.017618
101.143,73.8566,0.017336
101.173,73.8628,0.017336
101.205,73.8690,0.017336
101.235,73.8751,0.017336
101.266,73.8814,0.017336
101.297,73.8873,0.017336
101.327,73.8934,0.017336
101.359,73.8997,0.017336
101.390,73.9059,0.017336
101.422,73.9125,0.016997
101.452,73.9185,0.016997
101.483,73.9248,0.016997
101.514,73.9307,0.016997
101.545,73.9369,0.016997
101.576,73.9431,0.016997
101.607,73.9493,0.016997
101.638,73.9555,0.016601
101.668,73.9616,0.016601
101.699,73.9678,0.016601
101.730,73.9740,0.016601
101.761,73.9804,0.016601
101.792,73.9864,0.016601
101.822,73.9923,0.016601
101.853,73.9987,0.016601
101.884,74.0047,0.016186
101.914,74.0109,0.016186
101.944,74.0171,0.016186
101.976,74.0233,0.016186
102.008,74.0296,0.016186
102.038,74.0357,0.016186
102.069,74.0417,0.016186
102.100,74.0482,0.016186
102.131,74.0543,0.015583
102.163,74.0607,0.015583
102.194,74.0668,0.015583
102.226,74.0732,0.015583
102.257,74.0793,0.015583
102.288,74.0855,0.015583
102.318,74.0916,0.015583
102.350,74.0979,0.015583
102.382,74.1045,0.014726
102.413,74.1106,0.014726
102.443,74.1167,0.014726
102.475,74.1230,0.014726
102.505,74.1289,0.014726
102.536,74.1351,0.014726
102.567,74.1413,0.014726
102.597,74.1474,0.014726
102.628,74.1536,0.014726
102.660,74.1599,0.013784
102.691,74.1663,0.013784
102.722,74.1723,0.013784
102.753,74.1785,0.013784
102.784,74.1847,0.013784
102.815,74.1909,0.013784
102.846,74.1973,0.013784
102.878,74.2037,0.013784
102.909,74.2099,0.012587
102.941,74.2161,0.012587
102.971,74.2222,0.012587
103.002,74.2285,0.012587
103.033,74.2346,0.012587
103.064,74.2409,0.012587
103.095,74.2469,0.012587
103.127,74.2535,0.012587
103.157,74.2595,0.011070
103.188,74.2657,0.011070
103.219,74.2717,0.011070
103.251,74.2783,0.011070
103.282,74.2845,0.011070
103.313,74.2908,0.011070
103.345,74.2969,0.011070
103.374,74.3029,0.011070
103.405,74.3089,0.009101
103.435,74.3152,0.009101
103.467,74.3214,0.009101
103.497,74.3275,0.009101
103.528,74.3337,0.009101
103.559,74.3398,0.009101
103.590,74.3460,0.009101
103.620,74.3521,0.009101
103.652,74.3585,0.006689
103.683,74.3646,0.006689
103.714,74.3708,0.006689
103.744,74.3769,0.006689
103.775,74.3831,0.006689
103.806,74.3891,0.006689
103.836,74.3952,0.006689
103.866,74.4014,0.006689
103.897,74.4075,0.006689
103.928,74.4136,0.003665
103.959,74.4199,0.003665
103.990,74.4260,0.003665
104.021,74.4323,0.003665
104.052,74.4384,0.003665
104.083,74.4446,0.003665
104.113,74.4505,0.003665
104.144,74.4569,-0.000151
104.175,74.4631,-0.000151
104.207,74.4694,-0.000151
104.237,74.4755,-0.000151
104.268,74.4815,-0.000151
104.299,74.4879,-0.000151
104.331,74.4941,-0.000151
104.363,74.5006,-0.000151
104.392,74.5065,-0.000151
104.424,74.5128,-0.004890
104.454,74.5189,-0.004890
104.485,74.5249,-0.004890
104.516,74.5313,-0.004890
104.547,74.5373,-0.004890
104.579,74.5437,-0.004890
104.610,74.5500,-0.004890
104.641,74.5562,-0.004890
104.672,74.5624,-0.010712
104.703,74.5686,-0.010712
104.734,74.5749,-0.010712
104.765,74.5810,-0.010712
104.797,74.5874,-0.010712
104.828,74.5935,-0.010712
104.859,74.6000,-0.010712
104.889,74.6058,-0.017618
104.920,74.6121,-0.017618
104.951,74.6183,-0.017618
104.982,74.6247,-0.017618
105.013,74.6306,-0.017618
105.044,74.6368,-0.017618
105.075,74.6429,-0.017618
105.106,74.6492,-0.017618
105.136,74.6554,-0.025862
105.167,74.6614,-0.025862
105.197,74.6676,-0.025862
105.230,74.6740,-0.025862
105.260,74.6801,-0.025862
105.291,74.6863,-0.025862
105.322,74.6925,-0.025862
105.354,74.6987,-0.025862
105.385,74.7050,-0.035529
105.416,74.7112,-0.035529
105.447,74.7174,-0.035529
105.478,74.7236,-0.035529
105.510,74.7298,-0.035529
105.540,74.7362,-0.035529
105.571,74.7422,-0.035529
105.603,74.7487,-0.035529
105.634,74.7549,-0.046807
105.666,74.7611,-0.046807
105.697,74.7674,-0.046807
105.729,74.7737,-0.046807
105.759,74.7799,-0.046807
105.791,74.7861,-0.046807
105.820,74.7921,-0.046807
105.851,74.7982,-0.046807
105.881,74.8044,-0.059884
105.913,74.8106,-0.059884
105.944,74.8168,-0.059884
105.974,74.8221,-0.059884
106.006,74.8271,-0.059884
106.038,74.8310,-0.059884
106.070,74.8345,-0.059884
106.101,74.8370,-0.059884
106.133,74.8388,-0.074139
106.163,74.8398,-0.074139
106.194,74.8402,-0.074139
106.226,74.8402,-0.074139
106.257,74.8402,-0.074139
106.289,74.8402,-0.074139
106.320,74.8402,-0.074139
106.351,74.8402,-0.074139
106.382,74.8402,-0.074139
106.413,74.8402,-0.074139
106.443,74.8402,-0.082185
106.475,74.8402,-0.082185
106.505,74.8402,-0.082185
106.537,74.8402,-0.082185
106.568,74.8402,-0.082185
106.599,74.8402,-0.082185
106.630,74.8402,-0.082185
106.661,74.8402,-0.082185
106.693,74.8402,-0.081440
106.724,74.8402,-0.081440
106.755,74.8402,-0.081440
106.786,74.8402,-0.081440
106.817,74.8402,-0.081440
106.848,74.8402,-0.081440
106.879,74.8402,-0.078727
106.910,74.8402,-0.078727
106.941,74.8402,-0.078727
106.972,74.8402,-0.078727
107.005,74.8402,-0.078727
107.034,74.8402,-0.078727
107.065,74.8402,-0.078727
107.096,74.8402,-0.078727
107.127,74.8402,-0.078727
107.157,74.8402,-0.078727
107.190,74.8402,-0.076550
107.219,74.8402,-0.076550
107.252,74.8402,-0.076550
107.281,74.8402,-0.076550
107.312,74.8402,-0.076550
107.342,74.8402,-0.076550
107.373,74.8402,-0.076550
107.404,74.8402,-0.076550
107.435,74.8402,-0.074732
107.465,74.8402,-0.074732
107.496,74.8402,-0.074732
107.527,74.8402,-0.074732
107.558,74.8402,-0.074732
107.589,74.8402,-0.074732
107.621,74.8402,-0.074732
107.651,74.8402,-0.073187
107.683,74.8402,-0.073187
107.715,74.8402,-0.073187
107.745,74.8402,-0.073187
107.776,74.8402,-0.073187
107.807,74.8402,-0.073187
107.839,74.8402,-0.073187
107.870,74.8402,-0.073187
107.901,74.8402,-0.071953
107.932,74.8402,-0.071953
107.963,74.8402,-0.071953
107.994,74.8402,-0.071953
108.025,74.8402,-0.071953
108.057,74.8402,-0.071953
108.088,74.8402,-0.071953
108.119,74.8402,-0.071953
108.151,74.8402,-0.070841
108.181,74.8402,-0.070841
108.212,74.8402,-0.070841
108.243,74.8402,-0.070841
108.275,74.8402,-0.070841
108.306,74.8402,-0.070841
108.337,74.8402,-0.070841
108.368,74.8402,-0.070841
108.399,74.8402,-0.069767
108.430,74.8402,-0.069767
108.463,74.8402,-0.069767
108.492,74.8402,-0.069767
108.522,74.8402,-0.069767
108.554,74.8402,-0.069767
108.585,74.8402,-0.069767
108.615,74.8402,-0.069767
108.647,74.8402,-0.068881
108.678,74.8402,-0.068881
108.708,74.8402,-0.068881
108.740,74.8402,-0.068881
108.771,74.8402,-0.068881
108.803,74.8402,-0.068881
108.833,74.8402,-0.068881
108.864,74.8402,-0.068881
108.895,74.8402,-0.068090
108.926,74.8402,-0.068090
108.957,74.8402,-0.068090
108.988,74.8402,-0.068090
109.019,74.8402,-0.068090
109.050,74.8402,-0.068090
109.080,74.8402,-0.068090
109.111,74.8402,-0.068090
109.142,74.8402,-0.068090
109.172,74.8402,-0.067261
109.204,74.8402,-0.067261
109.235,74.8402,-0.067261
109.267,74.8402,-0.067261
109.298,74.8402,-0.067261
109.329,74.8402,-0.067261
109.360,74.8402,-0.067261
109.392,74.8402,-0.067261
109.423,74.8402,-0.066573
109.455,74.8402,-0.066573
109.486,74.8402,-0.066573
109.517,74.8402,-0.066573
109.547,74.8402,-0.066573
109.579,74.8402,-0.066573
109.610,74.8402,-0.066573
109.642,74.8402,-0.065951
109.672,74.8402,-0.065951
109.704,74.8402,-0.065951
109.735,74.8402,-0.065951
109.766,74.8402,-0.065951
109.797,74.8402,-0.065951
109.829,74.8402,-0.065951
109.860,74.8402,-0.065951
109.890,74.8402,-0.065461
109.921,74.8402,-0.065461
109.952,74.8402,-0.065461
109.982,74.8402,-0.065461
110.013,74.8402,-0.065461
110.044,74.8402,-0.065461
110.076,74.8402,-0.065461
110.107,74.8402,-0.065461
110.138,74.8402,-0.064905
110.169,74.8402,-0.064905
110.200,74.8402,-0.064905
110.231,74.8402,-0.064905
110.263,74.8402,-0.064905
110.293,74.8402,-0.064905
110.325,74.8402,-0.064905
110.355,74.8402,-0.064905
110.387,74.8402,-0.063775
110.418,74.8402,-0.063775
110.449,74.8402,-0.063775
110.481,74.8402,-0.063775
110.511,74.8402,-0.063775
110.542,74.8402,-0.063775
110.574,74.8402,-0.063775
110.606,74.8402,-0.063775
110.636,74.8402,-0.061457
110.667,74.8402,-0.061457
110.699,74.8402,-0.061457
110.730,74.8402,-0.061457
110.760,74.8402,-0.061457
110.791,74.8402,-0.061457
110.822,74.8402,-0.061457
110.853,74.8402,-0.061457
110.883,74.8401,-0.061457
110.914,74.8395,-0.059073
110.945,74.8380,-0.059073
110.976,74.8360,-0.059073
111.007,74.8330,-0.059073
111.037,74.8297,-0.059073
111.068,74.8253,-0.059073
111.099,74.8204,-0.059073
111.131,74.8145,-0.059073
111.162,74.8081,-0.056859
111.193,74.8021,-0.056859
111.223,74.7959,-0.056859
111.255,74.7896,-0.056859
111.286,74.7835,-0.056859
111.317,74.7773,-0.056859
111.348,74.7711,-0.056859
111.379,74.7649,-0.056859
111.409,74.7587,-0.046854
111.440,74.7525,-0.046854
111.472,74.7463,-0.046854
111.502,74.7402,-0.046854
111.534,74.7338,-0.046854
111.565,74.7275,-0.046854
111.597,74.7214,-0.046854
111.627,74.7151,-0.029377
111.658,74.7090,-0.029377
111.689,74.7028,-0.029377
111.721,74.6966,-0.029377
111.752,74.6903,-0.029377
111.783,74.6839,-0.029377
111.813,74.6781,-0.029377
111.844,74.6718,-0.029377
111.875,74.6657,-0.029377
111.906,74.6594,-0.012917
111.937,74.6533,-0.012917
111.968,74.6469,-0.012917
112.000,74.6407,-0.012917
112.031,74.6342,-0.012917
112.063,74.6280,-0.012917
112.094,74.6217,-0.012917
112.125,74.6156,-0.012917
112.156,74.6092,-0.012917
112.187,74.6033,0.001573
112.218,74.5970,0.001573
112.249,74.5908,0.001573
112.280,74.5846,0.001573
112.313,74.5780,0.001573
112.342,74.5722,0.001573
112.374,74.5659,0.001573
112.404,74.5599,0.001573
112.434,74.5538,0.014359
112.466,74.5475,0.014359
112.496,74.5414,0.014359
112.526,74.5355,0.014359
112.558,74.5292,0.014359
112.588,74.5231,0.014359
112.619,74.5168,0.014359
112.651,74.5104,0.025768
112.683,74.5042,0.025768
112.713,74.4979,0.025768
112.744,74.4918,0.025768
112.776,74.4855,0.025768
112.807,74.4793,0.025768
112.838,74.4730,0.025768
112.872,74.4664,0.025768
112.899,74.4607,0.036160
112.932,74.4542,0.036160
112.961,74.4484,0.036160
112.992,74.4423,0.036160
113.023,74.4360,0.036160
113.054,74.4299,0.036160
113.084,74.4239,0.036160
113.115,74.4175,0.036160
113.146,74.4115,0.036160
113.177,74.4053,0.045704
113.208,74.3989,0.045704
113.239,74.3929,0.045704
113.270,74.3867,0.045704
113.301,74.3805,0.045704
113.333,74.3741,0.045704
113.364,74.3678,0.045704
113.395,74.3616,0.045704
113.427,74.3553,0.054928
113.457,74.3493,0.054928
113.487,74.3432,0.054928
113.518,74.3372,0.054928
113.550,74.3307,0.054928
113.580,74.3246,0.054928
113.611,74.3184,0.054928
113.642,74.3124,0.064029
113.673,74.3060,0.064029
113.704,74.2998,0.064029
113.736,74.2935,0.064029
113.766,74.2874,0.064029
113.798,74.2811,0.064029
113.828,74.2750,0.064029
113.860,74.2686,0.064029
113.891,74.2625,0.073319
113.922,74.2562,0.073319
113.953,74.2500,0.073319
113.984,74.2439,0.073319
114.015,74.2377,0.073319
114.047,74.2311,0.073319
114.078,74.2252,0.073319
114.109,74.2188,0.073319
114.141,74.2123,0.083089
114.172,74.2062,0.083089
114.203,74.2001,0.083089
114.235,74.1938,0.083089
114.265,74.1876,0.083089
114.297,74.1814,0.083089
114.328,74.1749,0.083089
114.359,74.1690,0.083089
114.390,74.1627,0.083089
114.421,74.1566,0.093745
114.452,74.1503,0.093745
114.483,74.1441,0.093745
114.514,74.1379,0.093745
114.545,74.1315,0.093745
114.575,74.1255,0.093745
114.606,74.1193,0.093745
114.637,74.1131,0.093745
114.668,74.1069,0.105475
114.700,74.1008,0.105475
114.730,74.0945,0.105475
114.761,74.0885,0.105475
114.793,74.0819,0.105475
114.824,74.0760,0.105475
114.854,74.0699,0.105475
114.885,74.0637,0.105475
114.916,74.0574,0.118373
114.947,74.0512,0.118373
114.978,74.0450,0.118373
115.009,74.0389,0.118373
115.040,74.0327,0.118373
115.071,74.0265,0.118373
115.101,74.0204,0.118373
115.133,74.0141,0.118373
115.163,74.0081,0.132722
115.195,74.0016,0.132722
115.227,73.9952,0.132722
115.259,73.9889,0.132722
115.290,73.9827,0.132722
115.321,73.9765,0.132722
115.351,73.9704,0.132722
115.381,73.9644,0.132722
115.412,73.9583,0.148494
115.442,73.9522,0.148494
115.474,73.9460,0.148494
115.505,73.9397,0.148494
115.536,73.9336,0.148494
115.567,73.9271,0.148494
115.598,73.9212,0.148494
115.629,73.9146,0.148494
115.660,73.9087,0.165980
115.691,73.9023,0.165980
115.722,73.8963,0.165980
115.753,73.8899,0.165980
115.784,73.8839,0.165980
115.816,73.8775,0.165980
115.847,73.8711,0.165980
115.878,73.8651,0.185125
115.910,73.8587,0.185125
115.941,73.8525,0.185125
115.971,73.8464,0.185125
116.003,73.8401,0.185125
116.033,73.8339,0.185125
116.064,73.8279,0.185125
116.096,73.8215,0.185125
116.126,73.8153,0.205881
116.157,73.8093,0.205881
116.188,73.8032,0.205881
116.218,73.7970,0.205881
116.249,73.7908,0.205881
116.281,73.7843,0.205881
116.312,73.7782,0.205881
116.344,73.7719,0.205881
116.375,73.7658,0.228389
116.406,73.7595,0.228389
116.437,73.7531,0.228389
116.469,73.7469,0.228389
116.500,73.7405,0.228389
116.531,73.7344,0.228389
116.562,73.7282,0.228389
116.593,73.7220,0.228389
116.624,73.7158,0.228389
116.655,73.7096,0.252339
116.685,73.7037,0.252339
116.717,73.6973,0.252339
116.747,73.6914,0.252339
116.778,73.6851,0.252339
116.809,73.6790,0.252339
116.840,73.6727,0.252339
116.872,73.6663,0.252339
116.903,73.6600,0.252339
116.935,73.6537,0.277570
116.966,73.6473,0.277570
116.998,73.6409,0.277570
117.029,73.6348,0.277570
117.059,73.6289,0.277570
117.090,73.6227,0.277570
117.121,73.6165,0.277570
117.152,73.6103,0.277570
117.183,73.6041,0.303818
117.213,73.5980,0.303818
117.245,73.5915,0.303818
117.275,73.5857,0.303818
117.306,73.5794,0.303818
117.337,73.5733,0.303818
117.368,73.5671,0.303818
117.399,73.5608,0.303818
117.431,73.5546,0.330698
117.462,73.5484,0.330698
117.492,73.5423,0.330698
117.524,73.5360,0.330698
117.555,73.5297,0.330698
117.587,73.5233,0.330698
117.617,73.5172,0.330698
117.648,73.5110,0.357644
117.679,73.5050,0.357644
117.710,73.4986,0.357644
117.742,73.4923,0.357644
117.772,73.4862,0.357644
117.803,73.4800,0.357644
117.834,73.4740,0.357644
117.866,73.4675,0.357644
117.896,73.4614,0.383751
117.928,73.4550,0.383751
117.959,73.4489,0.383751
117.991,73.4425,0.383751
118.023,73.4363,0.383751
118.055,73.4297,0.383751
118.087,73.4234,0.383751
118.119,73.4168,0.383751
118.149,73.4110,0.407833
118.180,73.4045,0.407833
118.212,73.3983,0.407833
118.242,73.3922,0.407833
118.272,73.3860,0.407833
118.303,73.3800,0.407833
118.335,73.3736,0.407833
118.366,73.3676,0.407833
118.396,73.3614,0.428212
118.428,73.3550,0.428212
118.459,73.3487,0.428212
118.490,73.3426,0.428212
118.522,73.3363,0.428212
118.553,73.3301,0.428212
118.584,73.3239,0.428212
118.616,73.3174,0.428212
118.647,73.3114,0.442561
118.678,73.3050,0.442561
118.709,73.2990,0.442561
118.739,73.2928,0.442561
118.770,73.2867,0.442561
118.801,73.2805,0.442561
118.832,73.2744,0.442561
118.863,73.2681,0.442561
118.893,73.2621,0.442561
118.924,73.2558,0.446735
118.955,73.2497,0.446735
118.986,73.2435,0.446735
119.016,73.2375,0.446735
119.047,73.2311,0.446735
119.078,73.2249,0.446735
119.109,73.2188,0.446735
119.140,73.2126,0.401841
119.172,73.2064,0.401841
119.202,73.2002,0.401841
119.233,73.1939,0.401841
119.263,73.1881,0.401841
119.295,73.1816,0.401841
119.326,73.1756,0.401841
119.356,73.1692,0.401841
119.388,73.1632,0.187509
119.418,73.1570,0.187509
119.449,73.1509,0.187509
119.480,73.1446,0.187509
119.511,73.1386,0.187509
119.542,73.1322,0.187509
119.573,73.1261,0.187509
119.605,73.1196,0.187509
119.637,73.1134,0.018353
119.668,73.1070,0.018353
119.700,73.1008,0.018353
119.731,73.0943,0.018353
119.760,73.0886,0.018353
119.791,73.0824,0.018353
119.822,73.0762,0.018353
119.853,73.0700,0.018353
119.885,73.0637,0.020143
119.915,73.0576,0.020143
119.946,73.0514,0.020143
119.977,73.0453,0.020143
120.008,73.0390,0.020143
120.039,73.0329,0.020143
120.070,73.0267,0.020143
120.102,73.0204,0.020143
120.132,73.0143,0.020492
120.164,73.0080,0.020492
120.195,73.0017,0.020492
120.226,72.9955,0.020492
120.256,72.9894,0.020492
120.288,72.9830,0.020492
120.319,72.9769,0.020492
120.350,72.9707,0.020492
120.382,72.9645,0.020530
120.412,72.9583,0.020530
120.444,72.9518,0.020530
120.475,72.9457,0.020530
120.505,72.9397,0.020530
120.537,72.9333,0.020530
120.567,72.9274,0.020530
120.597,72.9212,0.020530
120.628,72.9151,0.020530
120.659,72.9089,0.020530
120.691,72.9026,0.020567
120.722,72.8964,0.020567
120.753,72.8901,0.020567
120.785,72.8837,0.020567
120.816,72.8774,0.020567
120.847,72.8713,0.020567
120.878,72.8650,0.020567
120.909,72.8588,0.020558
120.941,72.8525,0.020558
120.970,72.8467,0.020558
121.002,72.8403,0.020558
121.033,72.8341,0.020558
121.068,72.8271,0.020558
121.094,72.8218,0.020558
121.126,72.8155,0.020558
121.156,72.8096,0.020558
121.189,72.8029,0.020586
121.219,72.7969,0.020586
121.250,72.7906,0.020586
121.282,72.7844,0.020586
121.312,72.7781,0.020586
121.344,72.7719,0.020586
121.376,72.7654,0.020586
121.407,72.7593,0.020586
121.437,72.7529,0.020577
121.469,72.7468,0.020577
121.501,72.7406,0.020577
121.530,72.7347,0.020577
121.562,72.7285,0.020577
121.592,72.7221,0.020577
121.623,72.7161,0.020577
121.654,72.7099,0.020511
121.685,72.7037,0.020511
121.716,72.6975,0.020511
121.747,72.6913,0.020511
121.778,72.6852,0.020511
121.810,72.6787,0.020511
121.839,72.6729,0.020511
121.871,72.6666,0.020511
121.903,72.6601,0.020511
121.934,72.6540,0.020473
121.965,72.6477,0.020473
121.996,72.6414,0.020473
122.028,72.6353,0.020473
122.058,72.6291,0.020473
122.089,72.6229,0.020473
122.120,72.6168,0.020473
122.151,72.6104,0.020511
122.182,72.6044,0.020511
122.212,72.5982,0.020511
122.243,72.5922,0.020511
122.275,72.5857,0.020511
122.307,72.5794,0.020511
122.337,72.5731,0.020511
122.368,72.5670,0.020511
122.399,72.5608,0.020511
122.431,72.5546,0.020558
122.462,72.5483,0.020558
122.494,72.5421,0.020558
122.524,72.5359,0.020558
122.555,72.5297,0.020558
122.587,72.5234,0.020558
122.618,72.5171,0.020558
122.648,72.5112,0.020539
122.679,72.5048,0.020539
122.710,72.4986,0.020539
122.741,72.4924,0.020539
122.772,72.4865,0.020539
122.802,72.4803,0.020539
122.833,72.4742,0.020539
122.864,72.4680,0.020539
122.895,72.4618,0.020577
122.926,72.4555,0.020577
122.958,72.4492,0.020577
122.990,72.4428,0.020577
123.021,72.4366,0.020577
123.052,72.4303,0.020577
123.084,72.4240,0.020577
123.116,72.4175,0.020577
123.147,72.4115,0.020567
123.177,72.4053,0.020567
123.208,72.3989,0.020567
123.239,72.3929,0.020567
123.270,72.3867,0.020567
123.301,72.3806,0.020567
123.332,72.3744,0.020567
123.363,72.3682,0.020567
123.394,72.3620,0.020530
123.425,72.3558,0.020530
123.456,72.3496,0.020530
123.488,72.3432,0.020530
123.518,72.3372,0.020530
123.549,72.3310,0.020530
123.580,72.3248,0.020530
123.611,72.3186,0.020530
123.643,72.3122,0.020483
123.674,72.3059,0.020483
123.704,72.3001,0.020483
123.735,72.2936,0.020483
123.767,72.2874,0.020483
123.798,72.2810,0.020483
123.830,72.2749,0.020483
123.861,72.2683,0.020483
123.893,72.2621,0.020511
123.923,72.2561,0.020511
123.954,72.2499,0.020511
123.985,72.2437,0.020511
124.016,72.2373,0.020511
124.047,72.2314,0.020511
124.078,72.2250,0.020511
124.109,72.2188,0.020511
124.141,72.2124,0.020567
124.172,72.2062,0.020567
124.204,72.1999,0.020567
124.236,72.1935,0.020567
124.266,72.1873,0.020567
124.297,72.1814,0.020567
124.328,72.1752,0.020567
124.359,72.1689,0.020567
124.390,72.1629,0.020567
124.421,72.1566,0.020586
124.451,72.1505,0.020586
124.483,72.1441,0.020586
124.513,72.1381,0.020586
124.545,72.1317,0.020586
124.576,72.1255,0.020586
124.608,72.1190,0.020586
124.639,72.1131,0.020624
124.669,72.1067,0.020624
124.700,72.1008,0.020624
124.731,72.0945,0.020624
124.762,72.0884,0.020624
124.793,72.0822,0.020624
124.823,72.0761,0.020624
124.854,72.0699,0.020624
124.885,72.0637,0.020633
124.916,72.0576,0.020633
124.946,72.0515,0.020633
124.977,72.0453,0.020633
125.008,72.0393,0.020633
125.039,72.0331,0.020633
125.069,72.0269,0.020633
125.101,72.0205,0.020633
125.133,72.0142,0.020633
125.164,72.0079,0.020633
125.195,72.0018,0.020596
125.226,71.9956,0.020596
125.258,71.9890,0.020596
125.288,71.9832,0.020596
125.318,71.9771,0.020596
125.350,71.9707,0.020596
125.381,71.9646,0.020596
125.413,71.9582,0.020605
125.444,71.9521,0.020605
125.475,71.9457,0.020605
125.506,71.9395,0.020605
125.537,71.9332,0.020605
125.567,71.9273,0.020605
125.598,71.9212,0.020605
125.628,71.9150,0.020605
125.659,71.9089,0.020662
125.690,71.9027,0.020662
125.721,71.8966,0.020662
125.752,71.8902,0.020662
125.783,71.8841,0.020662
125.814,71.8779,0.020662
125.845,71.8718,0.020662
125.876,71.8656,0.020662
125.908,71.8591,0.020643
125.939,71.8530,0.020643
125.970,71.8468,0.020643
126.002,71.8403,0.020643
126.032,71.8344,0.020643
126.063,71.8280,0.020643
126.094,71.8220,0.020643
126.125,71.8158,0.020643
126.156,71.8101,0.020643
126.187,71.8051,0.020643
126.217,71.8009,0.020643
126.249,71.7973,0.020643
126.280,71.7944,0.020643
126.312,71.7922,0.020643
126.342,71.7910,0.020643
126.373,71.7902,0.020549
126.404,71.7902,0.020549
126.435,71.7902,0.020549
126.467,71.7902,0.020549
126.497,71.7902,0.020549
126.528,71.7903,0.020549
126.559,71.7910,0.020549
126.592,71.7926,0.020549
126.621,71.7947,0.020549
126.652,71.7975,0.020473
126.683,71.8011,0.020473
126.714,71.8055,0.020473
126.745,71.8107,0.020473
126.777,71.8166,0.020473
126.808,71.8227,0.020473
126.839,71.8289,0.020473
126.869,71.8352,0.020473
126.900,71.8412,0.020304
126.932,71.8475,0.020304
126.962,71.8536,0.020304
126.992,71.8596,0.020304
127.023,71.8660,0.020304
127.054,71.8720,0.020304
127.085,71.8784,0.020304
127.117,71.8845,0.020304
127.148,71.8908,0.020125
127.178,71.8969,0.020125
127.209,71.9032,0.020125
127.240,71.9092,0.020125
127.272,71.9157,0.020125
127.303,71.9217,0.020125
127.334,71.9281,0.020125
127.365,71.9342,0.020125
127.397,71.9407,0.020125
127.428,71.9469,0.020125
127.460,71.9533,0.020125
127.490,71.9593,0.020125
127.522,71.9655,0.020125
127.553,71.9717,0.020125
127.585,71.9781,0.020125
127.614,71.9842,0.020125
127.646,71.9905,0.020125
127.676,71.9966,0.020087
127.707,72.0027,0.020087
127.739,72.0090,0.020087
127.770,72.0152,0.020087
127.801,72.0213,0.020087
127.832,72.0276,0.020087
127.863,72.0338,0.020087
127.895,72.0401,0.020087
127.925,72.0462,0.020002
127.956,72.0525,0.020002
127.988,72.0589,0.020002
128.019,72.0649,0.020002
128.051,72.0714,0.020002
128.082,72.0776,0.020002
128.113,72.0837,0.020002
128.144,72.0901,0.019983
128.176,72.0963,0.019983
128.206,72.1025,0.019983
128.237,72.1086,0.019983
128.269,72.1152,0.019983
128.300,72.1214,0.019983
128.332,72.1276,0.019983
128.362,72.1338,0.019983
128.393,72.1397,0.019983
128.425,72.1463,0.020030
128.456,72.1524,0.020030
128.486,72.1586,0.020030
128.517,72.1645,0.020030
128.548,72.1709,0.020030
128.579,72.1771,0.020030
128.610,72.1834,0.020030
128.641,72.1895,0.019993
128.672,72.1955,0.019993
128.703,72.2017,0.019993
128.734,72.2081,0.019993
128.765,72.2144,0.019993
128.798,72.2208,0.019993
128.828,72.2269,0.019993
128.860,72.2334,0.019993
128.891,72.2396,0.019851
128.921,72.2455,0.019851
128.952,72.2516,0.019851
128.983,72.2578,0.019851
129.014,72.2640,0.019851
129.045,72.2703,0.019851
129.077,72.2765,0.019851
129.108,72.2828,0.019851
129.139,72.2890,0.019851
129.170,72.2951,0.019804
129.201,72.3014,0.019804
129.231,72.3074,0.019804
129.261,72.3136,0.019804
129.293,72.3197,0.019804
129.323,72.3259,0.019804
129.356,72.3323,0.019804
129.386,72.3384,0.019795
129.417,72.3447,0.019795
129.449,72.3509,0.019795
129.481,72.3575,0.019795
129.511,72.3633,0.019795
129.542,72.3697,0.019795
129.573,72.3759,0.019795
129.604,72.3821,0.019795
129.635,72.3883,0.019795
129.666,72.3945,0.019748
129.697,72.4005,0.019748
129.729,72.4071,0.019748
129.759,72.4129,0.019748
129.790,72.4193,0.019748
129.822,72.4256,0.019748
129.853,72.4318,0.019748
129.884,72.4381,0.019729
129.914,72.4441,0.019729
129.945,72.4503,0.019729
129.976,72.4564,0.019729
130.007,72.4627,0.019729
130.038,72.4690,0.019729
130.068,72.4750,0.019729
130.100,72.4813,0.019729
130.131,72.4874,0.019729
130.162,72.4938,0.019672
130.194,72.4999,0.019672
130.225,72.5063,0.019672
130.256,72.5124,0.019672
130.287,72.5187,0.019672
130.319,72.5249,0.019672
130.350,72.5314,0.019672
130.380,72.5372,0.019672
130.412,72.5437,0.019644
130.442,72.5496,0.019644
130.473,72.5557,0.019644
130.504,72.5621,0.019644
130.535,72.5682,0.019644
130.566,72.5745,0.019644
130.598,72.5807,0.019644
130.628,72.5869,0.019559
130.660,72.5933,0.019559
130.690,72.5992,0.019559
130.720,72.6052,0.019559
130.751,72.6116,0.019559
130.783,72.6177,0.019559
130.813,72.6240,0.019559
130.844,72.6300,0.019559
130.876,72.6364,0.019474
130.907,72.6426,0.019474
130.937,72.6486,0.019474
130.968,72.6547,0.019474
130.999,72.6611,0.019474
131.032,72.6676,0.019474
131.062,72.6738,0.019474
131.093,72.6797,0.019474
131.124,72.6860,0.019522
131.154,72.6921,0.019522
131.186,72.6983,0.019522
131.216,72.7044,0.019522
131.246,72.7105,0.019522
131.277,72.7168,0.019522
131.308,72.7229,0.019522
131.339,72.7291,0.019522
131.370,72.7353,0.019522
131.403,72.7417,0.019465
131.433,72.7478,0.019465
131.465,72.7541,0.019465
131.495,72.7603,0.019465
131.527,72.7665,0.019465
131.557,72.7727,0.019465
131.590,72.7792,0.019465
131.619,72.7850,0.019427
131.651,72.7913,0.019427
131.681,72.7975,0.019427
131.712,72.8037,0.019427
131.743,72.8098,0.019427
131.775,72.8161,0.019427
131.806,72.8223,0.019427
131.837,72.8287,0.019427
131.867,72.8346,0.019427
131.898,72.8407,0.019418
131.929,72.8470,0.019418
131.960,72.8531,0.019418
131.991,72.8594,0.019418
132.022,72.8656,0.019418
132.053,72.8718,0.019418
132.084,72.8780,0.019418
132.115,72.8844,0.019418
132.146,72.8904,0.019352
132.177,72.8966,0.019352
132.207,72.9026,0.019352
132.238,72.9088,0.019352
132.269,72.9150,0.019352
132.300,72.9212,0.019352
132.333,72.9278,0.019352
132.362,72.9337,0.019352
132.393,72.9399,0.019258
132.425,72.9462,0.019258
132.458,72.9528,0.019258
132.489,72.9589,0.019258
132.520,72.9651,0.019258
132.551,72.9713,0.019258
132.582,72.9776,0.019258
132.613,72.9841,0.019258
132.645,72.9901,0.019258
132.676,72.9964,0.019258
132.707,73.0024,0.019201
132.738,73.0088,0.019201
132.770,73.0152,0.019201
132.800,73.0212,0.019201
132.831,73.0275,0.019201
132.862,73.0336,0.019201
132.893,73.0399,0.019201
132.924,73.0458,0.019182
132.956,73.0524,0.019182
132.986,73.0584,0.019182
133.017,73.0647,0.019182
133.048,73.0708,0.019182
133.080,73.0771,0.019182
133.111,73.0833,0.019182
133.143,73.0897,0.019182
133.174,73.0959,0.019164
133.205,73.1023,0.019164
133.236,73.1086,0.019164
133.266,73.1145,0.019164
133.297,73.1206,0.019164
133.328,73.1268,0.019164
133.359,73.1330,0.019164
133.390,73.1391,0.019164
133.421,73.1453,0.019107
133.451,73.1515,0.019107
133.482,73.1575,0.019107
133.514,73.1639,0.019107
133.544,73.1699,0.019107
133.575,73.1762,0.019107
133.606,73.1824,0.019107
133.637,73.1886,0.019107
133.668,73.1949,0.018975
133.699,73.2010,0.018975
133.729,73.2072,0.018975
133.760,73.2133,0.018975
133.791,73.2196,0.018975
133.821,73.2255,0.018975
133.852,73.2317,0.018975
133.884,73.2379,0.018975
133.914,73.2440,0.018928
133.947,73.2506,0.018928
133.977,73.2566,0.018928
134.009,73.2629,0.018928
134.039,73.2690,0.018928
134.071,73.2753,0.018928
134.102,73.2815,0.018928
134.133,73.2878,0.018928
134.165,73.2941,0.018890
134.197,73.3006,0.018890
134.228,73.3068,0.018890
134.260,73.3132,0.018890
134.290,73.3192,0.018890
134.321,73.3254,0.018890
134.352,73.3316,0.018890
134.384,73.3379,0.018890
134.414,73.3441,0.018806
134.445,73.3502,0.018806
134.477,73.3566,0.018806
134.508,73.3628,0.018806
134.540,73.3693,0.018806
134.571,73.3755,0.018806
134.602,73.3817,0.018806
134.632,73.3878,0.018806
134.663,73.3940,0.018730
134.695,73.4002,0.018730
134.725,73.4064,0.018730
134.756,73.4124,0.018730
134.787,73.4185,0.018730
134.818,73.4247,0.018730
134.848,73.4308,0.018730
134.879,73.4371,0.018730
134.910,73.4433,0.018664
134.942,73.4495,0.018664
134.973,73.4556,0.018664
135.003,73.4619,0.018664
135.034,73.4680,0.018664
135.065,73.4742,0.018664
135.096,73.4804,0.018664
135.127,73.4865,0.018664
135.158,73.4927,0.018485
135.189,73.4990,0.018485
135.219,73.5050,0.018485
135.251,73.5115,0.018485
135.282,73.5176,0.018485
135.313,73.5239,0.018485
135.345,73.5301,0.018485
135.377,73.5366,0.018485
135.407,73.5427,0.018363
135.439,73.5490,0.018363
135.469,73.5548,0.018363
135.500,73.5610,0.018363
135.530,73.5672,0.018363
135.562,73.5736,0.018363
135.592,73.5796,0.018363
135.623,73.5858,0.018363
135.654,73.5920,0.018316
135.685,73.5982,0.018316
135.716,73.6044,0.018316
135.747,73.6106,0.018316
135.778,73.6168,0.018316
135.808,73.6228,0.018316
135.838,73.6289,0.018316
135.870,73.6352,0.018316
135.902,73.6414,0.018193
135.933,73.6477,0.018193
135.963,73.6538,0.018193
135.994,73.6601,0.018193
136.025,73.6663,0.018193
136.057,73.6727,0.018193
136.088,73.6786,0.018193
136.118,73.6848,0.018193
136.149,73.6909,0.017967
136.180,73.6973,0.017967
136.211,73.7034,0.017967
136.243,73.7099,0.017967
136.274,73.7159,0.017967
136.306,73.7224,0.017967
136.337,73.7285,0.017967
136.368,73.7350,0.017967
136.399,73.7409,0.017694
136.430,73.7471,0.017694
136.462,73.7535,0.017694
136.493,73.7597,0.017694
136.524,73.7659,0.017694
136.555,73.7724,0.017694
136.586,73.7783,0.017694
136.616,73.7844,0.017694
136.646,73.7905,0.017505
136.676,73.7964,0.017505
136.707,73.8026,0.017505
136.737,73.8086,0.017505
136.768,73.8148,0.017505
136.799,73.8209,0.017505
136.830,73.8272,0.017505
136.861,73.8335,0.017505
136.893,73.8397,0.017185
136.924,73.8460,0.017185
136.955,73.8521,0.017185
136.986,73.8583,0.017185
137.017,73.8646,0.017185
137.048,73.8707,0.017185
137.080,73.8770,0.017185
137.111,73.8834,0.017185
137.142,73.8896,0.016789
137.173,73.8958,0.016789
137.204,73.9020,0.016789
137.236,73.9084,0.016789
137.267,73.9145,0.016789
137.300,73.9211,0.016789
137.329,73.9270,0.016789
137.360,73.9332,0.016789
137.391,73.9393,0.016337
137.422,73.9455,0.016337
137.453,73.9518,0.016337
137.485,73.9580,0.016337
137.515,73.9641,0.016337
137.546,73.9704,0.016337
137.576,73.9764,0.016337
137.608,73.9827,0.016337
137.639,73.9890,0.015696
137.670,73.9952,0.015696
137.702,74.0017,0.015696
137.733,74.0078,0.015696
137.764,74.0138,0.015696
137.795,74.0202,0.015696
137.824,74.0260,0.015696
137.856,74.0322,0.015696
137.887,74.0385,0.015027
137.917,74.0446,0.015027
137.948,74.0508,0.015027
137.979,74.0570,0.015027
138.010,74.0631,0.015027
138.041,74.0695,0.015027
138.072,74.0756,0.015027
138.104,74.0818,0.015027
138.135,74.0880,0.014236
138.166,74.0942,0.014236
138.196,74.1005,0.014236
138.228,74.1066,0.014236
138.259,74.1132,0.014236
138.290,74.1193,0.014236
138.322,74.1256,0.014236
138.352,74.1317,0.014236
138.384,74.1380,0.014236
138.414,74.1441,0.014236
138.447,74.1506,0.013049
138.477,74.1566,0.013049
138.508,74.1629,0.013049
138.540,74.1691,0.013049
138.572,74.1756,0.013049
138.603,74.1818,0.013049
138.634,74.1881,0.013049
138.665,74.1942,0.011579
138.698,74.2009,0.011579
138.728,74.2068,0.011579
138.759,74.2131,0.011579
138.790,74.2192,0.011579
138.822,74.2254,0.011579
138.853,74.2316,0.011579
138.884,74.2379,0.009836
138.916,74.2443,0.009836
138.947,74.2505,0.009836
138.979,74.2569,0.009836
139.010,74.2631,0.009836
139.041,74.2693,0.009836
139.071,74.2754,0.009836
139.102,74.2816,0.009836
139.133,74.2879,0.007594
139.164,74.2939,0.007594
139.194,74.3000,0.007594
139.225,74.3060,0.007594
139.255,74.3122,0.007594
139.286,74.3184,0.007594
139.317,74.3248,0.007594
139.348,74.3308,0.007594
139.379,74.3370,0.004730
139.411,74.3434,0.004730
139.443,74.3497,0.004730
139.472,74.3556,0.004730
139.504,74.3620,0.004730
139.536,74.3683,0.004730
139.567,74.3744,0.004730
139.597,74.3806,0.004730
139.629,74.3869,0.004730
139.660,74.3931,0.001244
139.690,74.3992,0.001244
139.721,74.4054,0.001244
139.752,74.4116,0.001244
139.783,74.4179,0.001244
139.816,74.4242,0.001244
139.846,74.4304,0.001244
139.878,74.4369,0.001244
139.909,74.4430,-0.003100
139.941,74.4494,-0.003100
139.971,74.4552,-0.003100
140.001,74.4616,-0.003100
140.032,74.4676,-0.003100
140.064,74.4740,-0.003100
140.094,74.4800,-0.003100
140.126,74.4865,-0.003100
140.158,74.4927,-0.008555
140.190,74.4993,-0.008555
140.220,74.5051,-0.008555
140.251,74.5114,-0.008555
140.282,74.5174,-0.008555
140.313,74.5237,-0.008555
140.344,74.5298,-0.008555
140.375,74.5362,-0.008555
140.405,74.5422,-0.015075
140.437,74.5486,-0.015075
140.468,74.5548,-0.015075
140.500,74.5610,-0.015075
140.530,74.5671,-0.015075
140.561,74.5734,-0.015075
140.593,74.5796,-0.015075
140.623,74.5858,-0.015075
140.654,74.5919,-0.022904
140.685,74.5982,-0.022904
140.717,74.6044,-0.022904
140.748,74.6108,-0.022904
140.779,74.6168,-0.022904
140.810,74.6232,-0.022904
140.841,74.6292,-0.022904
140.872,74.6354,-0.022904
140.903,74.6418,-0.032118
140.934,74.6480,-0.032118
140.966,74.6543,-0.032118
140.996,74.6604,-0.032118
141.027,74.6666,-0.032118
141.058,74.6728,-0.032118
141.089,74.6789,-0.032118
141.120,74.6851,-0.032118
141.151,74.6913,-0.042944
141.182,74.6975,-0.042944
141.213,74.7037,-0.042944
141.244,74.7100,-0.042944
141.276,74.7162,-0.042944
141.307,74.7225,-0.042944
141.338,74.7287,-0.042944
141.369,74.7350,-0.042944
141.400,74.7410,-0.055437
141.431,74.7473,-0.055437
141.463,74.7536,-0.055437
141.494,74.7598,-0.055437
141.525,74.7663,-0.055437
141.556,74.7716,-0.055437
141.587,74.7765,-0.055437
141.618,74.7806,-0.055437
141.649,74.7839,-0.069710
141.680,74.7866,-0.069710
141.711,74.7885,-0.069710
141.742,74.7897,-0.069710
141.773,74.7902,-0.069710
141.804,74.7902,-0.069710
141.834,74.7902,-0.069710
141.866,74.7902,-0.069710
141.897,74.7902,-0.080649
141.929,74.7902,-0.080649
141.959,74.7902,-0.080649
141.990,74.7902,-0.080649
142.021,74.7902,-0.080649
142.052,74.7902,-0.080649
142.083,74.7902,-0.080649
142.115,74.7902,-0.080649
142.146,74.7902,-0.082458
142.177,74.7902,-0.082458
142.208,74.7902,-0.082458
142.240,74.7902,-0.082458
142.272,74.7902,-0.082458
142.303,74.7902,-0.082458
142.334,74.7902,-0.082458
142.365,74.7902,-0.082458
142.395,74.7902,-0.082458
142.426,74.7902,-0.079660
142.457,74.7902,-0.079660
142.487,74.7902,-0.079660
142.519,74.7902,-0.079660
142.550,74.7902,-0.079660
142.580,74.7902,-0.079660
142.611,74.7902,-0.079660
142.642,74.7902,-0.077248
142.673,74.7902,-0.077248
142.704,74.7902,-0.077248
142.736,74.7902,-0.077248
142.766,74.7902,-0.077248
142.797,74.7902,-0.077248
142.829,74.7902,-0.077248
142.861,74.7902,-0.077248
142.893,74.7902,-0.077248
142.924,74.7902,-0.075326
142.955,74.7902,-0.075326
142.986,74.7902,-0.075326
143.017,74.7902,-0.075326
143.046,74.7902,-0.075326
143.078,74.7902,-0.075326
143.110,74.7902,-0.075326
143.140,74.7902,-0.073781
143.172,74.7902,-0.073781
143.203,74.7902,-0.073781
143.234,74.7902,-0.073781
143.265,74.7902,-0.073781
143.295,74.7902,-0.073781
143.327,74.7902,-0.073781
143.358,74.7902,-0.073781
143.389,74.7902,-0.073781
143.419,74.7902,-0.072452
143.451,74.7902,-0.072452
143.482,74.7902,-0.072452
143.514,74.7902,-0.072452
143.545,74.7902,-0.072452
143.575,74.7902,-0.072452
143.606,74.7902,-0.072452
143.637,74.7902,-0.071208
143.668,74.7902,-0.071208
143.699,74.7902,-0.071208
143.730,74.7902,-0.071208
143.761,74.7902,-0.071208
143.792,74.7902,-0.071208
143.823,74.7902,-0.071208
143.854,74.7902,-0.071208
143.885,74.7902,-0.071208
143.916,74.7902,-0.070153
143.946,74.7902,-0.070153
143.978,74.7902,-0.070153
144.008,74.7902,-0.070153
144.040,74.7902,-0.070153
144.071,74.7902,-0.070153
144.104,74.7902,-0.070153
144.134,74.7902,-0.069286
144.165,74.7902,-0.069286
144.195,74.7902,-0.069286
144.226,74.7902,-0.069286
144.257,74.7902,-0.069286
144.288,74.7902,-0.069286
144.319,74.7902,-0.069286
144.350,74.7902,-0.069286
144.380,74.7902,-0.069286
144.412,74.7902,-0.068401
144.443,74.7902,-0.068401
144.473,74.7902,-0.068401
144.505,74.7902,-0.068401
144.538,74.7902,-0.068401
144.568,74.7902,-0.068401
144.599,74.7902,-0.068401
144.630,74.7902,-0.067647
144.662,74.7902,-0.067647
144.694,74.7902,-0.067647
144.725,74.7902,-0.067647
144.756,74.7902,-0.067647
144.787,74.7902,-0.067647
144.817,74.7902,-0.067647
144.848,74.7902,-0.067647
144.880,74.7902,-0.066978
144.910,74.7902,-0.066978
144.941,74.7902,-0.066978
144.973,74.7902,-0.066978
145.004,74.7902,-0.066978
145.035,74.7902,-0.066978
145.066,74.7902,-0.066978
145.096,74.7902,-0.066978
145.128,74.7902,-0.066978
145.159,74.7902,-0.066309
145.190,74.7902,-0.066309
145.221,74.7902,-0.066309
145.251,74.7902,-0.066309
145.283,74.7902,-0.066309
145.314,74.7902,-0.066309
145.345,74.7902,-0.066309
145.376,74.7902,-0.065744
145.408,74.7902,-0.065744
145.438,74.7902,-0.065744
145.469,74.7902,-0.065744
145.501,74.7902,-0.065744
145.533,74.7902,-0.065744
145.563,74.7902,-0.065744
145.595,74.7902,-0.065744
145.625,74.7902,-0.065744
145.656,74.7902,-0.065103
145.688,74.7902,-0.065103
145.719,74.7902,-0.065103
145.751,74.7902,-0.065103
145.781,74.7902,-0.065103
145.812,74.7902,-0.065103
145.843,74.7902,-0.065103
145.874,74.7902,-0.065103
145.906,74.7902,-0.064001
145.937,74.7902,-0.064001
145.969,74.7902,-0.064001
145.999,74.7902,-0.064001
146.029,74.7902,-0.064001
146.061,74.7902,-0.064001
146.092,74.7902,-0.064001
146.123,74.7902,-0.064001
146.154,74.7902,-0.061655
146.185,74.7902,-0.061655
146.216,74.7902,-0.061655
146.247,74.7902,-0.061655
146.277,74.7902,-0.061655
146.309,74.7902,-0.061655
146.340,74.7902,-0.061655
146.371,74.7902,-0.061655
146.403,74.7900,-0.059262
146.432,74.7891,-0.059262
146.464,74.7874,-0.059262
146.494,74.7851,-0.059262
146.524,74.7820,-0.059262
146.555,74.7783,-0.059262
146.587,74.7735,-0.059262
146.618,74.7684,-0.059262
146.648,74.7624,-0.059262
146.679,74.7564,-0.057170
146.711,74.7499,-0.057170
146.743,74.7437,-0.057170
146.774,74.7374,-0.057170
146.805,74.7312,-0.057170
146.837,74.7247,-0.057170
146.869,74.7185,-0.057170
146.900,74.7123,-0.057170
146.931,74.7060,-0.047409
146.963,74.6996,-0.047409
146.994,74.6935,-0.047409
147.024,74.6873,-0.047409
147.055,74.6811,-0.047409
147.086,74.6750,-0.047409
147.117,74.6687,-0.047409
147.148,74.6625,-0.047409
147.179,74.6564,-0.030149
147.210,74.6502,-0.030149
147.241,74.6440,-0.030149
147.273,74.6377,-0.030149
147.304,74.6314,-0.030149
147.335,74.6252,-0.030149
147.366,74.6191,-0.030149
147.396,74.6127,-0.030149
147.428,74.6065,-0.013482
147.459,74.6003,-0.013482
147.491,74.5940,-0.013482
147.522,74.5878,-0.013482
147.552,74.5816,-0.013482
147.583,74.5755,-0.013482
147.614,74.5693,-0.013482
147.645,74.5631,-0.013482
147.676,74.5569,0.001102
147.706,74.5510,0.001102
147.736,74.5448,0.001102
147.767,74.5386,0.001102
147.799,74.5324,0.001102
147.830,74.5263,0.001102
147.861,74.5201,0.001102
147.893,74.5135,0.013991
147.924,74.5075,0.013991
147.955,74.5010,0.013991
147.985,74.4952,0.013991
148.017,74.4888,0.013991
148.048,74.4825,0.013991
148.079,74.4764,0.013991
148.111,74.4700,0.013991
148.142,74.4639,0.025523
148.172,74.4577,0.025523
148.203,74.4516,0.025523
148.234,74.4452,0.025523
148.264,74.4394,0.025523
148.296,74.4328,0.025523
148.327,74.4268,0.025523
148.359,74.4204,0.025523
148.390,74.4142,0.035925
148.421,74.4079,0.035925
148.452,74.4018,0.035925
148.484,74.3953,0.035925
148.515,74.3891,0.035925
148.546,74.3828,0.035925
148.577,74.3769,0.035925
148.608,74.3705,0.035925
148.639,74.3645,0.035925
148.671,74.3579,0.045563
148.701,74.3521,0.045563
148.732,74.3458,0.045563
148.762,74.3398,0.045563
148.794,74.3334,0.045563
148.823,74.3276,0.045563
148.854,74.3213,0.045563
148.885,74.3152,0.054617
148.917,74.3086,0.054617
148.948,74.3026,0.054617
148.980,74.2960,0.054617
149.012,74.2899,0.054617
149.044,74.2835,0.054617
149.074,74.2775,0.054617
149.105,74.2712,0.054617
149.136,74.2650,0.063662
149.167,74.2588,0.063662
149.197,74.2528,0.063662
149.227,74.2468,0.063662
149.258,74.2406,0.063662
149.289,74.2344,0.063662
149.319,74.2284,0.063662
149.350,74.2221,0.063662
149.382,74.2159,0.063662
149.413,74.2094,0.072848
149.444,74.2033,0.072848
149.476,74.1970,0.072848
149.508,74.1906,0.072848
149.539,74.1842,0.072848
149.569,74.1784,0.072848
149.601,74.1721,0.072848
149.631,74.1659,0.072848
149.663,74.1596,0.082646
149.693,74.1534,0.082646
149.725,74.1473,0.082646
149.756,74.1408,0.082646
149.788,74.1346,0.082646
149.818,74.1286,0.082646
149.850,74.1222,0.082646
149.882,74.1158,0.082646
149.912,74.1098,0.093246
149.943,74.1035,0.093246
149.973,74.0976,0.093246
150.004,74.0912,0.093246
150.035,74.0853,0.093246
150.066,74.0791,0.093246
150.097,74.0729,0.093246
150.128,74.0665,0.093246
150.158,74.0603,0.104806
150.190,74.0543,0.104806
150.221,74.0481,0.104806
150.252,74.0416,0.104806
150.283,74.0355,0.104806
150.314,74.0293,0.104806
150.346,74.0231,0.104806
150.376,74.0169,0.104806
150.407,74.0109,0.117648
150.439,74.0045,0.117648
150.470,73.9982,0.117648
150.501,73.9920,0.117648
150.532,73.9858,0.117648
150.563,73.9796,0.117648
150.594,73.9734,0.117648
150.625,73.9671,0.117648
150.657,73.9608,0.131752
150.688,73.9544,0.131752
150.719,73.9485,0.131752
150.750,73.9423,0.131752
150.781,73.9361,0.131752
150.811,73.9300,0.131752
150.843,73.9237,0.131752
150.875,73.9171,0.147542
150.905,73.9113,0.147542
150.936,73.9051,0.147542
150.967,73.8989,0.147542
150.998,73.8925,0.147542
151.030,73.8862,0.147542
151.059,73.8804,0.147542
151.090,73.8743,0.147542
151.120,73.8681,0.147542
151.152,73.8618,0.164869
151.183,73.8555,0.164869
151.214,73.8495,0.164869
151.245,73.8432,0.164869
151.276,73.8371,0.164869
151.306,73.8310,0.164869
151.338,73.8245,0.164869
151.368,73.8187,0.164869
151.399,73.8124,0.183778
151.430,73.8062,0.183778
151.460,73.8000,0.183778
151.491,73.7939,0.183778
151.523,73.7875,0.183778
151.554,73.7815,0.183778
151.586,73.7750,0.183778
151.617,73.7689,0.183778
151.649,73.7624,0.183778
151.680,73.7562,0.204449
151.711,73.7499,0.204449
151.741,73.7440,0.204449
151.772,73.7379,0.204449
151.802,73.7318,0.204449
151.833,73.7256,0.204449
151.863,73.7194,0.204449
151.894,73.7133,0.204449
151.924,73.7074,0.226655
151.954,73.7013,0.226655
151.984,73.6953,0.226655
152.015,73.6893,0.226655
152.045,73.6833,0.226655
152.075,73.6771,0.226655
152.107,73.6709,0.226655
152.138,73.6646,0.226655
152.169,73.6585,0.250464
152.200,73.6521,0.250464
152.231,73.6460,0.250464
152.263,73.6397,0.250464
152.295,73.6333,0.250464
152.326,73.6270,0.250464
152.358,73.6204,0.250464
152.390,73.6141,0.250464
152.421,73.6080,0.275478
152.453,73.6017,0.275478
152.484,73.5955,0.275478
152.515,73.5892,0.275478
152.545,73.5831,0.275478
152.577,73.5768,0.275478
152.607,73.5708,0.275478
152.638,73.5645,0.275478
152.669,73.5584,0.301529
152.700,73.5520,0.301529
152.731,73.5460,0.301529
152.763,73.5396,0.301529
152.793,73.5336,0.301529
152.827,73.5267,0.301529
152.855,73.5212,0.301529
152.887,73.5149,0.301529
152.918,73.5087,0.328362
152.948,73.5025,0.328362
152.980,73.4962,0.328362
153.010,73.4902,0.328362
153.043,73.4836,0.328362
153.073,73.4776,0.328362
153.104,73.4714,0.328362
153.135,73.4650,0.328362
153.166,73.4590,0.355006
153.197,73.4528,0.355006
153.228,73.4467,0.355006
153.259,73.4405,0.355006
153.289,73.4344,0.355006
153.322,73.4280,0.355006
153.352,73.4218,0.355006
153.384,73.4154,0.355006
153.415,73.4092,0.380783
153.445,73.4030,0.380783
153.477,73.3969,0.380783
153.508,73.3906,0.380783
153.539,73.3845,0.380783
153.569,73.3783,0.380783
153.600,73.3721,0.380783
153.631,73.3659,0.380783
153.662,73.3597,0.404771
153.693,73.3537,0.404771
153.725,73.3473,0.404771
153.756,73.3410,0.404771
153.788,73.3347,0.404771
153.818,73.3286,0.404771
153.850,73.3222,0.404771
153.881,73.3160,0.404771
153.912,73.3099,0.425300
153.942,73.3037,0.425300
153.973,73.2976,0.425300
154.004,73.2914,0.425300
154.035,73.2852,0.425300
154.066,73.2791,0.425300
154.097,73.2728,0.425300
154.127,73.2667,0.425300
154.158,73.2604,0.439866
154.189,73.2544,0.439866
154.220,73.2481,0.439866
154.250,73.2422,0.439866
154.282,73.2358,0.439866
154.312,73.2299,0.439866
154.344,73.2234,0.439866
154.375,73.2174,0.444699
154.406,73.2110,0.444699
154.437,73.2048,0.444699
154.468,73.1986,0.444699
154.499,73.1926,0.444699
154.530,73.1864,0.444699
154.561,73.1799,0.444699
154.593,73.1737,0.444699
154.624,73.1673,0.444699
154.654,73.1614,0.410574
154.685,73.1551,0.410574
154.716,73.1490,0.410574
154.747,73.1427,0.410574
154.779,73.1365,0.410574
154.810,73.1302,0.410574
154.841,73.1240,0.410574
154.872,73.1176,0.410574
154.904,73.1116,0.197627
154.936,73.1049,0.197627
154.966,73.0990,0.197627
154.998,73.0927,0.197627
155.028,73.0868,0.197627
155.059,73.0803,0.197627
155.090,73.0742,0.197627
155.121,73.0682,0.197627
155.152,73.0620,0.019211
155.183,73.0555,0.019211
155.214,73.0494,0.019211
155.245,73.0432,0.019211
155.277,73.0369,0.019211
155.307,73.0308,0.019211
155.338,73.0246,0.019211
155.369,73.0184,0.019211
155.400,73.0122,0.020398
155.431,73.0061,0.020398
155.462,72.9999,0.020398
155.492,72.9940,0.020398
155.522,72.9879,0.020398
155.553,72.9816,0.020398
155.583,72.9755,0.020398
155.614,72.9693,0.020605
155.645,72.9631,0.020605
155.676,72.9570,0.020605
155.708,72.9507,0.020605
155.738,72.9446,0.020605
155.769,72.9386,0.020605
155.799,72.9324,0.020605
155.830,72.9262,0.020605
155.862,72.9200,0.020605
155.894,72.9135,0.020605
155.926,72.9072,0.020614
155.957,72.9009,0.020614
155.988,72.8948,0.020614
156.018,72.8886,0.020614
156.050,72.8822,0.020614
156.081,72.8758,0.020614
156.113,72.8696,0.020614
156.144,72.8635,0.020614
156.176,72.8572,0.020652
156.207,72.8509,0.020652
156.238,72.8448,0.020652
156.269,72.8383,0.020652
156.300,72.8324,0.020652
156.331,72.8259,0.020652
156.362,72.8199,0.020652
156.392,72.8137,0.020652
156.424,72.8075,0.020614
156.455,72.8011,0.020614
156.486,72.7949,0.020614
156.519,72.7885,0.020614
156.549,72.7825,0.020614
156.580,72.7761,0.020614
156.612,72.7699,0.020614
156.642,72.7638,0.020614
156.673,72.7577,0.020549
156.704,72.7514,0.020549
156.735,72.7452,0.020549
156.766,72.7390,0.020549
156.796,72.7330,0.020549
156.827,72.7268,0.020549
156.858,72.7206,0.020549
156.889,72.7143,0.020549
156.921,72.7080,0.020558
156.952,72.7018,0.020558
156.983,72.6957,0.020558
157.014,72.6894,0.020558
157.046,72.6832,0.020558
157.077,72.6770,0.020558
157.109,72.6705,0.020558
157.139,72.6643,0.020558
157.170,72.6583,0.020605
157.200,72.6522,0.020605
157.231,72.6460,0.020605
157.263,72.6398,0.020605
157.293,72.6336,0.020605
157.325,72.6274,0.020605
157.356,72.6209,0.020605
157.387,72.6149,0.020614
157.418,72.6085,0.020614
157.449,72.6025,0.020614
157.480,72.5961,0.020614
157.511,72.5900,0.020614
157.543,72.5836,0.020614
157.574,72.5775,0.020614
157.605,72.5711,0.020614
157.636,72.5651,0.020549
157.668,72.5587,0.020549
157.699,72.5526,0.020549
157.730,72.5461,0.020549
157.761,72.5399,0.020549
157.793,72.5336,0.020549
157.824,72.5274,0.020549
157.855,72.5212,0.020549
157.886,72.5150,0.020549
157.918,72.5086,0.020586
157.948,72.5025,0.020586
157.979,72.4964,0.020586
158.010,72.4902,0.020586
158.041,72.4840,0.020586
158.072,72.4779,0.020586
158.103,72.4716,0.020586
158.133,72.4657,0.020567
158.164,72.4595,0.020567
158.195,72.4533,0.020567
158.228,72.4467,0.020567
158.259,72.4406,0.020567
158.290,72.4342,0.020567
158.322,72.4280,0.020567
158.353,72.4217,0.020567
158.385,72.4153,0.020539
158.415,72.4091,0.020539
158.446,72.4030,0.020539
158.477,72.3968,0.020539
158.508,72.3906,0.020539
158.540,72.3843,0.020539
158.571,72.3780,0.020539
158.602,72.3718,0.020539
158.634,72.3654,0.020567
158.665,72.3592,0.020567
158.696,72.3529,0.020567
158.727,72.3467,0.020567
158.758,72.3405,0.020567
158.790,72.3342,0.020567
158.821,72.3280,0.020567
158.852,72.3218,0.020567
158.883,72.3156,0.020511
158.914,72.3094,0.020511
158.945,72.3031,0.020511
158.978,72.2967,0.020511
159.008,72.2905,0.020511
159.040,72.2843,0.020511
159.073,72.2776,0.020511
159.102,72.2718,0.020511
159.134,72.2654,0.020577
159.163,72.2598,0.020577
159.195,72.2535,0.020577
159.225,72.2472,0.020577
159.255,72.2413,0.020577
159.287,72.2348,0.020577
159.317,72.2289,0.020577
159.348,72.2224,0.020577
159.379,72.2165,0.020577
159.411,72.2099,0.020577
159.442,72.2036,0.020662
159.474,72.1974,0.020662
159.505,72.1911,0.020662
159.536,72.1850,0.020662
159.567,72.1788,0.020662
159.599,72.1726,0.020662
159.629,72.1665,0.020662
159.660,72.1603,0.020652
159.691,72.1540,0.020652
159.723,72.1478,0.020652
159.754,72.1415,0.020652
159.786,72.1351,0.020652
159.818,72.1286,0.020652
159.848,72.1225,0.020652
159.879,72.1164,0.020652
159.911,72.1101,0.020586
159.941,72.1039,0.020586
159.973,72.0977,0.020586
160.004,72.0914,0.020586
160.036,72.0850,0.020586
160.066,72.0789,0.020586
160.098,72.0727,0.020586
160.129,72.0664,0.020586
160.160,72.0601,0.020586
160.191,72.0541,0.020558
160.222,72.0479,0.020558
160.252,72.0420,0.020558
160.283,72.0355,0.020558
160.314,72.0295,0.020558
160.345,72.0233,0.020558
160.377,72.0168,0.020558
160.408,72.0106,0.020586
160.439,72.0044,0.020586
160.470,71.9983,0.020586
160.502,71.9918,0.020586
160.533,71.9857,0.020586
160.565,71.9792,0.020586
160.596,71.9730,0.020586
160.626,71.9671,0.020586
160.657,71.9609,0.020605
160.688,71.9547,0.020605
160.720,71.9484,0.020605
160.752,71.9419,0.020605
160.783,71.9358,0.020605
160.813,71.9296,0.020605
160.843,71.9237,0.020605
160.874,71.9175,0.020605
160.906,71.9110,0.020633
160.937,71.9048,0.020633
160.969,71.8986,0.020633
160.999,71.8924,0.020633
161.031,71.8861,0.020633
161.062,71.8799,0.020633
161.092,71.8738,0.020633
161.124,71.8674,0.020633
161.154,71.8614,0.020671
161.186,71.8551,0.020671
161.216,71.8491,0.020671
161.246,71.8428,0.020671
161.277,71.8370,0.020671
161.309,71.8304,0.020671
161.340,71.8242,0.020671
161.371,71.8179,0.020671
161.403,71.8118,0.020699
161.435,71.8054,0.020699
161.465,71.7994,0.020699
161.495,71.7932,0.020699
161.527,71.7869,0.020699
161.558,71.7807,0.020699
161.588,71.7746,0.020699
161.619,71.7685,0.020699
161.650,71.7626,0.020709
161.681,71.7571,0.020709
161.712,71.7525,0.020709
161.743,71.7487,0.020709
161.774,71.7456,0.020709
161.805,71.7431,0.020709
161.836,71.7415,0.020709
161.868,71.7405,0.020709
161.899,71.7402,0.020567
161.930,71.7402,0.020567
161.962,71.7402,0.020567
161.993,71.7402,0.020567
162.023,71.7402,0.020567
162.054,71.7406,0.020567
162.086,71.7416,0.020567
162.117,71.7436,0.020567
162.148,71.7461,0.020483
162.178,71.7493,0.020483
162.209,71.7533,0.020483
162.240,71.7580,0.020483
162.272,71.7634,0.020483
162.304,71.7698,0.020483
162.335,71.7758,0.020483
162.366,71.7822,0.020483
162.396,71.7884,0.020369
162.428,71.7947,0.020369
162.458,71.8006,0.020369
162.489,71.8068,0.020369
162.521,71.8132,0.020369
162.552,71.8192,0.020369
162.582,71.8254,0.020369
162.613,71.8315,0.020369
162.645,71.8378,0.020369
162.675,71.8440,0.020200
162.706,71.8502,0.020200
162.737,71.8563,0.020200
162.768,71.8627,0.020200
162.799,71.8689,0.020200
162.830,71.8749,0.020200
162.861,71.8814,0.020200
162.892,71.8875,0.020200
162.924,71.8938,0.020125
162.955,71.9000,0.020125
162.985,71.9062,0.020125
163.017,71.9123,0.020125
163.048,71.9187,0.020125
163.079,71.9248,0.020125
163.111,71.9314,0.020125
163.142,71.9373,0.020068
163.173,71.9435,0.020068
163.204,71.9497,0.020068
163.235,71.9559,0.020068
163.266,71.9622,0.020068
163.299,71.9687,0.020068
163.329,71.9749,0.020068
163.361,71.9812,0.020068
163.392,71.9874,0.020049
163.424,71.9936,0.020049
163.455,71.9999,0.020049
163.486,72.0063,0.020049
163.516,72.0123,0.020049
163.546,72.0182,0.020049
163.578,72.0246,0.020049
163.611,72.0312,0.020049
163.640,72.0372,0.020049
163.672,72.0432,0.020040
163.702,72.0496,0.020040
163.734,72.0558,0.020040
163.764,72.0617,0.020040
163.794,72.0678,0.020040
163.825,72.0741,0.020040
163.857,72.0802,0.020040
163.888,72.0866,0.019993
163.921,72.0931,0.019993
163.950,72.0989,0.019993
163.981,72.1051,0.019993
164.012,72.1113,0.019993
164.043,72.1175,0.019993
164.074,72.1237,0.019993
164.104,72.1298,0.019993
164.136,72.1361,0.019993
164.167,72.1422,0.019927
164.197,72.1484,0.019927
164.228,72.1546,0.019927
164.260,72.1611,0.019927
164.291,72.1671,0.019927
164.322,72.1735,0.019927
164.353,72.1795,0.019927
164.384,72.1859,0.019927
164.416,72.1922,0.019870
164.448,72.1985,0.019870
164.478,72.2047,0.019870
164.510,72.2109,0.019870
164.541,72.2170,0.019870
164.571,72.2232,0.019870
164.602,72.2294,0.019870
164.633,72.2356,0.019870
164.665,72.2419,0.019823
164.696,72.2482,0.019823
164.728,72.2546,0.019823
164.759,72.2609,0.019823
164.790,72.2668,0.019823
164.821,72.2732,0.019823
164.852,72.2794,0.019823
164.884,72.2857,0.019823
164.915,72.2920,0.019814
164.947,72.2983,0.019814
164.977,72.3043,0.019814
165.009,72.3107,0.019814
165.039,72.3167,0.019814
165.070,72.3229,0.019814
165.100,72.3290,0.019814
165.131,72.3352,0.019767
165.162,72.3415,0.019767
165.194,72.3478,0.019767
165.227,72.3544,0.019767
165.256,72.3601,0.019767
165.287,72.3664,0.019767
165.317,72.3724,0.019767
165.348,72.3787,0.019767
165.379,72.3848,0.019767
165.411,72.3912,0.019701
165.442,72.3974,0.019701
165.474,72.4036,0.019701
165.504,72.4097,0.019701
165.535,72.4158,0.019701
165.566,72.4222,0.019701
165.598,72.4286,0.019701
165.629,72.4346,0.019672
165.660,72.4408,0.019672
165.691,72.4471,0.019672
165.721,72.4534,0.019672
165.753,72.4595,0.019672
165.784,72.4657,0.019672
165.814,72.4719,0.019672
165.844,72.4779,0.019672
165.876,72.4841,0.019625
165.908,72.4905,0.019625
165.939,72.4968,0.019625
165.970,72.5029,0.019625
166.002,72.5093,0.019625
166.033,72.5155,0.019625
166.065,72.5218,0.019625
166.095,72.5280,0.019625
166.127,72.5342,0.019569
166.157,72.5404,0.019569
166.189,72.5469,0.019569
166.220,72.5530,0.019569
166.252,72.5594,0.019569
166.283,72.5655,0.019569
166.314,72.5717,0.019569
166.344,72.5778,0.019569
166.375,72.5840,0.019569
166.406,72.5902,0.019540
166.437,72.5964,0.019540
166.467,72.6023,0.019540
166.500,72.6089,0.019540
166.530,72.6149,0.019540
166.561,72.6212,0.019540
166.593,72.6274,0.019540
166.624,72.6338,0.019559
166.655,72.6399,0.019559
166.686,72.6461,0.019559
166.717,72.6523,0.019559
166.748,72.6586,0.019559
166.779,72.6647,0.019559
166.811,72.6712,0.019559
166.841,72.6772,0.019559
166.872,72.6833,0.019559
166.903,72.6896,0.019484
166.934,72.6958,0.019484
166.966,72.7022,0.019484
166.996,72.7081,0.019484
167.028,72.7146,0.019484
167.057,72.7205,0.019484
167.088,72.7266,0.019484
167.120,72.7328,0.019484
167.150,72.7390,0.019399
167.181,72.7451,0.019399
167.212,72.7513,0.019399
167.244,72.7576,0.019399
167.274,72.7638,0.019399
167.306,72.7701,0.019399
167.335,72.7758,0.019399
167.366,72.7822,0.019399
167.397,72.7882,0.019371
167.428,72.7946,0.019371
167.460,72.8009,0.019371
167.490,72.8071,0.019371
167.522,72.8133,0.019371
167.553,72.8197,0.019371
167.585,72.8259,0.019371
167.616,72.8323,0.019371
167.647,72.8382,0.019371
167.677,72.8443,0.019352
167.707,72.8505,0.019352
167.738,72.8565,0.019352
167.769,72.8629,0.019352
167.800,72.8690,0.019352
167.831,72.8751,0.019352
167.862,72.8813,0.019352
167.893,72.8875,0.019352
167.923,72.8935,0.019333
167.955,72.8999,0.019333
167.986,72.9061,0.019333
168.017,72.9123,0.019333
168.047,72.9182,0.019333
168.077,72.9244,0.019333
168.108,72.9306,0.019333
168.140,72.9368,0.019333
168.171,72.9430,0.019277
168.202,72.9493,0.019277
168.234,72.9557,0.019277
168.265,72.9621,0.019277
168.296,72.9681,0.019277
168.326,72.9742,0.019277
168.358,72.9805,0.019277
168.389,72.9867,0.019277
168.420,72.9929,0.019211
168.452,72.9995,0.019211
168.483,73.0055,0.019211
168.514,73.0119,0.019211
168.545,73.0179,0.019211
168.576,73.0244,0.019211
168.607,73.0303,0.019211
168.640,73.0370,0.019098
168.670,73.0429,0.019098
168.701,73.0492,0.019098
168.732,73.0554,0.019098
168.763,73.0615,0.019098
168.793,73.0675,0.019098
168.824,73.0736,0.019098
168.855,73.0799,0.019098
168.886,73.0861,0.019069
168.916,73.0921,0.019069
168.947,73.0983,0.019069
168.977,73.1044,0.019069
169.008,73.1106,0.019069
169.039,73.1168,0.019069
169.069,73.1227,0.019069
169.099,73.1288,0.019069
169.130,73.1349,0.019013
169.161,73.1413,0.019013
169.192,73.1474,0.019013
169.223,73.1535,0.019013
169.254,73.1597,0.019013
169.286,73.1660,0.019013
169.317,73.1722,0.019013
169.348,73.1784,0.019013
169.379,73.1847,0.019013
169.410,73.1909,0.018947
169.441,73.1973,0.018947
169.471,73.2031,0.018947
169.502,73.2094,0.018947
169.533,73.2156,0.018947
169.564,73.2218,0.018947
169.596,73.2280,0.018947
169.627,73.2344,0.018947
169.657,73.2403,0.018975
169.689,73.2466,0.018975
169.720,73.2528,0.018975
169.751,73.2590,0.018975
169.782,73.2654,0.018975
169.812,73.2713,0.018975
169.844,73.2779,0.018975
169.875,73.2838,0.018975
169.905,73.2899,0.018975
169.939,73.2967,0.018853
169.968,73.3024,0.018853
169.999,73.3088,0.018853
170.030,73.3148,0.018853
170.061,73.3212,0.018853
170.092,73.3272,0.018853
170.123,73.3334,0.018853
170.154,73.3396,0.018711
170.185,73.3460,0.018711
170.215,73.3519,0.018711
170.245,73.3581,0.018711
170.276,73.3642,0.018711
170.307,73.3704,0.018711
170.338,73.3765,0.018711
170.369,73.3827,0.018711
170.401,73.3891,0.018636
170.431,73.3952,0.018636
170.462,73.4014,0.018636
170.494,73.4077,0.018636
170.525,73.4141,0.018636
170.556,73.4201,0.018636
170.587,73.4262,0.018636
170.618,73.4327,0.018636
170.649,73.4387,0.018523
170.680,73.4449,0.018523
170.711,73.4511,0.018523
170.743,73.4576,0.018523
170.775,73.4638,0.018523
170.806,73.4700,0.018523
170.837,73.4762,0.018523
170.868,73.4826,0.018523
170.900,73.4888,0.018419
170.932,73.4954,0.018419
170.961,73.5010,0.018419
170.992,73.5075,0.018419
171.023,73.5135,0.018419
171.054,73.5199,0.018419
171.085,73.5261,0.018419
171.117,73.5323,0.018259
171.148,73.5386,0.018259
171.179,73.5447,0.018259
171.211,73.5511,0.018259
171.242,73.5573,0.018259
171.273,73.5636,0.018259
171.305,73.5698,0.018259
171.336,73.5763,0.018259
171.367,73.5824,0.018259
171.399,73.5888,0.018137
171.430,73.5950,0.018137
171.463,73.6015,0.018137
171.494,73.6077,0.018137
171.524,73.6139,0.018137
171.556,73.6201,0.018137
171.585,73.6260,0.018137
171.617,73.6322,0.018137
171.646,73.6380,0.017958
171.677,73.6442,0.017958
171.708,73.6505,0.017958
171.738,73.6567,0.017958
171.769,73.6626,0.017958
171.800,73.6689,0.017958
171.831,73.6751,0.017958
171.862,73.6812,0.017958
171.893,73.6875,0.017760
171.924,73.6939,0.017760
171.955,73.6999,0.017760
171.986,73.7060,0.017760
172.016,73.7122,0.017760
172.047,73.7182,0.017760
172.078,73.7245,0.017760
172.108,73.7304,0.017760
172.139,73.7368,0.017760
172.170,73.7428,0.017515
172.201,73.7493,0.017515
172.232,73.7554,0.017515
172.263,73.7616,0.017515
172.293,73.7674,0.017515
172.324,73.7736,0.017515
172.354,73.7797,0.017515
172.385,73.7859,0.017515
172.416,73.7922,0.017176
172.447,73.7983,0.017176
172.478,73.8045,0.017176
172.509,73.8107,0.017176
172.539,73.8169,0.017176
172.571,73.8232,0.017176
172.601,73.8293,0.017176
172.633,73.8356,0.017176
172.664,73.8416,0.016827
172.695,73.8480,0.016827
172.727,73.8542,0.016827
172.757,73.8604,0.016827
172.788,73.8666,0.016827
172.819,73.8727,0.016827
172.850,73.8789,0.016827
172.881,73.8850,0.016827
172.912,73.8912,0.016431
172.943,73.8975,0.016431
172.974,73.9037,0.016431
173.005,73.9100,0.016431
173.036,73.9160,0.016431
173.067,73.9222,0.016431
173.097,73.9283,0.016431
173.129,73.9347,0.016431
173.159,73.9407,0.015866
173.190,73.9471,0.015866
173.221,73.9531,0.015866
173.252,73.9594,0.015866
173.284,73.9656,0.015866
173.315,73.9718,0.015866
173.346,73.9780,0.015866
173.376,73.9841,0.015866
173.407,73.9903,0.015122
173.438,73.9966,0.015122
173.470,74.0028,0.015122
173.500,74.0089,0.015122
173.532,74.0152,0.015122
173.563,74.0215,0.015122
173.594,74.0276,0.015122
173.625,74.0338,0.015122
173.657,74.0403,0.014264
173.688,74.0465,0.014264
173.719,74.0525,0.014264
173.750,74.0589,0.014264
173.781,74.0652,0.014264
173.812,74.0713,0.014264
173.843,74.0777,0.014264
173.875,74.0839,0.014264
173.906,74.0901,0.013105
173.938,74.0964,0.013105
173.969,74.1028,0.013105
173.999,74.1087,0.013105
174.030,74.1150,0.013105
174.062,74.1212,0.013105
174.093,74.1276,0.013105
174.124,74.1336,0.013105
174.155,74.1397,0.011720
174.185,74.1459,0.011720
174.216,74.1521,0.011720
174.247,74.1585,0.011720
174.278,74.1645,0.011720
174.309,74.1706,0.011720
174.340,74.1768,0.011720
174.371,74.1830,0.011720
174.401,74.1891,0.009968
174.432,74.1953,0.009968
174.462,74.2011,0.009968
174.493,74.2074,0.009968
174.524,74.2136,0.009968
174.555,74.2200,0.009968
174.587,74.2263,0.009968
174.618,74.2325,0.009968
174.648,74.2387,0.007688
174.679,74.2448,0.007688
174.710,74.2510,0.007688
174.741,74.2572,0.007688
174.772,74.2632,0.007688
174.802,74.2695,0.007688
174.833,74.2755,0.007688
174.864,74.2817,0.007688
174.895,74.2881,0.004909
174.926,74.2943,0.004909
174.958,74.3006,0.004909
174.988,74.3065,0.004909
175.019,74.3127,0.004909
175.050,74.3191,0.004909
175.081,74.3251,0.004909
175.113,74.3315,0.004909
175.144,74.3375,0.004909
175.174,74.3437,0.001366
175.205,74.3501,0.001366
175.237,74.3561,0.001366
175.269,74.3626,0.001366
175.300,74.3688,0.001366
175.331,74.3750,0.001366
175.363,74.3814,0.001366
175.392,74.3873,0.001366
175.424,74.3937,-0.002911
175.455,74.3999,-0.002911
175.486,74.4062,-0.002911
175.518,74.4125,-0.002911
175.549,74.4189,-0.002911
175.580,74.4249,-0.002911
175.611,74.4311,-0.002911
175.641,74.4371,-0.008150
175.673,74.4437,-0.008150
175.703,74.4494,-0.008150
175.733,74.4555,-0.008150
175.764,74.4617,-0.008150
175.796,74.4680,-0.008150
175.827,74.4743,-0.008150
175.858,74.4805,-0.008150
175.888,74.4866,-0.014613
175.920,74.4929,-0.014613
175.951,74.4991,-0.014613
175.983,74.5053,-0.014613
176.014,74.5118,-0.014613
176.044,74.5177,-0.014613
176.075,74.5239,-0.014613
176.106,74.5301,-0.014613
176.138,74.5365,-0.022376
176.169,74.5428,-0.022376
176.200,74.5489,-0.022376
176.230,74.5548,-0.022376
176.261,74.5610,-0.022376
176.292,74.5674,-0.022376
176.323,74.5733,-0.022376
176.354,74.5796,-0.022376
176.385,74.5857,-0.022376
176.416,74.5920,-0.031657
176.446,74.5981,-0.031657
176.476,74.6041,-0.031657
176.508,74.6104,-0.031657
176.538,74.6165,-0.031657
176.569,74.6227,-0.031657
176.600,74.6287,-0.031657
176.630,74.6351,-0.042482
176.661,74.6411,-0.042482
176.692,74.6472,-0.042482
176.723,74.6536,-0.042482
176.755,74.6598,-0.042482
176.786,74.6661,-0.042482
176.817,74.6722,-0.042482
176.848,74.6785,-0.042482
176.878,74.6844,-0.042482
176.909,74.6908,-0.042482
176.941,74.6972,-0.054975
176.971,74.7032,-0.054975
177.002,74.7094,-0.054975
177.033,74.7154,-0.054975
177.064,74.7211,-0.054975
177.096,74.7261,-0.054975
177.127,74.7303,-0.054975
177.158,74.7338,-0.069249
177.190,74.7365,-0.069249
177.221,74.7385,-0.069249
177.252,74.7397,-0.069249
177.282,74.7402,-0.069249
177.313,74.7402,-0.069249
177.344,74.7402,-0.069249
177.375,74.7402,-0.069249
177.405,74.7402,-0.080517
177.437,74.7402,-0.080517
177.467,74.7402,-0.080517
177.499,74.7402,-0.080517
177.529,74.7402,-0.080517
177.560,74.7402,-0.080517
177.591,74.7402,-0.080517
177.622,74.7402,-0.080517
177.653,74.7402,-0.082693
177.685,74.7402,-0.082693
177.716,74.7402,-0.082693
177.748,74.7402,-0.082693
177.779,74.7402,-0.082693
177.810,74.7402,-0.082693
177.840,74.7402,-0.082693
177.871,74.7402,-0.082693
177.902,74.7402,-0.079857
177.934,74.7402,-0.079857
177.965,74.7402,-0.079857
177.997,74.7402,-0.079857
178.028,74.7402,-0.079857
178.059,74.7402,-0.079857
178.090,74.7402,-0.079857
178.121,74.7402,-0.079857
178.153,74.7402,-0.077540
178.184,74.7402,-0.077540
178.215,74.7402,-0.077540
178.245,74.7402,-0.077540
178.277,74.7402,-0.077540
178.309,74.7402,-0.077540
178.340,74.7402,-0.077540
178.372,74.7402,-0.077540
178.403,74.7402,-0.075618
178.435,74.7402,-0.075618
178.466,74.7402,-0.075618
178.496,74.7402,-0.075618
178.527,74.7402,-0.075618
178.558,74.7402,-0.075618
178.590,74.7402,-0.075618
178.621,74.7402,-0.073969
178.652,74.7402,-0.073969
178.683,74.7402,-0.073969
178.715,74.7402,-0.073969
178.745,74.7402,-0.073969
178.776,74.7402,-0.073969
178.808,74.7402,-0.073969
178.839,74.7402,-0.073969
178.869,74.7402,-0.073969
178.901,74.7402,-0.072641
178.931,74.7402,-0.072641
178.962,74.7402,-0.072641
178.993,74.7402,-0.072641
179.024,74.7402,-0.072641
179.056,74.7402,-0.072641
179.087,74.7402,-0.072641
179.119,74.7402,-0.072641
179.150,74.7402,-0.071425
179.181,74.7402,-0.071425
179.213,74.7402,-0.071425
179.244,74.7402,-0.071425
179.276,74.7402,-0.071425
179.307,74.7402,-0.071425
179.338,74.7402,-0.071425
179.369,74.7402,-0.070379
179.400,74.7402,-0.070379
179.432,74.7402,-0.070379
179.463,74.7402,-0.070379
179.494,74.7402,-0.070379
179.525,74.7402,-0.070379
179.556,74.7402,-0.070379
179.587,74.7402,-0.070379
179.618,74.7402,-0.070379
179.649,74.7402,-0.069409
179.679,74.7402,-0.069409
179.711,74.7402,-0.069409
179.743,74.7402,-0.069409
179.772,74.7402,-0.069409
179.803,74.7402,-0.069409
179.835,74.7402,-0.069409
179.866,74.7402,-0.069409
179.898,74.7402,-0.068561
179.929,74.7402,-0.068561
179.960,74.7402,-0.068561
179.991,74.7402,-0.068561
180.021,74.7402,-0.068561
180.053,74.7402,-0.068561
180.083,74.7402,-0.068561
180.115,74.7402,-0.068561
180.145,74.7402,-0.068561
180.177,74.7402,-0.068561
180.208,74.7402,-0.067798
180.238,74.7402,-0.067798
180.268,74.7402,-0.067798
180.299,74.7402,-0.067798
180.330,74.7402,-0.067798
180.361,74.7402,-0.067798
180.393,74.7402,-0.067798
180.425,74.7402,-0.067101
180.457,74.7402,-0.067101
180.487,74.7402,-0.067101
180.518,74.7402,-0.067101
180.548,74.7402,-0.067101
180.579,74.7402,-0.067101
180.611,74.7402,-0.067101
180.642,74.7402,-0.067101
180.673,74.7402,-0.066460
180.704,74.7402,-0.066460
180.735,74.7402,-0.066460
180.766,74.7402,-0.066460
180.798,74.7402,-0.066460
180.829,74.7402,-0.066460
180.860,74.7402,-0.066460
180.891,74.7402,-0.066460
180.922,74.7402,-0.065848
180.952,74.7402,-0.065848
180.984,74.7402,-0.065848
181.016,74.7402,-0.065848
181.047,74.7402,-0.065848
181.078,74.7402,-0.065848
181.109,74.7402,-0.065848
181.140,74.7402,-0.065848
181.171,74.7402,-0.065235
181.203,74.7402,-0.065235
181.235,74.7402,-0.065235
181.266,74.7402,-0.065235
181.297,74.7402,-0.065235
181.329,74.7402,-0.065235
181.360,74.7402,-0.065235
181.391,74.7402,-0.065235
181.422,74.7402,-0.064133
181.453,74.7402,-0.064133
181.484,74.7402,-0.064133
181.515,74.7402,-0.064133
181.546,74.7402,-0.064133
181.577,74.7402,-0.064133
181.608,74.7402,-0.064133
181.639,74.7402,-0.064133
181.670,74.7402,-0.061834
181.702,74.7402,-0.061834
181.733,74.7402,-0.061834
181.764,74.7402,-0.061834
181.795,74.7402,-0.061834
181.827,74.7402,-0.061834
181.857,74.7402,-0.061834
181.888,74.7402,-0.061834
181.920,74.7402,-0.059479
181.951,74.7400,-0.059479
181.982,74.7391,-0.059479
182.012,74.7375,-0.059479
182.044,74.7352,-0.059479
182.075,74.7321,-0.059479
182.107,74.7282,-0.059479
182.139,74.7234,-0.059479
182.170,74.7180,-0.058150
182.200,74.7122,-0.058150
182.231,74.7061,-0.058150
182.263,74.6997,-0.058150
182.294,74.6936,-0.058150
182.325,74.6874,-0.058150
182.356,74.6810,-0.058150
182.387,74.6750,-0.058150
182.418,74.6688,-0.050302
182.449,74.6626,-0.050302
182.480,74.6564,-0.050302
182.511,74.6502,-0.050302
182.541,74.6440,-0.050302
182.572,74.6379,-0.050302
182.604,74.6315,-0.050302
182.635,74.6253,-0.050302
182.667,74.6189,-0.033918
182.699,74.6126,-0.033918
182.729,74.6065,-0.033918
182.760,74.6002,-0.033918
182.793,74.5938,-0.033918
182.823,74.5877,-0.033918
182.853,74.5816,-0.033918
182.884,74.5754,-0.016818
182.915,74.5695,-0.016818
182.946,74.5631,-0.016818
182.977,74.5569,-0.016818
183.007,74.5510,-0.016818
183.038,74.5445,-0.016818
183.070,74.5385,-0.016818
183.100,74.5323,-0.016818
183.131,74.5262,-0.001734
183.163,74.5197,-0.001734
183.193,74.5137,-0.001734
183.225,74.5072,-0.001734
183.257,74.5009,-0.001734
183.288,74.4946,-0.001734
183.319,74.4885,-0.001734
183.351,74.4819,-0.001734
183.382,74.4760,0.011504
183.413,74.4697,0.011504
183.443,74.4637,0.011504
183.475,74.4573,0.011504
183.507,74.4509,0.011504
183.537,74.4449,0.011504
183.568,74.4387,0.011504
183.600,74.4323,0.011504
183.631,74.4262,0.011504
183.662,74.4199,0.023318
183.694,74.4136,0.023318
183.724,74.4075,0.023318
183.754,74.4015,0.023318
183.786,74.3951,0.023318
183.816,74.3891,0.023318
183.848,74.3827,0.023318
183.879,74.3766,0.023318
183.910,74.3702,0.023318
183.941,74.3642,0.033927
183.972,74.3580,0.033927
184.003,74.3519,0.033927
184.033,74.3457,0.033927
184.064,74.3394,0.033927
184.095,74.3332,0.033927
184.126,74.3271,0.033927
184.157,74.3208,0.043603
184.188,74.3146,0.043603
184.219,74.3084,0.043603
184.251,74.3021,0.043603
184.282,74.2959,0.043603
184.313,74.2898,0.043603
184.344,74.2836,0.043603
184.375,74.2773,0.043603
184.406,74.2712,0.043603
184.436,74.2651,0.052733
184.467,74.2589,0.052733
184.497,74.2528,0.052733
184.528,74.2466,0.052733
184.560,74.2404,0.052733
184.591,74.2342,0.052733
184.621,74.2280,0.052733
184.653,74.2218,0.061730
184.684,74.2156,0.061730
184.715,74.2094,0.061730
184.746,74.2032,0.061730
184.776,74.1970,0.061730
184.808,74.1908,0.061730
184.839,74.1846,0.061730
184.870,74.1784,0.061730
184.901,74.1722,0.070907
184.932,74.1660,0.070907
184.962,74.1601,0.070907
184.994,74.1537,0.070907
185.025,74.1473,0.070907
185.056,74.1412,0.070907
185.087,74.1350,0.070907
185.117,74.1289,0.070907
185.148,74.1227,0.070907
185.178,74.1165,0.070907
185.210,74.1103,0.080451
185.239,74.1044,0.080451
185.271,74.0983,0.080451
185.301,74.0922,0.080451
185.332,74.0861,0.080451
185.362,74.0799,0.080451
185.393,74.0736,0.080451
185.424,74.0675,0.090871
185.454,74.0613,0.090871
185.485,74.0554,0.090871
185.516,74.0491,0.090871
185.548,74.0427,0.090871
185.578,74.0368,0.090871
185.609,74.0305,0.090871
185.641,74.0241,0.090871
185.672,74.0178,0.102206
185.703,74.0117,0.102206
185.734,74.0053,0.102206
185.766,73.9992,0.102206
185.796,73.9933,0.102206
185.826,73.9870,0.102206
185.857,73.9811,0.102206
185.888,73.9748,0.102206
185.919,73.9686,0.114680
185.951,73.9621,0.114680
185.983,73.9558,0.114680
186.014,73.9495,0.114680
186.045,73.9434,0.114680
186.076,73.9371,0.114680
186.106,73.9312,0.114680
186.136,73.9250,0.114680
186.167,73.9190,0.128558
186.198,73.9128,0.128558
186.229,73.9066,0.128558
186.260,73.9004,0.128558
186.291,73.8942,0.128558
186.323,73.8877,0.128558
186.352,73.8819,0.128558
186.384,73.8756,0.128558
186.415,73.8695,0.143802
186.446,73.8633,0.143802
186.477,73.8571,0.143802
186.508,73.8507,0.143802
186.540,73.8444,0.143802
186.571,73.8381,0.143802
186.603,73.8318,0.143802
186.634,73.8256,0.143802
186.665,73.8195,0.160808
186.696,73.8130,0.160808
186.727,73.8070,0.160808
186.758,73.8006,0.160808
186.790,73.7944,0.160808
186.821,73.7881,0.160808
186.852,73.7820,0.160808
186.883,73.7757,0.160808
186.914,73.7695,0.179406
186.946,73.7632,0.179406
186.976,73.7571,0.179406
187.007,73.7509,0.179406
187.038,73.7446,0.179406
187.070,73.7383,0.179406
187.102,73.7319,0.179406
187.133,73.7257,0.179406
187.163,73.7195,0.199700
187.194,73.7136,0.199700
187.226,73.7071,0.199700
187.256,73.7011,0.199700
187.288,73.6946,0.199700
187.319,73.6884,0.199700
187.352,73.6821,0.199700
187.381,73.6761,0.199700
187.412,73.6699,0.221624
187.443,73.6638,0.221624
187.474,73.6575,0.221624
187.505,73.6512,0.221624
187.536,73.6451,0.221624
187.567,73.6389,0.221624
187.598,73.6328,0.221624
187.629,73.6265,0.221624
187.659,73.6207,0.244896
187.690,73.6144,0.244896
187.723,73.6078,0.244896
187.753,73.6018,0.244896
187.784,73.5956,0.244896
187.815,73.5894,0.244896
187.845,73.5834,0.244896
187.876,73.5770,0.269693
187.907,73.5708,0.269693
187.937,73.5649,0.269693
187.968,73.5587,0.269693
188.000,73.5525,0.269693
188.032,73.5459,0.269693
188.062,73.5401,0.269693
188.092,73.5339,0.269693
188.123,73.5278,0.269693
188.154,73.5216,0.295518
188.184,73.5155,0.295518
188.216,73.5092,0.295518
188.247,73.5030,0.295518
188.278,73.4968,0.295518
188.309,73.4906,0.295518
188.340,73.4844,0.295518
188.371,73.4781,0.321974
188.403,73.4719,0.321974
188.434,73.4657,0.321974
188.465,73.4595,0.321974
188.496,73.4533,0.321974
188.528,73.4468,0.321974
188.558,73.4407,0.321974
188.590,73.4343,0.321974
188.620,73.4283,0.321974
188.651,73.4220,0.348345
188.682,73.4159,0.348345
188.714,73.4096,0.348345
188.745,73.4034,0.348345
188.775,73.3972,0.348345
188.807,73.3911,0.348345
188.838,73.3847,0.348345
188.869,73.3786,0.348345
188.901,73.3721,0.373717
188.932,73.3659,0.373717
188.963,73.3597,0.373717
188.993,73.3538,0.373717
189.025,73.3475,0.373717
189.055,73.3409,0.373717
189.086,73.3351,0.373717
189.117,73.3289,0.373717
189.148,73.3227,0.373717
189.180,73.3165,0.397290
189.211,73.3103,0.397290
189.243,73.3039,0.397290
189.275,73.2972,0.397290
189.305,73.2914,0.397290
189.337,73.2850,0.397290
189.368,73.2789,0.397290
189.398,73.2728,0.397290
189.430,73.2663,0.417433
189.461,73.2601,0.417433
189.492,73.2539,0.417433
189.523,73.2477,0.417433
189.554,73.2415,0.417433
189.585,73.2355,0.417433
189.615,73.2294,0.417433
189.646,73.2231,0.431848
189.677,73.2169,0.431848
189.708,73.2107,0.431848
189.740,73.2045,0.431848
189.771,73.1981,0.431848
189.802,73.1921,0.431848
189.833,73.1857,0.431848
189.864,73.1798,0.431848
189.895,73.1733,0.431848
189.926,73.1671,0.436258
189.957,73.1611,0.436258
189.988,73.1549,0.436258
190.019,73.1484,0.436258
190.050,73.1425,0.436258
190.081,73.1361,0.436258
190.113,73.1299,0.436258
190.144,73.1236,0.436258
190.174,73.1175,0.393324
190.205,73.1113,0.393324
190.236,73.1050,0.393324
190.267,73.0988,0.393324
190.298,73.0928,0.393324
190.329,73.0864,0.393324
190.360,73.0804,0.393324
190.391,73.0742,0.393324
190.421,73.0683,0.184371
190.452,73.0620,0.184371
190.483,73.0559,0.184371
190.514,73.0496,0.184371
190.546,73.0432,0.184371
190.576,73.0370,0.184371
190.608,73.0310,0.184371
190.638,73.0248,0.184371
190.670,73.0183,0.018617
190.701,73.0121,0.018617
190.732,73.0061,0.018617
190.763,72.9998,0.018617
190.792,72.9937,0.018617
190.824,72.9875,0.018617
190.855,72.9815,0.018617
190.885,72.9753,0.018617
190.917,72.9691,0.020219
190.948,72.9629,0.020219
190.979,72.9565,0.020219
191.010,72.9505,0.020219
191.041,72.9443,0.020219
191.073,72.9377,0.020219
191.104,72.9316,0.020219
191.135,72.9253,0.020219
191.167,72.9191,0.020586
191.198,72.9128,0.020586
191.229,72.9064,0.020586
191.261,72.9004,0.020586
191.291,72.8942,0.020586
191.322,72.8880,0.020586
191.353,72.8818,0.020586
191.384,72.8756,0.020586
191.415,72.8695,0.020614
191.446,72.8633,0.020614
191.476,72.8572,0.020614
191.507,72.8510,0.020614
191.539,72.8447,0.020614
191.570,72.8383,0.020614
191.601,72.8323,0.020614
191.631,72.8261,0.020586
191.662,72.8200,0.020586
191.694,72.8137,0.020586
191.725,72.8075,0.020586
191.756,72.8010,0.020586
191.787,72.7948,0.020586
191.819,72.7886,0.020586
191.851,72.7822,0.020586
191.881,72.7762,0.020605
191.912,72.7698,0.020605
191.943,72.7638,0.020605
191.974,72.7576,0.020605
192.004,72.7517,0.020605
192.035,72.7453,0.020605
192.067,72.7390,0.020605
192.100,72.7324,0.020605
192.130,72.7265,0.020633
192.161,72.7202,0.020633
192.192,72.7139,0.020633
192.222,72.7080,0.020633
192.254,72.7015,0.020633
192.284,72.6956,0.020633
192.317,72.6890,0.020633
192.346,72.6831,0.020633
192.377,72.6770,0.020633
192.409,72.6705,0.020596
192.439,72.6646,0.020596
192.470,72.6583,0.020596
192.501,72.6522,0.020596
192.532,72.6459,0.020596
192.565,72.6394,0.020596
192.594,72.6336,0.020596
192.625,72.6274,0.020596
192.656,72.6211,0.020577
192.687,72.6149,0.020577
192.719,72.6087,0.020577
192.750,72.6025,0.020577
192.780,72.5965,0.020577
192.813,72.5898,0.020577
192.844,72.5836,0.020577
192.876,72.5773,0.020577
192.907,72.5711,0.020558
192.938,72.5647,0.020558
192.969,72.5584,0.020558
193.000,72.5523,0.020558
193.031,72.5460,0.020558
193.062,72.5401,0.020558
193.093,72.5336,0.020558
193.125,72.5274,0.020558
193.155,72.5212,0.020549
193.187,72.5150,0.020549
193.218,72.5087,0.020549
193.250,72.5025,0.020549
193.280,72.4963,0.020549
193.312,72.4900,0.020549
193.343,72.4836,0.020549
193.375,72.4774,0.020596
193.407,72.4707,0.020596
193.436,72.4652,0.020596
193.467,72.4591,0.020596
193.498,72.4529,0.020596
193.529,72.4468,0.020596
193.560,72.4404,0.020596
193.590,72.4344,0.020596
193.623,72.4278,0.020586
193.653,72.4217,0.020586
193.685,72.4154,0.020586
193.715,72.4093,0.020586
193.746,72.4031,0.020586
193.777,72.3969,0.020586
193.808,72.3907,0.020586
193.840,72.3843,0.020586
193.871,72.3781,0.020586
193.903,72.3718,0.020596
193.934,72.3656,0.020596
193.965,72.3595,0.020596
193.995,72.3533,0.020596
194.026,72.3473,0.020596
194.056,72.3411,0.020596
194.087,72.3348,0.020596
194.119,72.3286,0.020596
194.150,72.3224,0.020596
194.181,72.3163,0.020596
194.210,72.3103,0.020596
194.242,72.3039,0.020596
194.275,72.2972,0.020596
194.305,72.2914,0.020596
194.337,72.2848,0.020596
194.368,72.2788,0.020596
194.401,72.2722,0.020558
194.432,72.2660,0.020558
194.463,72.2597,0.020558
194.494,72.2536,0.020558
194.526,72.2470,0.020558
194.558,72.2408,0.020558
194.588,72.2347,0.020558
194.619,72.2286,0.020558
194.651,72.2222,0.020586
194.681,72.2162,0.020586
194.713,72.2099,0.020586
194.744,72.2037,0.020586
194.775,72.1975,0.020586
194.806,72.1912,0.020586
194.836,72.1852,0.020586
194.867,72.1790,0.020586
194.898,72.1730,0.020614
194.929,72.1666,0.020614
194.960,72.1603,0.020614
194.991,72.1544,0.020614
195.022,72.1479,0.020614
195.053,72.1418,0.020614
195.084,72.1355,0.020614
195.114,72.1296,0.020614
195.146,72.1231,0.020614
195.178,72.1169,0.020586
195.210,72.1105,0.020586
195.241,72.1042,0.020586
195.273,72.0978,0.020586
195.304,72.0916,0.020586
195.335,72.0854,0.020586
195.366,72.0792,0.020586
195.398,72.0727,0.020586
195.429,72.0667,0.020605
195.460,72.0605,0.020605
195.491,72.0541,0.020605
195.522,72.0481,0.020605
195.553,72.0417,0.020605
195.585,72.0354,0.020605
195.616,72.0293,0.020605
195.647,72.0230,0.020633
195.679,72.0166,0.020633
195.709,72.0107,0.020633
195.742,72.0040,0.020633
195.771,71.9982,0.020633
195.803,71.9918,0.020633
195.834,71.9857,0.020633
195.865,71.9795,0.020633
195.895,71.9733,0.020633
195.927,71.9672,0.020643
195.957,71.9610,0.020643
195.988,71.9548,0.020643
196.019,71.9486,0.020643
196.050,71.9424,0.020643
196.082,71.9360,0.020643
196.113,71.9296,0.020643
196.144,71.9237,0.020662
196.175,71.9172,0.020662
196.206,71.9111,0.020662
196.237,71.9048,0.020662
196.269,71.8986,0.020662
196.300,71.8923,0.020662
196.331,71.8863,0.020662
196.361,71.8801,0.020662
196.393,71.8739,0.020652
196.423,71.8676,0.020652
196.455,71.8614,0.020652
196.487,71.8550,0.020652
196.518,71.8489,0.020652
196.548,71.8426,0.020652
196.578,71.8369,0.020652
196.609,71.8307,0.020652
196.640,71.8245,0.020709
196.672,71.8180,0.020709
196.703,71.8119,0.020709
196.733,71.8057,0.020709
196.764,71.7995,0.020709
196.795,71.7933,0.020709
196.826,71.7874,0.020709
196.857,71.7810,0.020709
196.889,71.7747,0.020737
196.920,71.7684,0.020737
196.951,71.7623,0.020737
196.981,71.7562,0.020737
197.013,71.7499,0.020737
197.043,71.7437,0.020737
197.075,71.7375,0.020737
197.107,71.7309,0.020737
197.138,71.7249,0.020699
197.169,71.7188,0.020699
197.199,71.7127,0.020699
197.231,71.7073,0.020699
197.262,71.7027,0.020699
197.294,71.6987,0.020699
197.325,71.6955,0.020699
197.356,71.6931,0.020699
197.387,71.6915,0.020662
197.418,71.6905,0.020662
197.449,71.6903,0.020662
197.480,71.6903,0.020662
197.511,71.6903,0.020662
197.542,71.6903,0.020662
197.572,71.6904,0.020662
197.604,71.6911,0.020662
197.636,71.6927,0.020530
197.667,71.6950,0.020530
197.698,71.6978,0.020530
197.728,71.7015,0.020530
197.759,71.7059,0.020530
197.790,71.7110,0.020530
197.823,71.7173,0.020530
197.851,71.7230,0.020530
197.882,71.7293,0.020530
197.914,71.7354,0.020530
197.947,71.7421,0.020304
197.976,71.7479,0.020304
198.009,71.7545,0.020304
198.038,71.7605,0.020304
198.069,71.7667,0.020304
198.100,71.7727,0.020304
198.131,71.7791,0.020304
198.162,71.7851,0.020304
198.193,71.7913,0.020162
198.224,71.7975,0.020162
198.255,71.8037,0.020162
198.286,71.8099,0.020162
198.316,71.8160,0.020162
198.348,71.8225,0.020162
198.378,71.8284,0.020162
198.410,71.8347,0.020153
198.442,71.8413,0.020153
198.473,71.8474,0.020153
198.504,71.8536,0.020153
198.535,71.8598,0.020153
198.566,71.8660,0.020153
198.597,71.8723,0.020153
198.629,71.8785,0.020153
198.659,71.8847,0.020153
198.691,71.8909,0.020125
198.721,71.8971,0.020125
198.752,71.9031,0.020125
198.783,71.9094,0.020125
198.814,71.9156,0.020125
198.846,71.9219,0.020125
198.876,71.9280,0.020125
198.907,71.9342,0.020125
198.937,71.9400,0.020106
198.968,71.9462,0.020106
198.999,71.9524,0.020106
199.030,71.9586,0.020106
199.061,71.9651,0.020106
199.093,71.9713,0.020106
199.124,71.9776,0.020106
199.155,71.9838,0.020106
199.186,71.9900,0.020087
199.217,71.9961,0.020087
199.248,72.0024,0.020087
199.278,72.0083,0.020087
199.309,72.0147,0.020087
199.341,72.0209,0.020087
199.371,72.0271,0.020087
199.403,72.0333,0.020021
199.434,72.0394,0.020021
199.465,72.0457,0.020021
199.496,72.0519,0.020021
199.528,72.0584,0.020021
199.559,72.0644,0.020021
199.591,72.0708,0.020021
199.622,72.0771,0.020021
199.653,72.0834,0.019936
199.684,72.0897,0.019936
199.715,72.0957,0.019936
199.746,72.1020,0.019936
199.777,72.1080,0.019936
199.808,72.1144,0.019936
199.839,72.1205,0.019936
199.869,72.1267,0.019936
199.901,72.1329,0.019936
199.933,72.1392,0.019880
199.962,72.1452,0.019880
199.994,72.1518,0.019880
200.026,72.1578,0.019880
200.056,72.1639,0.019880
200.088,72.1704,0.019880
200.119,72.1764,0.019880
200.150,72.1829,0.019851
200.181,72.1890,0.019851
200.211,72.1950,0.019851
200.243,72.2012,0.019851
200.274,72.2074,0.019851
200.305,72.2138,0.019851
200.337,72.2201,0.019851
200.368,72.2264,0.019851
200.399,72.2325,0.019851
200.430,72.2388,0.019842
200.461,72.2449,0.019842
200.492,72.2511,0.019842
200.523,72.2574,0.019842
200.554,72.2636,0.019842
200.585,72.2697,0.019842
200.616,72.2759,0.019842
200.646,72.2820,0.019795
200.677,72.2881,0.019795
200.708,72.2944,0.019795
200.740,72.3007,0.019795
200.769,72.3067,0.019795
200.800,72.3127,0.019795
200.831,72.3191,0.019795
200.862,72.3251,0.019795
200.893,72.3315,0.019795
200.925,72.3377,0.019748
200.956,72.3441,0.019748
200.988,72.3502,0.019748
201.019,72.3566,0.019748
201.051,72.3628,0.019748
201.083,72.3693,0.019748
201.114,72.3755,0.019748
201.146,72.3821,0.019748
201.176,72.3880,0.019748
201.207,72.3943,0.019748
201.241,72.4009,0.019748
201.271,72.4070,0.019748
201.302,72.4131,0.019748
201.333,72.4195,0.019748
201.364,72.4256,0.019748
201.396,72.4319,0.019748
201.426,72.4377,0.019748
201.456,72.4440,0.019748
201.487,72.4503,0.019748
201.517,72.4561,0.019748
201.548,72.4624,0.019748
201.578,72.4684,0.019748
201.609,72.4747,0.019748
201.641,72.4809,0.019748
201.673,72.4872,0.019644
201.703,72.4933,0.019644
201.734,72.4998,0.019644
201.766,72.5058,0.019644
201.798,72.5123,0.019644
201.828,72.5182,0.019644
201.859,72.5244,0.019644
201.889,72.5304,0.019550
201.920,72.5367,0.019550
201.951,72.5430,0.019550
201.981,72.5490,0.019550
202.012,72.5551,0.019550
202.043,72.5614,0.019550
202.074,72.5675,0.019550
202.105,72.5738,0.019550
202.136,72.5799,0.019540
202.167,72.5862,0.019540
202.198,72.5925,0.019540
202.229,72.5985,0.019540
202.260,72.6048,0.019540
202.291,72.6108,0.019540
202.321,72.6170,0.019540
202.352,72.6232,0.019540
202.383,72.6292,0.019512
202.414,72.6354,0.019512
202.445,72.6418,0.019512
202.476,72.6480,0.019512
202.508,72.6542,0.019512
202.539,72.6606,0.019512
202.570,72.6667,0.019512
202.601,72.6728,0.019512
202.632,72.6792,0.019446
202.663,72.6854,0.019446
202.694,72.6915,0.019446
202.725,72.6977,0.019446
202.756,72.7039,0.019446
202.787,72.7102,0.019446
202.818,72.7164,0.019446
202.848,72.7224,0.019446
202.879,72.7286,0.019446
202.911,72.7348,0.019399
202.942,72.7412,0.019399
202.973,72.7473,0.019399
203.005,72.7536,0.019399
203.036,72.7598,0.019399
203.067,72.7662,0.019399
203.098,72.7724,0.019399
203.129,72.7786,0.019399
203.161,72.7849,0.019324
203.192,72.7911,0.019324
203.223,72.7972,0.019324
203.254,72.8035,0.019324
203.284,72.8096,0.019324
203.316,72.8159,0.019324
203.348,72.8223,0.019324
203.378,72.8283,0.019324
203.409,72.8345,0.019248
203.441,72.8409,0.019248
203.472,72.8470,0.019248
203.503,72.8534,0.019248
203.534,72.8596,0.019248
203.565,72.8658,0.019248
203.597,72.8720,0.019248
203.628,72.8784,0.019248
203.658,72.8844,0.019248
203.689,72.8906,0.019248
203.719,72.8965,0.019248
203.750,72.9027,0.019248
203.781,72.9089,0.019248
203.811,72.9149,0.019248
203.842,72.9212,0.019248
203.873,72.9274,0.019248
203.904,72.9333,0.019220
203.935,72.9397,0.019220
203.965,72.9457,0.019220
203.996,72.9520,0.019220
204.028,72.9582,0.019220
204.059,72.9645,0.019220
204.090,72.9707,0.019220
204.122,72.9770,0.019220
204.153,72.9833,0.019201
204.184,72.9897,0.019201
204.216,72.9959,0.019201
204.248,73.0023,0.019201
204.279,73.0084,0.019201
204.310,73.0148,0.019201
204.340,73.0208,0.019201
204.371,73.0267,0.019201
204.401,73.0332,0.019088
204.432,73.0390,0.019088
204.463,73.0453,0.019088
204.494,73.0515,0.019088
204.525,73.0577,0.019088
204.556,73.0639,0.019088
204.587,73.0701,0.019088
204.618,73.0762,0.019088
204.648,73.0823,0.019041
204.679,73.0886,0.019041
204.711,73.0949,0.019041
204.741,73.1009,0.019041
204.772,73.1070,0.019041
204.803,73.1133,0.019041
204.834,73.1195,0.019041
204.866,73.1260,0.019041
204.897,73.1320,0.019013
204.928,73.1384,0.019013
204.959,73.1446,0.019013
204.989,73.1505,0.019013
205.020,73.1566,0.019013
205.051,73.1629,0.019013
205.082,73.1692,0.019013
205.113,73.1752,0.019013
205.144,73.1815,0.019013
205.176,73.1877,0.018900
205.207,73.1940,0.018900
205.237,73.2001,0.018900
205.268,73.2064,0.018900
205.299,73.2125,0.018900
205.330,73.2187,0.018900
205.361,73.2249,0.018900
205.392,73.2310,0.018900
205.423,73.2375,0.018834
205.455,73.2435,0.018834
205.486,73.2497,0.018834
205.517,73.2561,0.018834
205.547,73.2620,0.018834
205.577,73.2681,0.018834
205.609,73.2744,0.018834
205.640,73.2807,0.018834
205.672,73.2869,0.018758
205.702,73.2931,0.018758
205.733,73.2993,0.018758
205.765,73.3057,0.018758
205.795,73.3116,0.018758
205.826,73.3179,0.018758
205.857,73.3240,0.018758
205.888,73.3302,0.018758
205.919,73.3365,0.018645
205.950,73.3426,0.018645
205.981,73.3491,0.018645
206.012,73.3550,0.018645
206.043,73.3611,0.018645
206.074,73.3674,0.018645
206.105,73.3736,0.018645
206.136,73.3798,0.018645
206.168,73.3862,0.018561
206.199,73.3925,0.018561
206.230,73.3986,0.018561
206.260,73.4046,0.018561
206.291,73.4108,0.018561
206.322,73.4170,0.018561
206.353,73.4232,0.018561
206.384,73.4296,0.018561
206.415,73.4358,0.018504
206.446,73.4420,0.018504
206.477,73.4480,0.018504
206.509,73.4545,0.018504
206.541,73.4608,0.018504
206.571,73.4669,0.018504
206.603,73.4731,0.018504
206.633,73.4794,0.018504
206.665,73.4857,0.018363
206.695,73.4917,0.018363
206.727,73.4980,0.018363
206.758,73.5044,0.018363
206.789,73.5104,0.018363
206.820,73.5166,0.018363
206.851,73.5230,0.018363
206.883,73.5292,0.018363
206.913,73.5354,0.018174
206.945,73.5416,0.018174
206.976,73.5478,0.018174
207.007,73.5541,0.018174
207.038,73.5603,0.018174
207.069,73.5666,0.018174
207.099,73.5726,0.018174
207.131,73.5790,0.018174
207.162,73.5851,0.017976
207.193,73.5913,0.017976
207.224,73.5975,0.017976
207.255,73.6036,0.017976
207.285,73.6099,0.017976
207.317,73.6160,0.017976
207.348,73.6223,0.017976
207.380,73.6286,0.017976
207.410,73.6348,0.017797
207.442,73.6410,0.017797
207.473,73.6472,0.017797
207.504,73.6536,0.017797
207.536,73.6599,0.017797
207.567,73.6661,0.017797
207.598,73.6724,0.017797
207.630,73.6787,0.017797
207.661,73.6848,0.017581
207.692,73.6909,0.017581
207.723,73.6973,0.017581
207.754,73.7035,0.017581
207.785,73.7096,0.017581
207.816,73.7157,0.017581
207.846,73.7220,0.017581
207.877,73.7281,0.017581
207.908,73.7343,0.017581
207.939,73.7405,0.017270
207.970,73.7467,0.017270
208.001,73.7529,0.017270
208.033,73.7592,0.017270
208.065,73.7658,0.017270
208.095,73.7716,0.017270
208.126,73.7778,0.017270
208.156,73.7839,0.017270
208.189,73.7905,0.016940
208.218,73.7964,0.016940
208.249,73.8024,0.016940
208.281,73.8088,0.016940
208.311,73.8148,0.016940
208.342,73.8210,0.016940
208.372,73.8273,0.016940
208.404,73.8335,0.016940
208.435,73.8397,0.016450
208.466,73.8458,0.016450
208.496,73.8520,0.016450
208.528,73.8584,0.016450
208.559,73.8646,0.016450
208.591,73.8708,0.016450
208.622,73.8770,0.016450
208.652,73.8831,0.015847
208.683,73.8893,0.015847
208.714,73.8955,0.015847
208.746,73.9020,0.015847
208.777,73.9082,0.015847
208.806,73.9139,0.015847
208.839,73.9206,0.015847
208.870,73.9268,0.015847
208.901,73.9329,0.015197
208.931,73.9388,0.015197
208.962,73.9450,0.015197
208.995,73.9517,0.015197
209.025,73.9577,0.015197
209.055,73.9637,0.015197
209.086,73.9698,0.015197
209.117,73.9760,0.015197
209.148,73.9822,0.015197
209.179,73.9884,0.014396
209.209,73.9945,0.014396
209.241,74.0009,0.014396
209.273,74.0073,0.014396
209.305,74.0136,0.014396
209.336,74.0199,0.014396
209.368,74.0262,0.014396
209.399,74.0326,0.013332
209.431,74.0388,0.013332
209.462,74.0451,0.013332
209.493,74.0512,0.013332
209.523,74.0574,0.013332
209.556,74.0638,0.013332
209.586,74.0699,0.013332
209.617,74.0761,0.013332
209.648,74.0823,0.011937
209.679,74.0886,0.011937
209.710,74.0946,0.011937
209.742,74.1010,0.011937
209.773,74.1074,0.011937
209.804,74.1134,0.011937
209.835,74.1198,0.011937
209.867,74.1261,0.011937
209.897,74.1320,0.010185
209.929,74.1384,0.010185
209.959,74.1446,0.010185
209.991,74.1509,0.010185
210.023,74.1573,0.010185
210.054,74.1635,0.010185
210.086,74.1699,0.010185
210.117,74.1761,0.010185
210.147,74.1823,0.007942
210.177,74.1881,0.007942
210.208,74.1943,0.007942
210.239,74.2005,0.007942
210.271,74.2068,0.007942
210.302,74.2133,0.007942
210.333,74.2192,0.007942
210.364,74.2255,0.007942
210.395,74.2317,0.007942
210.426,74.2379,0.005182
210.457,74.2442,0.005182
210.489,74.2505,0.005182
210.519,74.2564,0.005182
210.550,74.2628,0.005182
210.582,74.2690,0.005182
210.613,74.2754,0.005182
210.644,74.2814,0.001800
210.675,74.2879,0.001800
210.706,74.2939,0.001800
210.737,74.3002,0.001800
210.768,74.3063,0.001800
210.799,74.3125,0.001800
210.829,74.3186,0.001800
210.861,74.3248,0.001800
210.892,74.3311,-0.002412
210.923,74.3372,-0.002412
210.954,74.3434,-0.002412
210.985,74.3497,-0.002412
211.015,74.3556,-0.002412
211.046,74.3618,-0.002412
211.077,74.3680,-0.002412
211.108,74.3743,-0.002412
211.140,74.3806,-0.007537
211.171,74.3869,-0.007537
211.203,74.3932,-0.007537
211.234,74.3994,-0.007537
211.266,74.4058,-0.007537
211.297,74.4121,-0.007537
211.328,74.4183,-0.007537
211.359,74.4246,-0.007537
211.391,74.4308,-0.013718
211.422,74.4371,-0.013718
211.453,74.4432,-0.013718
211.484,74.4495,-0.013718
211.515,74.4556,-0.013718
211.547,74.4621,-0.013718
211.578,74.4683,-0.013718
211.609,74.4745,-0.013718
211.640,74.4805,-0.021227
211.671,74.4869,-0.021227
211.702,74.4929,-0.021227
211.733,74.4991,-0.021227
211.763,74.5052,-0.021227
211.795,74.5115,-0.021227
211.826,74.5177,-0.021227
211.857,74.5241,-0.021227
211.888,74.5301,-0.030309
211.918,74.5362,-0.030309
211.950,74.5426,-0.030309
211.981,74.5490,-0.030309
212.013,74.5552,-0.030309
212.044,74.5614,-0.030309
212.075,74.5676,-0.030309
212.106,74.5738,-0.030309
212.136,74.5800,-0.040993
212.166,74.5858,-0.040993
212.198,74.5923,-0.040993
212.229,74.5984,-0.040993
212.260,74.6047,-0.040993
212.291,74.6109,-0.040993
212.322,74.6172,-0.040993
212.353,74.6232,-0.040993
212.384,74.6296,-0.040993
212.415,74.6356,-0.053364
212.446,74.6420,-0.053364
212.478,74.6481,-0.053364
212.508,74.6543,-0.053364
212.539,74.6604,-0.053364
212.570,74.6665,-0.053364
212.602,74.6722,-0.053364
212.632,74.6769,-0.067581
212.663,74.6808,-0.067581
212.694,74.6842,-0.067581
212.725,74.6868,-0.067581
212.756,74.6888,-0.067581
212.787,74.6899,-0.067581
212.817,74.6903,-0.067581
212.848,74.6903,-0.067581
212.880,74.6903,-0.067581
212.911,74.6903,-0.079782
212.942,74.6903,-0.079782
212.973,74.6903,-0.079782
213.005,74.6903,-0.079782
213.037,74.6903,-0.079782
213.068,74.6903,-0.079782
213.099,74.6903,-0.079782
213.131,74.6903,-0.079782
213.160,74.6903,-0.083174
213.192,74.6903,-0.083174
213.223,74.6903,-0.083174
213.254,74.6903,-0.083174
