Elapsed Time (s),Position (mm),Force (N)
-0.016,68.7402,-0.318365
0.015,68.7402,-0.313212
0.046,68.7402,-0.313212
0.077,68.7402,-0.313212
0.108,68.7402,-0.313212
0.140,68.7402,-0.313212
0.172,68.7402,-0.313212
0.202,68.7402,-0.313212
0.233,68.7402,-0.313212
0.264,68.7402,-0.313212
0.295,68.7402,-0.313212
0.327,68.7402,-0.309170
0.358,68.7402,-0.309170
0.389,68.7402,-0.309170
0.419,68.7402,-0.309170
0.451,68.7402,-0.309170
0.482,68.7402,-0.309170
0.515,68.7402,-0.309170
0.545,68.7402,-0.309170
0.576,68.7402,-0.305863
0.606,68.7402,-0.305863
0.637,68.7402,-0.305863
0.668,68.7402,-0.305863
0.701,68.7402,-0.305863
0.732,68.7402,-0.305863
0.763,68.7402,-0.305863
0.794,68.7402,-0.303036
0.824,68.7402,-0.303036
0.855,68.7402,-0.303036
0.885,68.7402,-0.303036
0.917,68.7402,-0.303036
0.948,68.7402,-0.303036
0.979,68.7402,-0.303036
1.010,68.7402,-0.303036
1.042,68.7402,-0.300558
1.073,68.7402,-0.300558
1.104,68.7402,-0.300558
1.135,68.7402,-0.300558
1.166,68.7402,-0.300558
1.197,68.7402,-0.300558
1.228,68.7402,-0.300558
1.260,68.7402,-0.300558
1.289,68.7402,-0.298316
1.320,68.7402,-0.298316
1.351,68.7402,-0.298316
1.383,68.7402,-0.298316
1.414,68.7402,-0.298316
1.445,68.7402,-0.298316
1.477,68.7402,-0.298316
1.508,68.7402,-0.298316
1.539,68.7402,-0.298316
1.569,68.7402,-0.296309
1.600,68.7402,-0.296309
1.631,68.7402,-0.296309
1.662,68.7402,-0.296309
1.693,68.7402,-0.296309
1.724,68.7402,-0.296309
1.755,68.7402,-0.296309
1.785,68.7402,-0.296309
1.817,68.7402,-0.294491
1.847,68.7402,-0.294491
1.879,68.7402,-0.294491
1.910,68.7402,-0.294491
1.940,68.7402,-0.294491
1.971,68.7402,-0.294491
2.002,68.7402,-0.294491
2.033,68.7402,-0.294491
2.064,68.7402,-0.292795
2.097,68.7402,-0.292795
2.126,68.7402,-0.292795
2.157,68.7402,-0.292795
2.188,68.7402,-0.292795
2.220,68.7402,-0.292795
2.251,68.7402,-0.292795
2.284,68.7402,-0.291250
2.315,68.7402,-0.291250
2.346,68.7402,-0.291250
2.378,68.7402,-0.291250
2.408,68.7402,-0.291250
2.438,68.7402,-0.291250
2.470,68.7402,-0.291250
2.500,68.7402,-0.291250
2.531,68.7402,-0.289808
2.562,68.7402,-0.289808
2.593,68.7402,-0.289808
2.625,68.7402,-0.289808
2.656,68.7402,-0.289808
2.688,68.7402,-0.289808
2.719,68.7402,-0.289808
2.750,68.7402,-0.289808
2.781,68.7402,-0.289808
2.811,68.7402,-0.288508
2.843,68.7402,-0.288508
2.875,68.7402,-0.288508
2.908,68.7402,-0.288508
2.937,68.7402,-0.288508
2.966,68.7402,-0.288508
2.997,68.7402,-0.288508
3.029,68.7402,-0.288508
3.060,68.7402,-0.287283
3.090,68.7402,-0.287283
3.121,68.7402,-0.287283
3.152,68.7402,-0.287283
3.183,68.7402,-0.287283
3.214,68.7402,-0.287283
3.245,68.7402,-0.287283
3.276,68.7402,-0.285974
3.307,68.7402,-0.285974
3.338,68.7402,-0.285974
3.369,68.7402,-0.285974
3.399,68.7402,-0.285974
3.432,68.7402,-0.285974
3.463,68.7402,-0.285974
3.493,68.7402,-0.285974
3.523,68.7402,-0.284099
3.555,68.7402,-0.284099
3.586,68.7402,-0.284099
3.617,68.7402,-0.284099
3.648,68.7402,-0.284099
3.681,68.7402,-0.284099
3.712,68.7402,-0.284099
3.743,68.7402,-0.284099
3.775,68.7402,-0.278013
3.807,68.7402,-0.278013
3.837,68.7402,-0.278013
3.869,68.7402,-0.278013
3.900,68.7402,-0.278013
3.931,68.7402,-0.278013
3.962,68.7402,-0.278013
3.992,68.7402,-0.278013
4.023,68.7402,-0.269938
4.055,68.7402,-0.269938
4.085,68.7402,-0.269938
4.116,68.7399,-0.269938
4.147,68.7389,-0.269938
4.177,68.7371,-0.269938
4.208,68.7347,-0.269938
4.239,68.7314,-0.269938
4.270,68.7273,-0.266019
4.301,68.7228,-0.266019
4.331,68.7175,-0.266019
4.363,68.7113,-0.266019
4.394,68.7050,-0.266019
4.426,68.6988,-0.266019
4.456,68.6926,-0.266019
4.486,68.6865,-0.266019
4.518,68.6803,-0.266019
4.549,68.6740,-0.250162
4.579,68.6679,-0.250162
4.610,68.6617,-0.250162
4.642,68.6554,-0.250162
4.673,68.6492,-0.250162
4.703,68.6431,-0.250162
4.735,68.6369,-0.250162
4.765,68.6306,-0.250162
4.796,68.6246,-0.213559
4.829,68.6180,-0.213559
4.859,68.6122,-0.213559
4.889,68.6060,-0.213559
4.920,68.5998,-0.213559
4.952,68.5935,-0.213559
4.984,68.5869,-0.213559
5.015,68.5809,-0.213559
5.046,68.5747,-0.172990
5.077,68.5683,-0.172990
5.109,68.5620,-0.172990
5.139,68.5559,-0.172990
5.170,68.5499,-0.172990
5.202,68.5434,-0.172990
5.233,68.5372,-0.172990
5.264,68.5310,-0.172990
5.295,68.5247,-0.136962
5.327,68.5186,-0.136962
5.358,68.5123,-0.136962
5.390,68.5060,-0.136962
5.421,68.4998,-0.136962
5.451,68.4936,-0.136962
5.483,68.4872,-0.136962
5.512,68.4814,-0.104994
5.544,68.4752,-0.104994
5.575,68.4689,-0.104994
5.607,68.4625,-0.104994
5.637,68.4565,-0.104994
5.668,68.4503,-0.104994
5.699,68.4441,-0.104994
5.731,68.4376,-0.104994
5.761,68.4317,-0.104994
5.792,68.4253,-0.076353
5.825,68.4189,-0.076353
5.855,68.4128,-0.076353
5.886,68.4066,-0.076353
5.918,68.4000,-0.076353
5.950,68.3940,-0.076353
5.981,68.3875,-0.076353
6.013,68.3813,-0.076353
6.044,68.3749,-0.076353
6.076,68.3687,-0.050839
6.107,68.3625,-0.050839
6.136,68.3566,-0.050839
6.169,68.3499,-0.050839
6.201,68.3436,-0.050839
6.232,68.3374,-0.050839
6.263,68.3313,-0.050839
6.295,68.3249,-0.028208
6.326,68.3187,-0.028208
6.358,68.3122,-0.028208
6.388,68.3063,-0.028208
6.418,68.3002,-0.028208
6.449,68.2941,-0.028208
6.480,68.2879,-0.028208
6.510,68.2818,-0.028208
6.541,68.2756,-0.028208
6.572,68.2694,-0.008046
6.603,68.2632,-0.008046
6.634,68.2570,-0.008046
6.665,68.2507,-0.008046
6.696,68.2446,-0.008046
6.728,68.2384,-0.008046
6.759,68.2321,-0.008046
6.790,68.2259,0.009921
6.821,68.2193,0.009921
6.852,68.2134,0.009921
6.884,68.2071,0.009921
6.914,68.2011,0.009921
6.945,68.1949,0.009921
6.976,68.1886,0.009921
7.007,68.1825,0.009921
7.039,68.1759,0.009921
7.070,68.1699,0.026211
7.101,68.1637,0.026211
7.133,68.1573,0.026211
7.164,68.1511,0.026211
7.195,68.1449,0.026211
7.225,68.1387,0.026211
7.257,68.1324,0.026211
7.288,68.1264,0.026211
7.319,68.1200,0.041040
7.351,68.1137,0.041040
7.383,68.1073,0.041040
7.413,68.1013,0.041040
7.445,68.0948,0.041040
7.476,68.0887,0.041040
7.507,68.0825,0.041040
7.538,68.0762,0.054862
7.569,68.0701,0.054862
7.600,68.0637,0.054862
7.631,68.0577,0.054862
7.661,68.0517,0.054862
7.692,68.0456,0.054862
7.723,68.0391,0.054862
7.754,68.0329,0.054862
7.786,68.0266,0.067967
7.818,68.0203,0.067967
7.849,68.0141,0.067967
7.881,68.0078,0.067967
7.911,68.0017,0.067967
7.942,67.9956,0.067967
7.973,67.9893,0.067967
8.005,67.9828,0.067967
8.036,67.9767,0.080866
8.067,67.9703,0.080866
8.099,67.9641,0.080866
8.131,67.9575,0.080866
8.162,67.9516,0.080866
8.193,67.9454,0.080866
8.225,67.9390,0.080866
8.256,67.9326,0.080866
8.287,67.9264,0.080866
8.320,67.9199,0.094046
8.349,67.9140,0.094046
8.380,67.9079,0.094046
8.410,67.9018,0.094046
8.443,67.8953,0.094046
8.472,67.8894,0.094046
8.504,67.8830,0.094046
8.535,67.8769,0.107548
8.566,67.8705,0.107548
8.597,67.8644,0.107548
8.629,67.8581,0.107548
8.660,67.8519,0.107548
8.691,67.8455,0.107548
8.722,67.8393,0.107548
8.753,67.8334,0.107548
8.784,67.8272,0.122142
8.815,67.8207,0.122142
8.846,67.8148,0.122142
8.878,67.8083,0.122142
8.909,67.8021,0.122142
8.939,67.7959,0.122142
8.971,67.7898,0.122142
9.002,67.7834,0.122142
9.033,67.7773,0.137979
9.063,67.7712,0.137979
9.095,67.7649,0.137979
9.126,67.7586,0.137979
9.158,67.7524,0.137979
9.188,67.7463,0.137979
9.220,67.7400,0.137979
9.252,67.7334,0.137979
9.283,67.7273,0.155598
9.314,67.7211,0.155598
9.346,67.7148,0.155598
9.377,67.7086,0.155598
9.407,67.7024,0.155598
9.438,67.6962,0.155598
9.469,67.6900,0.155598
9.500,67.6839,0.155598
9.532,67.6776,0.175091
9.562,67.6715,0.175091
9.593,67.6653,0.175091
9.624,67.6590,0.175091
9.655,67.6530,0.175091
9.686,67.6468,0.175091
9.717,67.6405,0.175091
9.748,67.6343,0.175091
9.779,67.6281,0.196431
9.810,67.6218,0.196431
9.842,67.6156,0.196431
9.874,67.6089,0.196431
9.904,67.6032,0.196431
9.935,67.5970,0.196431
9.966,67.5907,0.196431
9.997,67.5845,0.196431
10.028,67.5781,0.219853
10.058,67.5722,0.219853
10.090,67.5659,0.219853
10.122,67.5594,0.219853
10.153,67.5532,0.219853
10.184,67.5470,0.219853
10.216,67.5407,0.219853
10.246,67.5346,0.219853
10.277,67.5283,0.245216
10.309,67.5222,0.245216
10.340,67.5159,0.245216
10.371,67.5098,0.245216
10.402,67.5034,0.245216
10.435,67.4970,0.245216
10.464,67.4911,0.245216
10.495,67.4850,0.245216
10.526,67.4785,0.272435
10.557,67.4723,0.272435
10.588,67.4664,0.272435
10.619,67.4602,0.272435
10.651,67.4539,0.272435
10.681,67.4477,0.272435
10.712,67.4415,0.272435
10.742,67.4355,0.272435
10.774,67.4292,0.272435
10.805,67.4229,0.301011
10.836,67.4168,0.301011
10.868,67.4105,0.301011
10.899,67.4040,0.301011
10.931,67.3978,0.301011
10.962,67.3915,0.301011
10.994,67.3852,0.301011
11.026,67.3787,0.330613
11.057,67.3725,0.330613
11.087,67.3664,0.330613
11.119,67.3602,0.330613
11.150,67.3539,0.330613
11.180,67.3478,0.330613
11.211,67.3417,0.330613
11.242,67.3355,0.330613
11.273,67.3292,0.330613
11.304,67.3230,0.360527
11.336,67.3167,0.360527
11.368,67.3102,0.360527
11.399,67.3042,0.360527
11.430,67.2978,0.360527
11.461,67.2918,0.360527
11.492,67.2854,0.360527
11.524,67.2792,0.360527
11.554,67.2730,0.389866
11.585,67.2667,0.389866
11.617,67.2605,0.389866
11.648,67.2543,0.389866
11.679,67.2481,0.389866
11.710,67.2419,0.389866
11.740,67.2358,0.389866
11.771,67.2298,0.389866
11.802,67.2236,0.416397
11.833,67.2172,0.416397
11.864,67.2109,0.416397
11.895,67.2048,0.416397
11.926,67.1988,0.416397
11.957,67.1924,0.416397
11.988,67.1862,0.416397
12.019,67.1801,0.435353
12.050,67.1737,0.435353
12.081,67.1676,0.435353
12.112,67.1614,0.435353
12.143,67.1552,0.435353
12.174,67.1490,0.435353
12.204,67.1431,0.435353
12.236,67.1366,0.435353
12.267,67.1305,0.449118
12.298,67.1242,0.449118
12.330,67.1180,0.449118
12.361,67.1114,0.449118
12.393,67.1054,0.449118
12.424,67.0992,0.449118
12.455,67.0930,0.449118
12.486,67.0866,0.449118
12.517,67.0803,0.462280
12.548,67.0742,0.462280
12.579,67.0682,0.462280
12.609,67.0621,0.462280
12.640,67.0559,0.462280
12.671,67.0497,0.462280
12.702,67.0433,0.462280
12.733,67.0373,0.462280
12.764,67.0311,0.473869
12.797,67.0246,0.473869
12.827,67.0184,0.473869
12.858,67.0122,0.473869
12.889,67.0061,0.473869
12.919,67.0001,0.473869
12.950,66.9939,0.473869
12.981,66.9875,0.473869
13.012,66.9816,0.473869
13.043,66.9754,0.482480
13.074,66.9691,0.482480
13.105,66.9630,0.482480
13.135,66.9568,0.482480
13.166,66.9507,0.482480
13.197,66.9444,0.482480
13.228,66.9382,0.482480
13.259,66.9320,0.482480
13.291,66.9258,0.486908
13.321,66.9196,0.486908
13.352,66.9135,0.486908
13.384,66.9069,0.486908
13.414,66.9011,0.486908
13.445,66.8950,0.486908
13.476,66.8888,0.486908
13.506,66.8827,0.486908
13.538,66.8763,0.484835
13.570,66.8700,0.484835
13.601,66.8638,0.484835
13.631,66.8576,0.484835
13.662,66.8516,0.484835
13.693,66.8454,0.484835
13.724,66.8392,0.484835
13.755,66.8328,0.484835
13.788,66.8263,0.468103
13.817,66.8205,0.468103
13.849,66.8143,0.468103
13.880,66.8078,0.468103
13.911,66.8016,0.468103
13.942,66.7954,0.468103
13.973,66.7893,0.468103
14.004,66.7831,0.468103
14.035,66.7769,0.433865
14.066,66.7707,0.433865
14.097,66.7645,0.433865
14.128,66.7583,0.433865
14.159,66.7521,0.433865
14.191,66.7458,0.433865
14.222,66.7395,0.433865
14.254,66.7332,0.433865
14.285,66.7270,0.299588
14.316,66.7206,0.299588
14.347,66.7144,0.299588
14.378,66.7084,0.299588
14.410,66.7019,0.299588
14.440,66.6960,0.299588
14.471,66.6895,0.299588
14.502,66.6836,0.299588
14.534,66.6771,0.107510
14.565,66.6709,0.107510
14.596,66.6646,0.107510
14.628,66.6583,0.107510
14.659,66.6519,0.107510
14.691,66.6457,0.107510
14.721,66.6395,0.107510
14.753,66.6333,0.107510
14.785,66.6270,0.027068
14.816,66.6208,0.027068
14.846,66.6147,0.027068
14.877,66.6083,0.027068
14.909,66.6022,0.027068
14.939,66.5961,0.027068
14.970,66.5899,0.027068
15.001,66.5837,0.027068
15.032,66.5775,0.025005
15.063,66.5712,0.025005
15.094,66.5652,0.025005
15.124,66.5592,0.025005
15.156,66.5528,0.025005
15.188,66.5464,0.025005
15.219,66.5402,0.025005
15.250,66.5339,0.025005
15.282,66.5275,0.024760
15.313,66.5213,0.024760
15.344,66.5150,0.024760
15.374,66.5092,0.024760
15.405,66.5029,0.024760
15.437,66.4967,0.024760
15.468,66.4905,0.024760
15.499,66.4841,0.024760
15.530,66.4779,0.024760
15.561,66.4715,0.024628
15.592,66.4655,0.024628
15.623,66.4593,0.024628
15.654,66.4531,0.024628
15.685,66.4468,0.024628
15.717,66.4405,0.024628
15.748,66.4343,0.024628
15.779,66.4281,0.024628
15.811,66.4217,0.024581
15.843,66.4154,0.024581
15.874,66.4090,0.024581
15.905,66.4030,0.024581
15.937,66.3964,0.024581
15.967,66.3905,0.024581
15.998,66.3843,0.024581
16.028,66.3783,0.024458
16.059,66.3723,0.024458
16.090,66.3658,0.024458
16.121,66.3599,0.024458
16.152,66.3534,0.024458
16.183,66.3471,0.024458
16.214,66.3410,0.024458
16.246,66.3348,0.024458
16.277,66.3285,0.024458
16.308,66.3225,0.024402
16.338,66.3162,0.024402
16.370,66.3100,0.024402
16.401,66.3035,0.024402
16.432,66.2975,0.024402
16.464,66.2910,0.024402
16.496,66.2848,0.024402
16.527,66.2785,0.024421
16.557,66.2724,0.024421
16.588,66.2665,0.024421
16.618,66.2604,0.024421
16.650,66.2541,0.024421
16.681,66.2477,0.024421
16.712,66.2415,0.024421
16.743,66.2352,0.024421
16.774,66.2290,0.024421
16.805,66.2229,0.024345
16.835,66.2169,0.024345
16.867,66.2105,0.024345
16.898,66.2045,0.024345
16.929,66.1980,0.024345
16.960,66.1918,0.024345
16.991,66.1859,0.024345
17.024,66.1793,0.024345
17.055,66.1728,0.024355
17.085,66.1670,0.024355
17.117,66.1607,0.024355
17.147,66.1546,0.024355
17.177,66.1485,0.024355
17.209,66.1422,0.024355
17.240,66.1359,0.024355
17.271,66.1297,0.024364
17.301,66.1237,0.024364
17.332,66.1175,0.024364
17.363,66.1113,0.024364
17.394,66.1050,0.024364
17.426,66.0987,0.024364
17.457,66.0923,0.024364
17.490,66.0860,0.024364
17.519,66.0799,0.024308
17.551,66.0737,0.024308
17.582,66.0675,0.024308
17.613,66.0613,0.024308
17.644,66.0553,0.024308
17.675,66.0489,0.024308
17.706,66.0429,0.024308
17.737,66.0364,0.024308
17.769,66.0302,0.024289
17.799,66.0241,0.024289
17.830,66.0180,0.024289
17.860,66.0120,0.024289
17.892,66.0054,0.024289
17.924,65.9992,0.024289
17.954,65.9931,0.024289
17.985,65.9869,0.024289
18.017,65.9806,0.024289
18.048,65.9741,0.024261
18.080,65.9681,0.024261
18.110,65.9620,0.024261
18.142,65.9557,0.024261
18.173,65.9495,0.024261
18.204,65.9431,0.024261
18.236,65.9368,0.024261
18.267,65.9306,0.024327
18.298,65.9244,0.024327
18.329,65.9182,0.024327
18.360,65.9119,0.024327
18.391,65.9058,0.024327
18.422,65.8995,0.024327
18.453,65.8933,0.024327
18.484,65.8872,0.024327
18.516,65.8809,0.024411
18.547,65.8746,0.024411
18.578,65.8684,0.024411
18.610,65.8620,0.024411
18.640,65.8561,0.024411
18.670,65.8499,0.024411
18.701,65.8438,0.024411
18.733,65.8375,0.024411
18.763,65.8313,0.024411
18.794,65.8251,0.024411
18.825,65.8190,0.024364
18.856,65.8127,0.024364
18.888,65.8065,0.024364
18.919,65.8001,0.024364
18.951,65.7938,0.024364
18.982,65.7877,0.024364
19.012,65.7815,0.024364
19.043,65.7752,0.024289
19.074,65.7693,0.024289
19.105,65.7631,0.024289
19.139,65.7561,0.024289
19.167,65.7505,0.024289
19.198,65.7442,0.024289
19.229,65.7381,0.024289
19.259,65.7319,0.024289
19.290,65.7260,0.024289
19.321,65.7195,0.024336
19.353,65.7134,0.024336
19.384,65.7079,0.024336
19.416,65.7032,0.024336
19.447,65.6991,0.024336
19.478,65.6958,0.024336
19.509,65.6934,0.024336
19.540,65.6916,0.024289
19.572,65.6906,0.024289
19.603,65.6903,0.024289
19.634,65.6903,0.024289
19.665,65.6903,0.024289
19.695,65.6903,0.024289
19.728,65.6906,0.024289
19.759,65.6916,0.024289
19.790,65.6935,0.023950
19.821,65.6958,0.023950
19.852,65.6991,0.023950
19.883,65.7030,0.023950
19.914,65.7077,0.023950
19.945,65.7133,0.023950
19.975,65.7190,0.023950
20.007,65.7254,0.023950
20.038,65.7317,0.023950
20.069,65.7378,0.023460
20.100,65.7440,0.023460
20.131,65.7502,0.023460
20.162,65.7564,0.023460
20.193,65.7626,0.023460
20.225,65.7690,0.023460
20.256,65.7753,0.023460
20.287,65.7814,0.023130
20.318,65.7877,0.023130
20.348,65.7937,0.023130
20.379,65.7999,0.023130
20.410,65.8060,0.023130
20.441,65.8122,0.023130
20.472,65.8186,0.023130
20.503,65.8246,0.023130
20.534,65.8309,0.023130
20.566,65.8371,0.022979
20.596,65.8434,0.022979
20.628,65.8496,0.022979
20.659,65.8561,0.022979
20.691,65.8623,0.022979
20.722,65.8686,0.022979
20.754,65.8748,0.022979
20.786,65.8812,0.022838
20.817,65.8875,0.022838
20.847,65.8935,0.022838
20.878,65.8996,0.022838
20.910,65.9062,0.022838
20.942,65.9123,0.022838
20.973,65.9187,0.022838
21.005,65.9249,0.022838
21.036,65.9314,0.022697
21.068,65.9377,0.022697
21.100,65.9443,0.022697
21.132,65.9503,0.022697
21.163,65.9565,0.022697
21.193,65.9626,0.022697
21.224,65.9688,0.022697
21.254,65.9750,0.022697
21.285,65.9810,0.022621
21.315,65.9870,0.022621
21.347,65.9934,0.022621
21.376,65.9993,0.022621
21.407,66.0054,0.022621
21.439,66.0120,0.022621
21.469,66.0178,0.022621
21.500,66.0241,0.022621
21.532,66.0303,0.022546
21.564,66.0368,0.022546
21.595,66.0430,0.022546
21.625,66.0491,0.022546
21.656,66.0553,0.022546
21.687,66.0613,0.022546
21.718,66.0675,0.022546
21.750,66.0739,0.022546
21.781,66.0802,0.022442
21.811,66.0864,0.022442
21.843,66.0926,0.022442
21.874,66.0989,0.022442
21.905,66.1051,0.022442
21.937,66.1113,0.022442
21.967,66.1174,0.022442
21.998,66.1237,0.022442
22.029,66.1298,0.022386
22.061,66.1361,0.022386
22.091,66.1422,0.022386
22.121,66.1484,0.022386
22.153,66.1545,0.022386
22.184,66.1607,0.022386
22.215,66.1669,0.022386
22.246,66.1733,0.022386
22.277,66.1797,0.022301
22.309,66.1857,0.022301
22.340,66.1921,0.022301
22.370,66.1981,0.022301
22.402,66.2042,0.022301
22.432,66.2104,0.022301
22.463,66.2166,0.022301
22.494,66.2229,0.022301
22.525,66.2289,0.022197
22.558,66.2357,0.022197
22.588,66.2415,0.022197
22.620,66.2481,0.022197
22.650,66.2541,0.022197
22.682,66.2605,0.022197
22.713,66.2668,0.022197
22.744,66.2728,0.022197
22.776,66.2791,0.022197
22.807,66.2853,0.022084
22.837,66.2915,0.022084
22.868,66.2975,0.022084
22.899,66.3037,0.022084
22.929,66.3098,0.022084
22.960,66.3160,0.022084
22.991,66.3222,0.022084
23.022,66.3285,0.022084
23.054,66.3347,0.021915
23.084,66.3409,0.021915
23.116,66.3471,0.021915
23.147,66.3535,0.021915
23.180,66.3601,0.021915
23.210,66.3659,0.021915
23.241,66.3723,0.021915
23.274,66.3788,0.021773
23.304,66.3847,0.021773
23.335,66.3910,0.021773
23.366,66.3973,0.021773
23.397,66.4035,0.021773
23.428,66.4095,0.021773
23.458,66.4158,0.021773
23.490,66.4220,0.021773
23.522,66.4284,0.021698
23.553,66.4346,0.021698
23.583,66.4407,0.021698
23.614,66.4468,0.021698
23.645,66.4531,0.021698
23.676,66.4592,0.021698
23.707,66.4654,0.021698
23.738,66.4716,0.021698
23.768,66.4777,0.021698
23.801,66.4843,0.021604
23.831,66.4901,0.021604
23.862,66.4965,0.021604
23.893,66.5026,0.021604
23.925,66.5089,0.021604
23.954,66.5148,0.021604
23.985,66.5211,0.021604
24.016,66.5273,0.021604
24.047,66.5335,0.021462
24.078,66.5396,0.021462
24.109,66.5459,0.021462
24.140,66.5520,0.021462
24.171,66.5583,0.021462
24.201,66.5642,0.021462
24.233,66.5708,0.021462
24.265,66.5769,0.021302
24.296,66.5833,0.021302
24.328,66.5895,0.021302
24.359,66.5959,0.021302
24.391,66.6021,0.021302
24.421,66.6082,0.021302
24.452,66.6144,0.021302
24.483,66.6206,0.021302
24.515,66.6270,0.021302
24.547,66.6335,0.021302
24.577,66.6394,0.021199
24.609,66.6457,0.021199
24.640,66.6518,0.021199
24.671,66.6584,0.021199
24.702,66.6645,0.021199
24.734,66.6707,0.021199
24.765,66.6769,0.021199
24.796,66.6831,0.021095
24.827,66.6894,0.021095
24.858,66.6957,0.021095
24.890,66.7019,0.021095
24.920,66.7080,0.021095
24.953,66.7147,0.021095
24.983,66.7205,0.021095
25.013,66.7267,0.021095
25.044,66.7328,0.021095
25.074,66.7389,0.020963
25.106,66.7452,0.020963
25.137,66.7513,0.020963
25.168,66.7576,0.020963
25.199,66.7637,0.020963
25.231,66.7701,0.020963
25.262,66.7763,0.020963
25.293,66.7827,0.020784
25.324,66.7887,0.020784
25.355,66.7949,0.020784
25.386,66.8011,0.020784
25.417,66.8075,0.020784
25.449,66.8137,0.020784
25.480,66.8201,0.020784
25.511,66.8261,0.020784
25.542,66.8325,0.020784
25.573,66.8386,0.020577
25.604,66.8449,0.020577
25.637,66.8514,0.020577
25.668,66.8576,0.020577
25.698,66.8635,0.020577
25.729,66.8698,0.020577
25.761,66.8763,0.020577
25.792,66.8824,0.020577
25.824,66.8888,0.020351
25.856,66.8953,0.020351
25.885,66.9012,0.020351
25.916,66.9072,0.020351
25.947,66.9132,0.020351
25.978,66.9196,0.020351
26.009,66.9257,0.020351
26.040,66.9321,0.020162
26.071,66.9381,0.020162
26.102,66.9445,0.020162
26.133,66.9505,0.020162
26.164,66.9569,0.020162
26.195,66.9631,0.020162
26.225,66.9692,0.020162
26.256,66.9753,0.020162
26.288,66.9816,0.020002
26.319,66.9879,0.020002
26.351,66.9944,0.020002
26.382,67.0004,0.020002
26.413,67.0066,0.020002
26.444,67.0126,0.020002
26.474,67.0187,0.020002
26.505,67.0250,0.020002
26.536,67.0311,0.019710
26.567,67.0375,0.019710
26.599,67.0436,0.019710
26.629,67.0499,0.019710
26.660,67.0559,0.019710
26.690,67.0622,0.019710
26.722,67.0683,0.019710
26.753,67.0746,0.019710
26.783,67.0806,0.019371
26.815,67.0870,0.019371
26.846,67.0931,0.019371
26.877,67.0995,0.019371
26.909,67.1057,0.019371
26.939,67.1119,0.019371
26.971,67.1181,0.019371
27.001,67.1243,0.019371
27.032,67.1304,0.018994
27.063,67.1366,0.018994
27.094,67.1428,0.018994
27.126,67.1491,0.018994
27.157,67.1555,0.018994
27.189,67.1618,0.018994
27.219,67.1677,0.018994
27.250,67.1739,0.018994
27.280,67.1799,0.018994
27.312,67.1863,0.018598
27.342,67.1923,0.018598
27.373,67.1986,0.018598
27.404,67.2047,0.018598
27.435,67.2110,0.018598
27.465,67.2170,0.018598
27.496,67.2233,0.018598
27.528,67.2295,0.018184
27.560,67.2361,0.018184
27.590,67.2419,0.018184
27.622,67.2485,0.018184
27.652,67.2544,0.018184
27.683,67.2608,0.018184
27.715,67.2668,0.018184
27.745,67.2730,0.018184
27.776,67.2792,0.017750
27.807,67.2853,0.017750
27.837,67.2914,0.017750
27.868,67.2977,0.017750
27.899,67.3038,0.017750
27.930,67.3100,0.017750
27.961,67.3162,0.017750
27.994,67.3228,0.017750
28.024,67.3289,0.017204
28.056,67.3352,0.017204
28.087,67.3413,0.017204
28.118,67.3476,0.017204
28.149,67.3537,0.017204
28.181,67.3601,0.017204
28.211,67.3662,0.017204
28.244,67.3726,0.017204
28.274,67.3788,0.016403
28.306,67.3852,0.016403
28.337,67.3914,0.016403
28.367,67.3974,0.016403
28.399,67.4036,0.016403
28.429,67.4098,0.016403
28.460,67.4159,0.016403
28.491,67.4221,0.016403
28.522,67.4283,0.015527
28.553,67.4345,0.015527
28.584,67.4407,0.015527
28.615,67.4469,0.015527
28.646,67.4531,0.015527
28.677,67.4594,0.015527
28.709,67.4656,0.015527
28.740,67.4720,0.015527
28.771,67.4781,0.014613
28.801,67.4844,0.014613
28.832,67.4905,0.014613
28.864,67.4967,0.014613
28.895,67.5029,0.014613
28.926,67.5091,0.014613
28.957,67.5155,0.014613
28.988,67.5216,0.014613
29.019,67.5278,0.013511
29.050,67.5340,0.013511
29.082,67.5402,0.013511
29.112,67.5464,0.013511
29.143,67.5526,0.013511
29.174,67.5587,0.013511
29.205,67.5649,0.013511
29.238,67.5714,0.013511
29.269,67.5776,0.012097
29.299,67.5837,0.012097
29.330,67.5899,0.012097
29.361,67.5962,0.012097
29.392,67.6023,0.012097
29.424,67.6089,0.012097
29.454,67.6146,0.012097
29.485,67.6209,0.012097
29.516,67.6273,0.010486
29.547,67.6335,0.010486
29.578,67.6397,0.010486
29.609,67.6457,0.010486
29.641,67.6522,0.010486
29.673,67.6585,0.010486
29.703,67.6647,0.010486
29.735,67.6708,0.010486
29.766,67.6772,0.010486
29.798,67.6834,0.010486
29.830,67.6900,0.008479
29.860,67.6960,0.008479
29.891,67.7023,0.008479
29.922,67.7084,0.008479
29.953,67.7144,0.008479
29.984,67.7208,0.008479
30.015,67.7268,0.008479
30.046,67.7333,0.006096
30.078,67.7395,0.006096
30.109,67.7457,0.006096
30.140,67.7519,0.006096
30.171,67.7581,0.006096
30.202,67.7644,0.006096
30.232,67.7705,0.006096
30.265,67.7769,0.006096
30.296,67.7831,0.006096
30.327,67.7895,0.003307
30.358,67.7956,0.003307
30.390,67.8020,0.003307
30.420,67.8081,0.003307
30.451,67.8143,0.003307
30.482,67.8204,0.003307
30.513,67.8267,0.003307
30.545,67.8329,-0.000075
30.575,67.8390,-0.000075
30.606,67.8452,-0.000075
30.638,67.8516,-0.000075
30.668,67.8576,-0.000075
30.699,67.8638,-0.000075
30.731,67.8701,-0.000075
30.762,67.8764,-0.000075
30.794,67.8827,-0.004061
30.826,67.8891,-0.004061
30.857,67.8953,-0.004061
30.888,67.9015,-0.004061
30.919,67.9078,-0.004061
30.950,67.9139,-0.004061
30.981,67.9202,-0.004061
31.012,67.9264,-0.004061
31.043,67.9326,-0.004061
31.075,67.9388,-0.008903
31.106,67.9450,-0.008903
31.136,67.9512,-0.008903
31.167,67.9573,-0.008903
31.198,67.9636,-0.008903
31.229,67.9697,-0.008903
31.260,67.9759,-0.008903
31.291,67.9821,-0.014538
31.322,67.9884,-0.014538
31.353,67.9945,-0.014538
31.385,68.0011,-0.014538
31.416,68.0073,-0.014538
31.448,68.0136,-0.014538
31.478,68.0195,-0.014538
31.509,68.0259,-0.014538
31.541,68.0322,-0.021180
31.572,68.0383,-0.021180
31.603,68.0445,-0.021180
31.634,68.0507,-0.021180
31.664,68.0567,-0.021180
31.695,68.0629,-0.021180
31.727,68.0693,-0.021180
31.758,68.0755,-0.021180
31.788,68.0815,-0.029113
31.819,68.0878,-0.029113
31.851,68.0942,-0.029113
31.882,68.1003,-0.029113
31.914,68.1066,-0.029113
31.945,68.1129,-0.029113
31.976,68.1191,-0.029113
32.008,68.1255,-0.038336
32.040,68.1322,-0.038336
32.070,68.1380,-0.038336
32.100,68.1439,-0.038336
32.131,68.1503,-0.038336
32.165,68.1570,-0.038336
32.194,68.1629,-0.038336
32.226,68.1692,-0.038336
32.256,68.1751,-0.038336
32.287,68.1815,-0.049190
32.319,68.1877,-0.049190
32.350,68.1939,-0.049190
32.381,68.2000,-0.049190
32.413,68.2064,-0.049190
32.442,68.2123,-0.049190
32.473,68.2186,-0.049190
32.504,68.2248,-0.049190
32.535,68.2311,-0.061646
32.567,68.2373,-0.061646
32.599,68.2439,-0.061646
32.628,68.2497,-0.061646
32.660,68.2559,-0.061646
32.692,68.2623,-0.061646
32.724,68.2687,-0.061646
32.754,68.2748,-0.075872
32.785,68.2809,-0.075872
32.816,68.2871,-0.075872
32.848,68.2935,-0.075872
32.877,68.2995,-0.075872
32.909,68.3057,-0.075872
32.940,68.3120,-0.075872
32.971,68.3181,-0.075872
33.002,68.3243,-0.075872
33.033,68.3305,-0.092209
33.064,68.3369,-0.092209
33.096,68.3431,-0.092209
33.127,68.3494,-0.092209
33.160,68.3559,-0.092209
33.190,68.3620,-0.092209
33.220,68.3680,-0.092209
33.251,68.3740,-0.092209
33.282,68.3802,-0.110553
33.312,68.3864,-0.110553
33.343,68.3925,-0.110553
33.374,68.3988,-0.110553
33.405,68.4049,-0.110553
33.436,68.4111,-0.110553
33.466,68.4172,-0.110553
33.497,68.4234,-0.110553
33.527,68.4294,-0.131299
33.558,68.4358,-0.131299
33.591,68.4420,-0.131299
33.622,68.4484,-0.131299
33.653,68.4546,-0.131299
33.684,68.4609,-0.131299
33.716,68.4671,-0.131299
33.747,68.4732,-0.131299
33.778,68.4795,-0.131299
33.809,68.4856,-0.154703
33.840,68.4921,-0.154703
33.871,68.4981,-0.154703
33.903,68.5045,-0.154703
33.934,68.5107,-0.154703
33.965,68.5169,-0.154703
33.996,68.5229,-0.154703
34.027,68.5293,-0.154703
34.057,68.5354,-0.180866
34.089,68.5418,-0.180866
34.119,68.5476,-0.180866
34.151,68.5541,-0.180866
34.182,68.5604,-0.180866
34.214,68.5667,-0.180866
34.244,68.5727,-0.180866
34.275,68.5790,-0.180866
34.307,68.5853,-0.210130
34.338,68.5914,-0.210130
34.369,68.5976,-0.210130
34.400,68.6038,-0.210130
34.431,68.6100,-0.210130
34.462,68.6163,-0.210130
34.492,68.6223,-0.210130
34.524,68.6287,-0.210130
34.555,68.6349,-0.242710
34.587,68.6414,-0.242710
34.617,68.6473,-0.242710
34.648,68.6537,-0.242710
34.680,68.6599,-0.242710
34.712,68.6663,-0.242710
34.742,68.6717,-0.242710
34.773,68.6766,-0.242710
34.805,68.6807,-0.278653
34.836,68.6841,-0.278653
34.868,68.6868,-0.278653
34.899,68.6886,-0.278653
34.929,68.6898,-0.278653
34.960,68.6903,-0.278653
34.991,68.6903,-0.278653
35.023,68.6903,-0.278653
35.054,68.6903,-0.309971
35.085,68.6903,-0.309971
35.117,68.6903,-0.309971
35.148,68.6903,-0.309971
35.178,68.6903,-0.309971
35.210,68.6903,-0.309971
35.240,68.6903,-0.309971
35.271,68.6903,-0.309971
35.302,68.6903,-0.320363
35.333,68.6903,-0.320363
35.365,68.6903,-0.320363
35.396,68.6903,-0.320363
35.426,68.6903,-0.320363
35.457,68.6903,-0.320363
35.488,68.6903,-0.320363
35.520,68.6903,-0.320363
35.550,68.6903,-0.320363
35.582,68.6903,-0.315671
35.613,68.6903,-0.315671
35.643,68.6903,-0.315671
35.675,68.6903,-0.315671
35.706,68.6903,-0.315671
35.737,68.6903,-0.315671
35.768,68.6903,-0.315671
35.799,68.6903,-0.311139
35.830,68.6903,-0.311139
35.861,68.6903,-0.311139
35.893,68.6903,-0.311139
35.924,68.6903,-0.311139
35.955,68.6903,-0.311139
35.986,68.6903,-0.311139
36.017,68.6903,-0.311139
36.048,68.6903,-0.307512
36.079,68.6903,-0.307512
36.109,68.6903,-0.307512
36.140,68.6903,-0.307512
36.171,68.6903,-0.307512
36.203,68.6903,-0.307512
36.234,68.6903,-0.307512
36.266,68.6903,-0.307512
36.298,68.6903,-0.304478
36.328,68.6903,-0.304478
36.359,68.6903,-0.304478
36.388,68.6903,-0.304478
36.420,68.6903,-0.304478
36.449,68.6903,-0.304478
36.480,68.6903,-0.304478
36.511,68.6903,-0.301859
36.541,68.6903,-0.301859
36.572,68.6903,-0.301859
36.603,68.6903,-0.301859
36.634,68.6903,-0.301859
36.665,68.6903,-0.301859
36.697,68.6903,-0.301859
36.727,68.6903,-0.301859
36.758,68.6903,-0.301859
36.790,68.6903,-0.299503
36.822,68.6903,-0.299503
36.852,68.6903,-0.299503
36.882,68.6903,-0.299503
36.914,68.6903,-0.299503
36.945,68.6903,-0.299503
36.977,68.6903,-0.299503
37.007,68.6903,-0.299503
37.038,68.6903,-0.297412
37.071,68.6903,-0.297412
37.100,68.6903,-0.297412
37.131,68.6903,-0.297412
37.163,68.6903,-0.297412
37.194,68.6903,-0.297412
37.225,68.6903,-0.297412
37.256,68.6903,-0.297412
37.287,68.6903,-0.295499
37.318,68.6903,-0.295499
37.349,68.6903,-0.295499
37.381,68.6903,-0.295499
37.413,68.6903,-0.295499
37.443,68.6903,-0.295499
37.474,68.6903,-0.295499
37.505,68.6903,-0.295499
37.536,68.6903,-0.293709
37.566,68.6903,-0.293709
37.597,68.6903,-0.293709
37.628,68.6903,-0.293709
37.659,68.6903,-0.293709
37.690,68.6903,-0.293709
37.721,68.6903,-0.293709
37.752,68.6903,-0.293709
37.783,68.6903,-0.292098
37.815,68.6903,-0.292098
37.846,68.6903,-0.292098
37.877,68.6903,-0.292098
37.907,68.6903,-0.292098
37.940,68.6903,-0.292098
37.969,68.6903,-0.292098
38.001,68.6903,-0.292098
38.032,68.6903,-0.290619
38.064,68.6903,-0.290619
38.096,68.6903,-0.290619
38.125,68.6903,-0.290619
38.157,68.6903,-0.290619
38.188,68.6903,-0.290619
38.220,68.6903,-0.290619
38.251,68.6903,-0.290619
38.282,68.6903,-0.289281
38.312,68.6903,-0.289281
38.343,68.6903,-0.289281
38.374,68.6903,-0.289281
38.405,68.6903,-0.289281
38.435,68.6903,-0.289281
38.465,68.6903,-0.289281
38.496,68.6903,-0.289281
38.527,68.6903,-0.287981
38.559,68.6903,-0.287981
38.590,68.6903,-0.287981
38.621,68.6903,-0.287981
38.652,68.6903,-0.287981
38.683,68.6903,-0.287981
38.714,68.6903,-0.287981
38.746,68.6903,-0.287981
38.777,68.6903,-0.287981
38.808,68.6903,-0.286718
38.839,68.6903,-0.286718
38.870,68.6903,-0.286718
38.901,68.6903,-0.286718
38.932,68.6903,-0.286718
38.963,68.6903,-0.286718
38.995,68.6903,-0.286718
39.026,68.6903,-0.286718
39.057,68.6903,-0.285277
39.089,68.6903,-0.285277
39.120,68.6903,-0.285277
39.151,68.6903,-0.285277
39.183,68.6903,-0.285277
39.214,68.6903,-0.285277
39.246,68.6903,-0.285277
39.276,68.6903,-0.285277
39.307,68.6903,-0.285277
39.338,68.6903,-0.281206
39.369,68.6903,-0.281206
39.399,68.6903,-0.281206
39.430,68.6903,-0.281206
39.462,68.6903,-0.281206
39.492,68.6903,-0.281206
39.523,68.6903,-0.281206
39.555,68.6903,-0.273236
39.586,68.6903,-0.273236
39.618,68.6903,-0.273236
39.649,68.6903,-0.273236
39.680,68.6903,-0.273236
39.711,68.6900,-0.273236
39.742,68.6890,-0.273236
39.773,68.6872,-0.267366
39.803,68.6848,-0.267366
39.834,68.6816,-0.267366
39.867,68.6775,-0.267366
39.898,68.6728,-0.267366
39.929,68.6673,-0.267366
39.960,68.6614,-0.267366
39.991,68.6552,-0.267366
40.021,68.6491,-0.267366
40.053,68.6426,-0.259254
40.083,68.6366,-0.259254
40.115,68.6304,-0.259254
40.145,68.6243,-0.259254
40.177,68.6180,-0.259254
40.209,68.6116,-0.259254
40.239,68.6055,-0.259254
40.270,68.5993,-0.259254
40.301,68.5931,-0.230424
40.332,68.5869,-0.230424
40.363,68.5807,-0.230424
40.394,68.5744,-0.230424
40.425,68.5682,-0.230424
40.456,68.5620,-0.230424
40.487,68.5558,-0.230424
40.518,68.5496,-0.188564
40.549,68.5434,-0.188564
40.581,68.5371,-0.188564
40.612,68.5310,-0.188564
40.643,68.5247,-0.188564
40.675,68.5184,-0.188564
40.706,68.5122,-0.188564
40.737,68.5061,-0.188564
40.768,68.4998,-0.188564
40.799,68.4936,-0.150849
40.830,68.4874,-0.150849
40.861,68.4812,-0.150849
40.892,68.4748,-0.150849
40.923,68.4688,-0.150849
40.954,68.4625,-0.150849
40.984,68.4565,-0.150849
41.015,68.4503,-0.117374
41.047,68.4439,-0.117374
41.078,68.4377,-0.117374
41.109,68.4313,-0.117374
41.141,68.4251,-0.117374
41.172,68.4189,-0.117374
41.203,68.4127,-0.117374
41.234,68.4065,-0.117374
41.265,68.4004,-0.117374
41.295,68.3942,-0.087366
41.326,68.3881,-0.087366
41.357,68.3819,-0.087366
41.388,68.3757,-0.087366
41.420,68.3694,-0.087366
41.451,68.3632,-0.087366
41.481,68.3570,-0.087366
41.512,68.3507,-0.087366
41.544,68.3446,-0.060637
41.575,68.3382,-0.060637
41.606,68.3321,-0.060637
41.638,68.3256,-0.060637
41.668,68.3196,-0.060637
41.700,68.3133,-0.060637
41.730,68.3073,-0.060637
41.761,68.3012,-0.060637
41.792,68.2950,-0.036923
41.822,68.2888,-0.036923
41.853,68.2827,-0.036923
41.884,68.2764,-0.036923
41.917,68.2699,-0.036923
41.946,68.2641,-0.036923
41.978,68.2577,-0.036923
42.008,68.2517,-0.015894
42.039,68.2454,-0.015894
42.069,68.2396,-0.015894
42.101,68.2331,-0.015894
42.131,68.2272,-0.015894
42.162,68.2207,-0.015894
42.193,68.2148,-0.015894
42.224,68.2085,-0.015894
42.255,68.2022,-0.015894
42.287,68.1960,0.002845
42.317,68.1899,0.002845
42.348,68.1837,0.002845
42.379,68.1774,0.002845
42.410,68.1713,0.002845
42.441,68.1651,0.002845
42.472,68.1588,0.002845
42.503,68.1527,0.002845
42.535,68.1464,0.019880
42.565,68.1401,0.019880
42.596,68.1340,0.019880
42.627,68.1278,0.019880
42.659,68.1215,0.019880
42.690,68.1154,0.019880
42.721,68.1090,0.019880
42.752,68.1029,0.035199
42.784,68.0967,0.035199
42.814,68.0905,0.035199
42.845,68.0844,0.035199
42.876,68.0782,0.035199
42.907,68.0720,0.035199
42.937,68.0658,0.035199
42.968,68.0598,0.035199
42.998,68.0535,0.035199
43.029,68.0474,0.049416
43.060,68.0414,0.049416
43.091,68.0350,0.049416
43.121,68.0291,0.049416
43.153,68.0228,0.049416
43.183,68.0167,0.049416
43.215,68.0102,0.049416
43.246,68.0042,0.049416
43.278,67.9977,0.049416
43.308,67.9918,0.062757
43.339,67.9853,0.062757
43.369,67.9795,0.062757
43.400,67.9733,0.062757
43.431,67.9672,0.062757
43.462,67.9609,0.062757
43.493,67.9548,0.062757
43.524,67.9485,0.062757
43.554,67.9425,0.075684
43.586,67.9361,0.075684
43.618,67.9297,0.075684
43.649,67.9235,0.075684
43.680,67.9172,0.075684
43.711,67.9111,0.075684
43.742,67.9048,0.075684
43.774,67.8985,0.075684
43.804,67.8927,0.088601
43.836,67.8862,0.088601
43.867,67.8800,0.088601
43.898,67.8736,0.088601
43.930,67.8675,0.088601
43.960,67.8613,0.088601
43.991,67.8551,0.088601
44.022,67.8488,0.088601
44.053,67.8427,0.101829
44.084,67.8364,0.101829
44.116,67.8302,0.101829
44.147,67.8238,0.101829
44.179,67.8175,0.101829
44.211,67.8111,0.101829
44.242,67.8050,0.101829
44.273,67.7987,0.101829
44.305,67.7925,0.115942
44.335,67.7862,0.115942
44.366,67.7800,0.115942
44.397,67.7740,0.115942
44.427,67.7679,0.115942
44.458,67.7618,0.115942
44.489,67.7555,0.115942
44.520,67.7493,0.115942
44.551,67.7432,0.131083
44.582,67.7370,0.131083
44.612,67.7308,0.131083
44.643,67.7246,0.131083
44.675,67.7183,0.131083
44.706,67.7121,0.131083
44.738,67.7058,0.131083
44.769,67.6994,0.131083
44.800,67.6931,0.147929
44.832,67.6869,0.147929
44.861,67.6810,0.147929
44.893,67.6748,0.147929
44.923,67.6687,0.147929
44.956,67.6621,0.147929
44.986,67.6561,0.147929
45.017,67.6499,0.147929
45.047,67.6439,0.166423
45.079,67.6375,0.166423
45.110,67.6313,0.166423
45.141,67.6250,0.166423
45.173,67.6188,0.166423
45.204,67.6126,0.166423
45.235,67.6064,0.166423
45.266,67.6001,0.166423
45.297,67.5940,0.186774
45.327,67.5878,0.186774
45.358,67.5819,0.186774
45.389,67.5755,0.186774
45.419,67.5695,0.186774
45.451,67.5631,0.186774
45.481,67.5572,0.186774
45.513,67.5507,0.186774
45.544,67.5447,0.209075
45.575,67.5382,0.209075
45.606,67.5322,0.209075
45.637,67.5258,0.209075
45.668,67.5197,0.209075
45.699,67.5134,0.209075
45.730,67.5074,0.209075
45.760,67.5012,0.209075
45.792,67.4950,0.233081
45.822,67.4888,0.233081
45.853,67.4826,0.233081
45.884,67.4766,0.233081
45.915,67.4704,0.233081
45.946,67.4640,0.233081
45.977,67.4580,0.233081
46.008,67.4516,0.233081
46.039,67.4456,0.258981
46.070,67.4394,0.258981
46.101,67.4332,0.258981
46.132,67.4268,0.258981
46.163,67.4208,0.258981
46.194,67.4146,0.258981
46.225,67.4084,0.258981
46.256,67.4020,0.258981
46.287,67.3961,0.286219
46.317,67.3897,0.286219
46.348,67.3837,0.286219
46.380,67.3775,0.286219
46.411,67.3713,0.286219
46.441,67.3651,0.286219
46.472,67.3590,0.286219
46.503,67.3527,0.286219
46.534,67.3466,0.314550
46.565,67.3404,0.314550
46.595,67.3344,0.314550
46.626,67.3282,0.314550
46.657,67.3220,0.314550
46.688,67.3157,0.314550
46.718,67.3098,0.314550
46.750,67.3033,0.314550
46.782,67.2971,0.343285
46.812,67.2908,0.343285
46.843,67.2847,0.343285
46.876,67.2782,0.343285
46.906,67.2722,0.343285
46.937,67.2660,0.343285
46.968,67.2596,0.343285
46.999,67.2536,0.343285
47.030,67.2474,0.371437
47.062,67.2410,0.371437
47.093,67.2348,0.371437
47.124,67.2286,0.371437
47.155,67.2222,0.371437
47.185,67.2165,0.371437
47.216,67.2102,0.371437
47.247,67.2038,0.371437
47.279,67.1975,0.396310
47.310,67.1913,0.396310
47.343,67.1849,0.396310
47.372,67.1790,0.396310
47.404,67.1726,0.396310
47.435,67.1663,0.396310
47.466,67.1601,0.396310
47.497,67.1540,0.396310
47.528,67.1477,0.396310
47.559,67.1417,0.414663
47.590,67.1353,0.414663
47.620,67.1293,0.414663
47.651,67.1231,0.414663
47.682,67.1170,0.414663
47.712,67.1108,0.414663
47.743,67.1049,0.414663
47.775,67.0983,0.414663
47.805,67.0922,0.429634
47.836,67.0860,0.429634
47.868,67.0798,0.429634
47.900,67.0734,0.429634
47.931,67.0673,0.429634
47.963,67.0607,0.429634
47.993,67.0548,0.429634
48.024,67.0486,0.429634
48.055,67.0424,0.443974
48.086,67.0362,0.443974
48.117,67.0298,0.443974
48.149,67.0235,0.443974
48.180,67.0173,0.443974
48.211,67.0112,0.443974
48.242,67.0048,0.443974
48.273,66.9987,0.443974
48.304,66.9925,0.456627
48.335,66.9863,0.456627
48.366,66.9801,0.456627
48.398,66.9738,0.456627
48.428,66.9677,0.456627
48.458,66.9617,0.456627
48.490,66.9554,0.456627
48.521,66.9493,0.456627
48.551,66.9433,0.466718
48.581,66.9369,0.466718
48.611,66.9311,0.466718
48.642,66.9249,0.466718
48.674,66.9186,0.466718
48.704,66.9126,0.466718
48.734,66.9064,0.466718
48.766,66.9002,0.466718
48.797,66.8940,0.473530
48.830,66.8873,0.473530
48.860,66.8814,0.473530
48.891,66.8752,0.473530
48.923,66.8688,0.473530
48.954,66.8626,0.473530
48.985,66.8563,0.473530
49.016,66.8502,0.476526
49.048,66.8438,0.476526
49.079,66.8376,0.476526
49.110,66.8314,0.476526
49.140,66.8252,0.476526
49.172,66.8190,0.476526
49.204,66.8125,0.476526
49.234,66.8066,0.476526
49.265,66.8004,0.472870
49.296,66.7942,0.472870
49.328,66.7879,0.472870
49.359,66.7814,0.472870
49.390,66.7752,0.472870
49.422,66.7690,0.472870
49.452,66.7631,0.472870
49.483,66.7567,0.472870
49.514,66.7505,0.472870
49.546,66.7441,0.459331
49.576,66.7381,0.459331
49.609,66.7316,0.459331
49.640,66.7254,0.459331
49.671,66.7192,0.459331
49.702,66.7130,0.459331
49.732,66.7069,0.459331
49.763,66.7007,0.459331
49.794,66.6946,0.435758
49.825,66.6884,0.435758
49.855,66.6823,0.435758
49.886,66.6760,0.435758
49.916,66.6702,0.435758
49.946,66.6641,0.435758
49.978,66.6579,0.435758
50.009,66.6516,0.293511
50.040,66.6452,0.293511
50.071,66.6392,0.293511
50.102,66.6328,0.293511
50.133,66.6269,0.293511
50.165,66.6204,0.293511
50.194,66.6146,0.293511
50.225,66.6083,0.293511
50.256,66.6021,0.293511
50.285,66.5964,0.095940
50.317,66.5900,0.095940
50.347,66.5840,0.095940
50.378,66.5776,0.095940
50.410,66.5713,0.095940
50.439,66.5655,0.095940
50.470,66.5594,0.095940
50.502,66.5531,0.095940
50.534,66.5465,0.025825
50.564,66.5406,0.025825
50.595,66.5345,0.025825
50.626,66.5283,0.025825
50.656,66.5222,0.025825
50.687,66.5158,0.025825
50.717,66.5098,0.025825
50.747,66.5040,0.025825
50.778,66.4979,0.025014
50.809,66.4917,0.025014
50.840,66.4854,0.025014
50.871,66.4792,0.025014
50.903,66.4728,0.025014
50.934,66.4665,0.025014
50.965,66.4604,0.025014
50.996,66.4541,0.025014
51.027,66.4479,0.024816
51.058,66.4417,0.024816
51.090,66.4355,0.024816
51.120,66.4292,0.024816
51.151,66.4231,0.024816
51.183,66.4167,0.024816
51.213,66.4108,0.024816
51.244,66.4046,0.024816
51.275,66.3983,0.024816
51.305,66.3924,0.024816
51.337,66.3859,0.024619
51.368,66.3798,0.024619
51.399,66.3735,0.024619
51.430,66.3674,0.024619
51.462,66.3611,0.024619
51.493,66.3549,0.024619
51.524,66.3486,0.024619
51.555,66.3424,0.024506
51.586,66.3362,0.024506
51.617,66.3300,0.024506
51.648,66.3238,0.024506
51.679,66.3177,0.024506
51.710,66.3112,0.024506
51.742,66.3052,0.024506
51.773,66.2988,0.024506
51.805,66.2925,0.024421
51.836,66.2862,0.024421
51.867,66.2800,0.024421
51.898,66.2738,0.024421
51.929,66.2676,0.024421
51.960,66.2614,0.024421
51.991,66.2552,0.024421
52.022,66.2490,0.024421
52.053,66.2428,0.024440
52.085,66.2363,0.024440
52.115,66.2304,0.024440
52.147,66.2239,0.024440
52.178,66.2178,0.024440
52.209,66.2115,0.024440
52.239,66.2056,0.024440
52.270,66.1992,0.024440
52.301,66.1932,0.024487
52.333,66.1867,0.024487
52.364,66.1805,0.024487
52.396,66.1741,0.024487
52.426,66.1682,0.024487
52.457,66.1620,0.024487
52.488,66.1558,0.024487
52.519,66.1495,0.024487
52.551,66.1432,0.024421
52.582,66.1370,0.024421
52.613,66.1309,0.024421
52.644,66.1247,0.024421
52.675,66.1185,0.024421
52.705,66.1123,0.024421
52.736,66.1061,0.024421
52.767,66.0999,0.024421
52.798,66.0937,0.024364
52.829,66.0875,0.024364
52.861,66.0813,0.024364
52.892,66.0750,0.024364
52.923,66.0688,0.024364
52.955,66.0623,0.024364
52.986,66.0562,0.024364
53.017,66.0500,0.024364
53.048,66.0437,0.024364
53.079,66.0375,0.024364
53.110,66.0313,0.024364
53.140,66.0252,0.024364
53.171,66.0193,0.024364
53.202,66.0130,0.024364
53.232,66.0070,0.024364
53.263,66.0007,0.024364
53.295,65.9945,0.024345
53.325,65.9884,0.024345
53.355,65.9823,0.024345
53.386,65.9761,0.024345
53.417,65.9701,0.024345
53.448,65.9638,0.024345
53.479,65.9576,0.024345
53.509,65.9516,0.024345
53.541,65.9452,0.024345
53.573,65.9388,0.024289
53.603,65.9327,0.024289
53.634,65.9265,0.024289
53.666,65.9202,0.024289
53.697,65.9140,0.024289
53.729,65.9078,0.024289
53.760,65.9015,0.024289
53.791,65.8953,0.024298
53.822,65.8889,0.024298
53.853,65.8827,0.024298
53.884,65.8765,0.024298
53.915,65.8705,0.024298
53.945,65.8644,0.024298
53.977,65.8579,0.024298
54.008,65.8516,0.024298
54.040,65.8454,0.024298
54.072,65.8391,0.024298
54.103,65.8329,0.024298
54.134,65.8267,0.024298
54.165,65.8204,0.024298
54.196,65.8143,0.024298
54.226,65.8081,0.024298
54.258,65.8019,0.024298
54.288,65.7958,0.024317
54.319,65.7896,0.024317
54.351,65.7833,0.024317
54.381,65.7772,0.024317
54.413,65.7709,0.024317
54.444,65.7647,0.024317
54.475,65.7585,0.024317
54.506,65.7521,0.024317
54.538,65.7459,0.024345
54.570,65.7395,0.024345
54.601,65.7333,0.024345
54.633,65.7268,0.024345
54.663,65.7209,0.024345
54.694,65.7144,0.024345
54.724,65.7085,0.024345
54.755,65.7023,0.024345
54.786,65.6962,0.024364
54.817,65.6901,0.024364
54.848,65.6837,0.024364
54.879,65.6776,0.024364
54.910,65.6713,0.024364
54.940,65.6653,0.024364
54.971,65.6596,0.024364
55.003,65.6547,0.024364
55.033,65.6504,0.024374
55.065,65.6470,0.024374
55.097,65.6441,0.024374
55.128,65.6421,0.024374
55.159,65.6409,0.024374
55.189,65.6403,0.024374
55.220,65.6403,0.024374
55.251,65.6403,0.024374
55.282,65.6403,0.024091
55.313,65.6406,0.024091
55.345,65.6419,0.024091
55.375,65.6437,0.024091
55.406,65.6462,0.024091
55.438,65.6496,0.024091
55.468,65.6535,0.024091
55.499,65.6583,0.024091
55.529,65.6636,0.023601
55.559,65.6695,0.023601
55.590,65.6756,0.023601
55.622,65.6821,0.023601
55.653,65.6883,0.023601
55.685,65.6947,0.023601
55.716,65.7009,0.023601
55.746,65.7070,0.023601
55.778,65.7132,0.023234
55.808,65.7194,0.023234
55.840,65.7256,0.023234
55.871,65.7319,0.023234
55.902,65.7380,0.023234
55.933,65.7443,0.023234
55.964,65.7504,0.023234
55.995,65.7569,0.023234
56.026,65.7629,0.023017
56.058,65.7694,0.023017
56.090,65.7756,0.023017
56.120,65.7818,0.023017
56.152,65.7880,0.023017
56.184,65.7946,0.023017
56.215,65.8008,0.023017
56.247,65.8072,0.023017
56.278,65.8132,0.023017
56.309,65.8195,0.022923
56.340,65.8257,0.022923
56.371,65.8319,0.022923
56.402,65.8381,0.022923
56.433,65.8443,0.022923
56.465,65.8506,0.022923
56.497,65.8571,0.022923
56.528,65.8633,0.022772
56.559,65.8695,0.022772
56.591,65.8758,0.022772
56.623,65.8822,0.022772
56.653,65.8882,0.022772
56.684,65.8944,0.022772
56.714,65.9006,0.022772
56.745,65.9068,0.022772
56.777,65.9131,0.022650
56.808,65.9193,0.022650
56.838,65.9255,0.022650
56.870,65.9316,0.022650
56.900,65.9377,0.022650
56.931,65.9439,0.022650
56.962,65.9500,0.022650
56.993,65.9564,0.022650
57.025,65.9626,0.022612
57.055,65.9688,0.022612
57.086,65.9749,0.022612
57.118,65.9813,0.022612
57.149,65.9874,0.022612
57.181,65.9940,0.022612
57.212,65.9999,0.022612
57.243,66.0064,0.022612
57.273,66.0122,0.022546
57.305,66.0187,0.022546
57.336,66.0249,0.022546
57.367,66.0311,0.022546
57.398,66.0373,0.022546
57.428,66.0435,0.022546
57.460,66.0497,0.022546
57.490,66.0558,0.022546
57.522,66.0622,0.022452
57.553,66.0683,0.022452
57.584,66.0745,0.022452
57.615,66.0807,0.022452
57.646,66.0870,0.022452
57.678,66.0932,0.022452
57.709,66.0995,0.022452
57.741,66.1059,0.022452
57.772,66.1121,0.022339
57.802,66.1181,0.022339
57.832,66.1241,0.022339
57.864,66.1305,0.022339
57.895,66.1367,0.022339
57.927,66.1432,0.022339
57.958,66.1495,0.022339
57.989,66.1556,0.022339
58.020,66.1617,0.022188
58.051,66.1679,0.022188
58.082,66.1741,0.022188
58.113,66.1803,0.022188
58.144,66.1863,0.022188
58.175,66.1927,0.022188
58.207,66.1991,0.022188
58.239,66.2054,0.022188
58.270,66.2115,0.022065
58.302,66.2180,0.022065
58.332,66.2241,0.022065
58.364,66.2305,0.022065
58.394,66.2366,0.022065
58.425,66.2427,0.022065
58.456,66.2489,0.022065
58.487,66.2551,0.022065
58.518,66.2611,0.022065
58.550,66.2677,0.021999
58.580,66.2737,0.021999
58.612,66.2801,0.021999
58.643,66.2862,0.021999
58.674,66.2924,0.021999
58.705,66.2986,0.021999
58.737,66.3050,0.021999
58.769,66.3114,0.021924
58.801,66.3179,0.021924
58.831,66.3239,0.021924
58.863,66.3302,0.021924
58.893,66.3364,0.021924
58.924,66.3425,0.021924
58.955,66.3486,0.021924
58.986,66.3548,0.021924
59.017,66.3610,0.021802
59.047,66.3673,0.021802
59.079,66.3735,0.021802
59.110,66.3797,0.021802
59.143,66.3863,0.021802
59.172,66.3920,0.021802
59.202,66.3981,0.021802
59.233,66.4044,0.021802
59.264,66.4105,0.021802
59.296,66.4169,0.021802
59.328,66.4234,0.021679
59.358,66.4292,0.021679
59.388,66.4353,0.021679
59.419,66.4416,0.021679
59.451,66.4478,0.021679
59.481,66.4541,0.021679
59.512,66.4602,0.021679
59.543,66.4663,0.021538
59.573,66.4725,0.021538
59.605,66.4785,0.021538
59.635,66.4849,0.021538
59.667,66.4912,0.021538
59.698,66.4973,0.021538
59.729,66.5034,0.021538
59.760,66.5098,0.021538
59.791,66.5158,0.021387
59.822,66.5222,0.021387
59.854,66.5284,0.021387
59.885,66.5349,0.021387
59.916,66.5407,0.021387
59.947,66.5470,0.021387
59.978,66.5532,0.021387
60.009,66.5595,0.021387
60.040,66.5657,0.021246
60.071,66.5718,0.021246
60.102,66.5779,0.021246
60.133,66.5842,0.021246
60.164,66.5904,0.021246
60.195,66.5967,0.021246
60.225,66.6028,0.021246
60.256,66.6088,0.021246
60.286,66.6148,0.021086
60.317,66.6210,0.021086
60.349,66.6274,0.021086
60.380,66.6336,0.021086
60.411,66.6399,0.021086
60.443,66.6462,0.021086
60.475,66.6526,0.021086
60.505,66.6586,0.021086
60.537,66.6650,0.020982
60.568,66.6713,0.020982
60.599,66.6774,0.020982
60.630,66.6837,0.020982
60.661,66.6899,0.020982
60.691,66.6960,0.020982
60.723,66.7023,0.020982
60.755,66.7087,0.020982
60.785,66.7147,0.020841
60.816,66.7209,0.020841
60.847,66.7270,0.020841
60.878,66.7332,0.020841
60.909,66.7394,0.020841
60.941,66.7458,0.020841
60.972,66.7520,0.020841
61.002,66.7581,0.020841
61.034,66.7643,0.020633
61.064,66.7705,0.020633
61.096,66.7769,0.020633
61.127,66.7831,0.020633
61.158,66.7892,0.020633
61.189,66.7954,0.020633
61.220,66.8016,0.020633
61.251,66.8078,0.020633
61.282,66.8140,0.020483
61.313,66.8201,0.020483
61.345,66.8266,0.020483
61.375,66.8325,0.020483
61.405,66.8388,0.020483
61.436,66.8448,0.020483
61.467,66.8511,0.020483
61.499,66.8573,0.020483
61.529,66.8635,0.020285
61.561,66.8698,0.020285
61.592,66.8763,0.020285
61.622,66.8821,0.020285
61.653,66.8882,0.020285
61.685,66.8945,0.020285
61.716,66.9008,0.020285
61.747,66.9073,0.020285
61.778,66.9132,0.020285
61.809,66.9195,0.020030
61.840,66.9257,0.020030
61.870,66.9316,0.020030
61.902,66.9379,0.020030
61.933,66.9441,0.020030
61.965,66.9506,0.020030
61.995,66.9567,0.020030
62.026,66.9627,0.020030
62.058,66.9692,0.019804
62.088,66.9753,0.019804
62.119,66.9815,0.019804
62.150,66.9877,0.019804
62.181,66.9937,0.019804
62.211,66.9998,0.019804
62.243,67.0061,0.019804
62.273,67.0122,0.019540
62.304,67.0185,0.019540
62.335,67.0246,0.019540
62.367,67.0309,0.019540
62.397,67.0370,0.019540
62.428,67.0432,0.019540
62.459,67.0494,0.019540
62.490,67.0558,0.019540
62.521,67.0617,0.019192
62.553,67.0683,0.019192
62.585,67.0745,0.019192
62.617,67.0809,0.019192
62.646,67.0868,0.019192
62.676,67.0930,0.019192
62.708,67.0992,0.019192
62.739,67.1055,0.019192
62.771,67.1119,0.018843
62.802,67.1181,0.018843
62.834,67.1243,0.018843
62.865,67.1305,0.018843
62.896,67.1367,0.018843
62.927,67.1429,0.018843
62.957,67.1490,0.018843
62.988,67.1552,0.018843
63.019,67.1614,0.018410
63.050,67.1677,0.018410
63.083,67.1742,0.018410
63.113,67.1801,0.018410
63.144,67.1865,0.018410
63.175,67.1927,0.018410
63.208,67.1992,0.018410
63.239,67.2054,0.018410
63.270,67.2118,0.017929
63.302,67.2181,0.017929
63.332,67.2241,0.017929
63.363,67.2303,0.017929
63.394,67.2365,0.017929
63.425,67.2427,0.017929
63.455,67.2487,0.017929
63.487,67.2549,0.017929
63.516,67.2609,0.017929
63.547,67.2670,0.017929
63.578,67.2733,0.017392
63.609,67.2795,0.017392
63.641,67.2858,0.017392
63.672,67.2920,0.017392
63.702,67.2982,0.017392
63.733,67.3043,0.017392
63.766,67.3109,0.017392
63.795,67.3167,0.016695
63.826,67.3229,0.016695
63.856,67.3290,0.016695
63.888,67.3351,0.016695
63.920,67.3416,0.016695
63.950,67.3477,0.016695
63.981,67.3539,0.016695
64.013,67.3602,0.016695
64.044,67.3666,0.015923
64.076,67.3728,0.015923
64.106,67.3790,0.015923
64.139,67.3853,0.015923
64.169,67.3915,0.015923
64.201,67.3978,0.015923
64.231,67.4039,0.015923
64.263,67.4102,0.015923
64.293,67.4163,0.015018
64.324,67.4225,0.015018
64.356,67.4288,0.015018
64.386,67.4348,0.015018
64.416,67.4407,0.015018
64.447,67.4470,0.015018
64.478,67.4532,0.015018
64.510,67.4598,0.015018
64.541,67.4658,0.013991
64.572,67.4720,0.013991
64.602,67.4781,0.013991
64.633,67.4844,0.013991
64.663,67.4902,0.013991
64.695,67.4967,0.013991
64.726,67.5029,0.013991
64.758,67.5093,0.013991
64.789,67.5155,0.012700
64.821,67.5218,0.012700
64.853,67.5282,0.012700
64.884,67.5344,0.012700
64.914,67.5404,0.012700
64.946,67.5469,0.012700
64.978,67.5532,0.012700
65.007,67.5590,0.011183
65.038,67.5654,0.011183
65.069,67.5714,0.011183
65.100,67.5776,0.011183
65.131,67.5838,0.011183
65.163,67.5903,0.011183
65.194,67.5964,0.011183
65.226,67.6028,0.011183
65.256,67.6088,0.011183
65.288,67.6153,0.009346
65.318,67.6211,0.009346
65.348,67.6274,0.009346
65.380,67.6335,0.009346
65.411,67.6399,0.009346
65.442,67.6460,0.009346
65.473,67.6522,0.009346
65.504,67.6585,0.009346
65.535,67.6647,0.007038
65.567,67.6712,0.007038
65.599,67.6774,0.007038
65.630,67.6836,0.007038
65.661,67.6898,0.007038
65.693,67.6963,0.007038
65.723,67.7022,0.007038
65.753,67.7082,0.007038
65.784,67.7144,0.007038
65.815,67.7206,0.004334
65.847,67.7270,0.004334
65.878,67.7332,0.004334
65.909,67.7394,0.004334
65.941,67.7457,0.004334
65.972,67.7520,0.004334
66.002,67.7581,0.004334
66.033,67.7643,0.001102
66.064,67.7704,0.001102
66.095,67.7767,0.001102
66.126,67.7829,0.001102
66.157,67.7890,0.001102
66.188,67.7953,0.001102
66.219,67.8014,0.001102
66.250,67.8077,0.001102
66.281,67.8138,-0.002723
66.313,67.8204,-0.002723
66.344,67.8263,-0.002723
66.375,67.8326,-0.002723
66.406,67.8388,-0.002723
66.437,67.8452,-0.002723
66.469,67.8514,-0.002723
66.499,67.8576,-0.002723
66.531,67.8639,-0.007208
66.562,67.8700,-0.007208
66.593,67.8763,-0.007208
66.625,67.8825,-0.007208
66.655,67.8886,-0.007208
66.685,67.8946,-0.007208
66.716,67.9010,-0.007208
66.747,67.9070,-0.007208
66.778,67.9132,-0.007208
66.809,67.9192,-0.012521
66.840,67.9257,-0.012521
66.870,67.9317,-0.012521
66.902,67.9382,-0.012521
66.933,67.9443,-0.012521
66.964,67.9506,-0.012521
66.996,67.9568,-0.012521
67.026,67.9630,-0.012521
67.058,67.9691,-0.018871
67.089,67.9758,-0.018871
67.119,67.9813,-0.018871
67.149,67.9875,-0.018871
67.180,67.9936,-0.018871
67.212,67.9999,-0.018871
67.243,68.0060,-0.018871
67.274,68.0125,-0.018871
67.305,68.0185,-0.026286
67.337,68.0250,-0.026286
67.367,68.0311,-0.026286
67.399,68.0373,-0.026286
67.430,68.0435,-0.026286
67.460,68.0497,-0.026286
67.492,68.0560,-0.026286
67.523,68.0621,-0.026286
67.554,68.0683,-0.035030
67.585,68.0746,-0.035030
67.617,68.0808,-0.035030
67.647,68.0870,-0.035030
67.678,68.0932,-0.035030
67.709,68.0995,-0.035030
67.740,68.1055,-0.035030
67.771,68.1118,-0.035030
67.802,68.1180,-0.045384
67.832,68.1242,-0.045384
67.865,68.1305,-0.045384
67.894,68.1364,-0.045384
67.926,68.1428,-0.045384
67.956,68.1488,-0.045384
67.987,68.1550,-0.045384
68.018,68.1613,-0.045384
68.049,68.1675,-0.057264
68.081,68.1737,-0.057264
68.112,68.1801,-0.057264
68.144,68.1862,-0.057264
68.174,68.1923,-0.057264
68.205,68.1986,-0.057264
68.235,68.2047,-0.057264
68.266,68.2109,-0.070963
68.297,68.2170,-0.070963
68.328,68.2232,-0.070963
68.360,68.2295,-0.070963
68.390,68.2357,-0.070963
68.421,68.2418,-0.070963
68.452,68.2479,-0.070963
68.483,68.2541,-0.070963
68.515,68.2605,-0.086632
68.546,68.2667,-0.086632
68.577,68.2729,-0.086632
68.609,68.2792,-0.086632
68.640,68.2856,-0.086632
68.672,68.2919,-0.086632
68.704,68.2983,-0.086632
68.734,68.3044,-0.086632
68.766,68.3107,-0.086632
68.796,68.3169,-0.104288
68.828,68.3231,-0.104288
68.859,68.3295,-0.104288
68.891,68.3358,-0.104288
68.923,68.3421,-0.104288
68.954,68.3484,-0.104288
68.984,68.3544,-0.104288
69.015,68.3605,-0.104288
69.046,68.3668,-0.124327
69.077,68.3729,-0.124327
69.107,68.3791,-0.124327
69.138,68.3852,-0.124327
69.169,68.3915,-0.124327
69.200,68.3976,-0.124327
69.231,68.4039,-0.124327
69.261,68.4097,-0.124327
69.293,68.4162,-0.146807
69.325,68.4225,-0.146807
69.356,68.4287,-0.146807
69.386,68.4348,-0.146807
69.418,68.4412,-0.146807
69.449,68.4474,-0.146807
69.481,68.4537,-0.146807
69.514,68.4604,-0.146807
69.544,68.4664,-0.172038
69.575,68.4725,-0.172038
69.606,68.4788,-0.172038
69.638,68.4851,-0.172038
69.669,68.4916,-0.172038
69.700,68.4975,-0.172038
69.732,68.5040,-0.172038
69.763,68.5102,-0.172038
69.794,68.5166,-0.172038
69.826,68.5227,-0.200256
69.857,68.5292,-0.200256
69.889,68.5354,-0.200256
69.921,68.5418,-0.200256
69.952,68.5480,-0.200256
69.984,68.5545,-0.200256
70.015,68.5607,-0.231639
70.046,68.5667,-0.231639
70.076,68.5727,-0.231639
70.108,68.5793,-0.231639
70.139,68.5855,-0.231639
70.170,68.5918,-0.231639
70.201,68.5977,-0.231639
70.233,68.6041,-0.231639
70.263,68.6101,-0.231639
70.294,68.6162,-0.266443
70.326,68.6220,-0.266443
70.358,68.6269,-0.266443
70.389,68.6310,-0.266443
70.420,68.6343,-0.266443
70.451,68.6369,-0.266443
70.481,68.6388,-0.266443
70.513,68.6399,-0.266443
70.543,68.6403,-0.301661
70.573,68.6403,-0.301661
70.604,68.6403,-0.301661
70.635,68.6403,-0.301661
70.667,68.6403,-0.301661
70.698,68.6403,-0.301661
70.729,68.6403,-0.301661
70.761,68.6403,-0.301661
70.792,68.6403,-0.319449
70.823,68.6403,-0.319449
70.855,68.6403,-0.319449
70.886,68.6403,-0.319449
70.918,68.6403,-0.319449
70.949,68.6403,-0.319449
70.981,68.6403,-0.319449
71.012,68.6403,-0.317235
71.043,68.6403,-0.317235
71.074,68.6403,-0.317235
71.105,68.6403,-0.317235
71.137,68.6403,-0.317235
71.168,68.6403,-0.317235
71.198,68.6403,-0.317235
71.229,68.6403,-0.317235
71.260,68.6403,-0.317235
71.290,68.6403,-0.312138
71.322,68.6403,-0.312138
71.352,68.6403,-0.312138
71.384,68.6403,-0.312138
71.415,68.6403,-0.312138
71.445,68.6403,-0.312138
71.477,68.6403,-0.312138
71.508,68.6403,-0.308331
71.539,68.6403,-0.308331
71.569,68.6403,-0.308331
71.600,68.6403,-0.308331
71.631,68.6403,-0.308331
71.661,68.6403,-0.308331
71.692,68.6403,-0.308331
71.723,68.6403,-0.308331
71.754,68.6403,-0.308331
71.786,68.6403,-0.305166
71.817,68.6403,-0.305166
71.849,68.6403,-0.305166
71.880,68.6403,-0.305166
71.912,68.6403,-0.305166
71.942,68.6403,-0.305166
71.972,68.6403,-0.305166
72.003,68.6403,-0.305166
72.034,68.6403,-0.302443
72.066,68.6403,-0.302443
72.097,68.6403,-0.302443
72.129,68.6403,-0.302443
72.159,68.6403,-0.302443
72.191,68.6403,-0.302443
72.221,68.6403,-0.302443
72.252,68.6403,-0.302443
72.282,68.6403,-0.302443
72.313,68.6403,-0.299918
72.343,68.6403,-0.299918
72.374,68.6403,-0.299918
72.406,68.6403,-0.299918
72.438,68.6403,-0.299918
72.469,68.6403,-0.299918
72.500,68.6403,-0.299918
72.531,68.6403,-0.299918
72.562,68.6403,-0.297685
72.594,68.6403,-0.297685
72.624,68.6403,-0.297685
72.655,68.6403,-0.297685
72.686,68.6403,-0.297685
72.717,68.6403,-0.297685
72.748,68.6403,-0.297685
72.779,68.6403,-0.297685
72.810,68.6403,-0.295753
72.840,68.6403,-0.295753
72.871,68.6403,-0.295753
72.901,68.6403,-0.295753
72.932,68.6403,-0.295753
72.963,68.6403,-0.295753
72.995,68.6403,-0.295753
73.026,68.6403,-0.295753
73.057,68.6403,-0.293982
73.088,68.6403,-0.293982
73.119,68.6403,-0.293982
73.150,68.6403,-0.293982
73.181,68.6403,-0.293982
73.212,68.6403,-0.293982
73.243,68.6403,-0.293982
73.275,68.6403,-0.293982
73.305,68.6403,-0.292305
73.336,68.6403,-0.292305
73.368,68.6403,-0.292305
73.398,68.6403,-0.292305
73.429,68.6403,-0.292305
73.460,68.6403,-0.292305
73.491,68.6403,-0.292305
73.522,68.6403,-0.292305
73.553,68.6403,-0.290751
73.584,68.6403,-0.290751
73.615,68.6403,-0.290751
73.647,68.6403,-0.290751
73.678,68.6403,-0.290751
73.709,68.6403,-0.290751
73.740,68.6403,-0.290751
73.771,68.6403,-0.290751
73.802,68.6403,-0.289337
73.833,68.6403,-0.289337
73.866,68.6403,-0.289337
73.896,68.6403,-0.289337
73.927,68.6403,-0.289337
73.959,68.6403,-0.289337
73.989,68.6403,-0.289337
74.020,68.6403,-0.289337
74.051,68.6403,-0.288009
74.083,68.6403,-0.288009
74.114,68.6403,-0.288009
74.146,68.6403,-0.288009
74.178,68.6403,-0.288009
74.208,68.6403,-0.288009
74.239,68.6403,-0.288009
74.269,68.6403,-0.286728
74.301,68.6403,-0.286728
74.332,68.6403,-0.286728
74.363,68.6403,-0.286728
74.394,68.6403,-0.286728
74.425,68.6403,-0.286728
74.456,68.6403,-0.286728
74.488,68.6403,-0.286728
74.519,68.6403,-0.284523
74.550,68.6403,-0.284523
74.581,68.6403,-0.284523
74.612,68.6403,-0.284523
74.643,68.6403,-0.284523
74.675,68.6403,-0.284523
74.706,68.6403,-0.284523
74.737,68.6403,-0.284523
74.768,68.6403,-0.284523
74.800,68.6403,-0.277881
74.830,68.6403,-0.277881
74.862,68.6403,-0.277881
74.892,68.6403,-0.277881
74.925,68.6403,-0.277881
74.955,68.6403,-0.277881
74.986,68.6403,-0.277881
75.017,68.6403,-0.270004
75.049,68.6403,-0.270004
75.079,68.6397,-0.270004
75.111,68.6384,-0.270004
75.142,68.6363,-0.270004
75.174,68.6336,-0.270004
75.204,68.6301,-0.270004
75.236,68.6258,-0.270004
75.267,68.6209,-0.265161
75.297,68.6151,-0.265161
75.329,68.6089,-0.265161
75.359,68.6029,-0.265161
75.391,68.5964,-0.265161
75.421,68.5905,-0.265161
75.452,68.5843,-0.265161
75.484,68.5780,-0.265161
75.515,68.5717,-0.265161
75.545,68.5657,-0.244999
75.576,68.5597,-0.244999
75.607,68.5532,-0.244999
75.638,68.5471,-0.244999
75.669,68.5409,-0.244999
75.700,68.5349,-0.244999
75.731,68.5284,-0.244999
75.764,68.5220,-0.244999
75.794,68.5160,-0.244999
75.824,68.5098,-0.206003
75.855,68.5036,-0.206003
75.887,68.4973,-0.206003
75.917,68.4914,-0.206003
75.948,68.4851,-0.206003
75.979,68.4788,-0.206003
76.010,68.4726,-0.206003
76.041,68.4665,-0.206003
76.073,68.4601,-0.166630
76.103,68.4541,-0.166630
76.134,68.4478,-0.166630
76.165,68.4417,-0.166630
76.198,68.4350,-0.166630
76.228,68.4291,-0.166630
76.258,68.4231,-0.166630
76.289,68.4170,-0.131535
76.320,68.4108,-0.131535
76.352,68.4043,-0.131535
76.382,68.3983,-0.131535
76.413,68.3921,-0.131535
76.444,68.3860,-0.131535
76.475,68.3797,-0.131535
76.505,68.3736,-0.131535
76.537,68.3674,-0.099982
76.568,68.3612,-0.099982
76.599,68.3550,-0.099982
76.630,68.3487,-0.099982
76.661,68.3426,-0.099982
76.691,68.3364,-0.099982
76.722,68.3303,-0.099982
76.753,68.3243,-0.099982
76.784,68.3181,-0.071981
76.814,68.3119,-0.071981
76.846,68.3054,-0.071981
76.877,68.2993,-0.071981
76.909,68.2929,-0.071981
76.941,68.2866,-0.071981
76.972,68.2804,-0.071981
77.002,68.2743,-0.071981
77.033,68.2682,-0.071981
77.064,68.2619,-0.047099
77.095,68.2557,-0.047099
77.126,68.2496,-0.047099
77.157,68.2433,-0.047099
77.188,68.2371,-0.047099
77.219,68.2309,-0.047099
77.250,68.2248,-0.047099
77.281,68.2186,-0.024911
77.312,68.2123,-0.024911
77.343,68.2062,-0.024911
77.373,68.2000,-0.024911
77.404,68.1939,-0.024911
77.436,68.1876,-0.024911
77.467,68.1813,-0.024911
77.499,68.1749,-0.024911
77.529,68.1687,-0.005069
77.560,68.1627,-0.005069
77.591,68.1565,-0.005069
77.622,68.1503,-0.005069
77.654,68.1439,-0.005069
77.684,68.1380,-0.005069
77.715,68.1318,-0.005069
77.746,68.1257,-0.005069
77.777,68.1195,0.012719
77.808,68.1132,0.012719
77.839,68.1071,0.012719
77.870,68.1008,0.012719
77.902,68.0944,0.012719
77.933,68.0882,0.012719
77.965,68.0818,0.012719
77.995,68.0756,0.012719
78.026,68.0695,0.028632
78.057,68.0633,0.028632
78.089,68.0570,0.028632
78.120,68.0508,0.028632
78.150,68.0445,0.028632
78.182,68.0384,0.028632
78.214,68.0319,0.028632
78.244,68.0261,0.028632
78.276,68.0195,0.043434
78.306,68.0136,0.043434
78.336,68.0075,0.043434
78.367,68.0014,0.043434
78.398,67.9951,0.043434
78.429,67.9890,0.043434
78.459,67.9830,0.043434
78.490,67.9766,0.043434
78.521,67.9705,0.057104
78.552,67.9643,0.057104
78.584,67.9579,0.057104
78.615,67.9517,0.057104
78.646,67.9455,0.057104
78.677,67.9393,0.057104
78.708,67.9331,0.057104
78.739,67.9268,0.057104
78.770,67.9206,0.057104
78.802,67.9145,0.070134
78.833,67.9080,0.070134
78.864,67.9020,0.070134
78.896,67.8955,0.070134
78.927,67.8894,0.070134
78.959,67.8829,0.070134
78.990,67.8768,0.070134
79.021,67.8705,0.070134
79.051,67.8646,0.082957
79.081,67.8586,0.082957
79.113,67.8521,0.082957
79.145,67.8458,0.082957
79.176,67.8395,0.082957
79.207,67.8333,0.082957
79.238,67.8272,0.082957
79.271,67.8205,0.096016
79.301,67.8147,0.096016
79.332,67.8082,0.096016
79.362,67.8024,0.096016
79.393,67.7960,0.096016
79.424,67.7901,0.096016
79.455,67.7838,0.096016
79.486,67.7776,0.096016
79.517,67.7712,0.096016
79.548,67.7652,0.096016
79.579,67.7590,0.109828
79.610,67.7528,0.109828
79.641,67.7464,0.109828
79.672,67.7404,0.109828
79.703,67.7342,0.109828
79.734,67.7278,0.109828
79.765,67.7219,0.109828
79.796,67.7154,0.124459
79.829,67.7089,0.124459
79.859,67.7030,0.124459
79.891,67.6965,0.124459
79.921,67.6906,0.124459
79.952,67.6846,0.124459
79.982,67.6783,0.124459
80.013,67.6723,0.124459
80.044,67.6658,0.124459
80.075,67.6597,0.140636
80.106,67.6534,0.140636
80.138,67.6472,0.140636
80.169,67.6410,0.140636
80.200,67.6348,0.140636
80.231,67.6284,0.140636
80.263,67.6222,0.140636
80.295,67.6158,0.158368
80.327,67.6095,0.158368
80.357,67.6033,0.158368
80.388,67.5972,0.158368
80.418,67.5910,0.158368
80.449,67.5848,0.158368
80.481,67.5785,0.158368
80.511,67.5723,0.158368
80.542,67.5664,0.158368
80.573,67.5602,0.177936
80.604,67.5538,0.177936
80.635,67.5478,0.177936
80.666,67.5416,0.177936
80.697,67.5355,0.177936
80.727,67.5294,0.177936
80.758,67.5232,0.177936
80.790,67.5167,0.199389
80.822,67.5104,0.199389
80.852,67.5043,0.199389
80.883,67.4983,0.199389
80.914,67.4919,0.199389
80.946,67.4857,0.199389
80.977,67.4794,0.199389
81.007,67.4735,0.199389
81.037,67.4671,0.222670
81.069,67.4611,0.222670
81.100,67.4546,0.222670
81.132,67.4483,0.222670
81.163,67.4420,0.222670
81.195,67.4358,0.222670
81.227,67.4293,0.222670
81.258,67.4232,0.222670
81.290,67.4167,0.222670
81.322,67.4105,0.247788
81.353,67.4041,0.247788
81.383,67.3982,0.247788
81.415,67.3917,0.247788
81.445,67.3859,0.247788
81.476,67.3796,0.247788
81.506,67.3736,0.247788
81.537,67.3674,0.274413
81.567,67.3612,0.274413
81.598,67.3551,0.274413
81.630,67.3487,0.274413
81.661,67.3426,0.274413
81.691,67.3364,0.274413
81.723,67.3302,0.274413
81.754,67.3239,0.274413
81.785,67.3178,0.274413
81.816,67.3115,0.302424
81.847,67.3053,0.302424
81.879,67.2988,0.302424
81.910,67.2928,0.302424
81.941,67.2866,0.302424
81.972,67.2804,0.302424
82.003,67.2742,0.302424
82.035,67.2680,0.331235
82.066,67.2615,0.331235
82.098,67.2552,0.331235
82.129,67.2490,0.331235
82.160,67.2428,0.331235
82.191,67.2366,0.331235
82.222,67.2304,0.331235
82.253,67.2241,0.331235
82.284,67.2180,0.331235
82.316,67.2115,0.360141
82.346,67.2056,0.360141
82.377,67.1992,0.360141
82.407,67.1933,0.360141
82.438,67.1871,0.360141
82.469,67.1809,0.360141
82.500,67.1746,0.360141
82.532,67.1684,0.387689
82.564,67.1618,0.387689
82.595,67.1557,0.387689
82.627,67.1493,0.387689
82.657,67.1434,0.387689
82.688,67.1372,0.387689
82.720,67.1309,0.387689
82.751,67.1247,0.387689
82.782,67.1183,0.409406
82.812,67.1122,0.409406
82.844,67.1060,0.409406
82.875,67.0998,0.409406
82.906,67.0936,0.409406
82.937,67.0874,0.409406
82.968,67.0811,0.409406
83.000,67.0749,0.409406
83.031,67.0687,0.409406
83.063,67.0621,0.425715
83.093,67.0562,0.425715
83.124,67.0499,0.425715
83.156,67.0436,0.425715
83.187,67.0374,0.425715
83.218,67.0312,0.425715
83.249,67.0250,0.425715
83.280,67.0187,0.440959
83.312,67.0125,0.440959
83.343,67.0063,0.440959
83.373,67.0002,0.440959
83.404,66.9940,0.440959
83.435,66.9877,0.440959
83.466,66.9816,0.440959
83.496,66.9755,0.440959
83.528,66.9693,0.455214
83.558,66.9631,0.455214
83.589,66.9569,0.455214
83.620,66.9507,0.455214
83.651,66.9445,0.455214
83.683,66.9382,0.455214
83.715,66.9319,0.455214
83.746,66.9257,0.455214
83.776,66.9196,0.467349
83.808,66.9130,0.467349
83.840,66.9069,0.467349
83.870,66.9007,0.467349
83.901,66.8945,0.467349
83.932,66.8884,0.467349
83.962,66.8822,0.467349
83.993,66.8762,0.467349
84.025,66.8698,0.476620
84.057,66.8635,0.476620
84.087,66.8574,0.476620
84.117,66.8512,0.476620
84.148,66.8452,0.476620
84.179,66.8390,0.476620
84.210,66.8329,0.476620
84.241,66.8264,0.476620
84.273,66.8202,0.482405
84.302,66.8143,0.482405
84.333,66.8082,0.482405
84.364,66.8019,0.482405
84.396,66.7957,0.482405
84.426,66.7893,0.482405
84.457,66.7834,0.482405
84.489,66.7768,0.482405
84.520,66.7709,0.483469
84.551,66.7647,0.483469
84.581,66.7586,0.483469
84.612,66.7524,0.483469
84.643,66.7461,0.483469
84.673,66.7401,0.483469
84.704,66.7340,0.483469
84.736,66.7277,0.483469
84.766,66.7216,0.483469
84.798,66.7152,0.475404
84.828,66.7091,0.475404
84.860,66.7029,0.475404
84.890,66.6968,0.475404
84.921,66.6905,0.475404
84.953,66.6843,0.475404
84.983,66.6781,0.475404
85.015,66.6718,0.449646
85.046,66.6656,0.449646
85.077,66.6594,0.449646
85.109,66.6530,0.449646
85.140,66.6468,0.449646
85.172,66.6403,0.449646
85.203,66.6342,0.449646
85.235,66.6277,0.449646
85.265,66.6218,0.449646
85.296,66.6156,0.449646
85.329,66.6090,0.347836
85.358,66.6032,0.347836
85.389,66.5971,0.347836
85.419,66.5909,0.347836
85.451,66.5847,0.347836
85.481,66.5785,0.347836
85.513,66.5721,0.347836
85.544,66.5661,0.347836
85.575,66.5598,0.149276
85.606,66.5536,0.149276
85.638,66.5473,0.149276
85.669,66.5408,0.149276
85.700,66.5347,0.149276
85.731,66.5288,0.149276
85.761,66.5226,0.149276
85.793,66.5161,0.029669
85.823,66.5102,0.029669
85.855,66.5038,0.029669
85.887,66.4975,0.029669
85.918,66.4913,0.029669
85.948,66.4850,0.029669
85.979,66.4789,0.029669
86.010,66.4727,0.029669
86.041,66.4666,0.029669
86.072,66.4604,0.025109
86.103,66.4542,0.025109
86.135,66.4479,0.025109
86.166,66.4415,0.025109
86.197,66.4353,0.025109
86.229,66.4291,0.025109
86.260,66.4230,0.025109
86.291,66.4167,0.025109
86.322,66.4105,0.024845
86.353,66.4041,0.024845
86.385,66.3979,0.024845
86.416,66.3915,0.024845
86.448,66.3850,0.024845
86.479,66.3790,0.024845
86.509,66.3730,0.024845
86.540,66.3668,0.024741
86.571,66.3607,0.024741
86.602,66.3544,0.024741
86.633,66.3481,0.024741
86.664,66.3419,0.024741
86.695,66.3357,0.024741
86.727,66.3295,0.024741
86.757,66.3233,0.024741
86.788,66.3171,0.024741
86.819,66.3109,0.024600
86.851,66.3045,0.024600
86.882,66.2983,0.024600
86.913,66.2921,0.024600
86.945,66.2857,0.024600
86.976,66.2796,0.024600
87.006,66.2737,0.024600
87.037,66.2675,0.024600
87.068,66.2610,0.024506
87.099,66.2549,0.024506
87.131,66.2487,0.024506
87.163,66.2423,0.024506
87.194,66.2360,0.024506
87.226,66.2298,0.024506
87.258,66.2231,0.024506
87.289,66.2170,0.024449
87.320,66.2109,0.024449
87.350,66.2048,0.024449
87.380,66.1989,0.024449
87.411,66.1927,0.024449
87.442,66.1862,0.024449
87.473,66.1801,0.024449
87.504,66.1739,0.024449
87.537,66.1675,0.024421
87.567,66.1613,0.024421
87.598,66.1552,0.024421
87.629,66.1490,0.024421
87.660,66.1429,0.024421
87.691,66.1366,0.024421
87.722,66.1304,0.024421
87.754,66.1240,0.024421
87.785,66.1179,0.024421
87.816,66.1114,0.024421
87.848,66.1054,0.024421
87.879,66.0989,0.024421
87.909,66.0931,0.024421
87.940,66.0869,0.024421
87.972,66.0803,0.024421
88.002,66.0745,0.024421
88.033,66.0683,0.024393
88.064,66.0620,0.024393
88.095,66.0559,0.024393
88.126,66.0497,0.024393
88.157,66.0435,0.024393
88.188,66.0371,0.024393
88.220,66.0309,0.024393
88.250,66.0247,0.024393
88.282,66.0185,0.024374
88.313,66.0122,0.024374
88.345,66.0056,0.024374
88.375,65.9997,0.024374
88.406,65.9937,0.024374
88.437,65.9874,0.024374
88.468,65.9812,0.024374
88.500,65.9749,0.024374
88.530,65.9687,0.024411
88.560,65.9627,0.024411
88.591,65.9565,0.024411
88.621,65.9506,0.024411
88.652,65.9445,0.024411
88.683,65.9383,0.024411
88.713,65.9322,0.024411
88.744,65.9260,0.024411
88.776,65.9196,0.024411
88.808,65.9134,0.024440
88.839,65.9069,0.024440
88.871,65.9005,0.024440
88.902,65.8943,0.024440
88.934,65.8882,0.024440
88.964,65.8820,0.024440
88.996,65.8757,0.024440
89.026,65.8695,0.024440
89.058,65.8634,0.024440
89.089,65.8569,0.024440
89.120,65.8509,0.024440
89.151,65.8445,0.024440
89.182,65.8383,0.024440
89.213,65.8323,0.024440
89.244,65.8261,0.024440
89.276,65.8197,0.024440
89.307,65.8135,0.024383
89.338,65.8073,0.024383
89.368,65.8011,0.024383
89.400,65.7948,0.024383
89.431,65.7886,0.024383
89.463,65.7823,0.024383
89.493,65.7762,0.024383
89.524,65.7700,0.024327
89.555,65.7638,0.024327
89.586,65.7576,0.024327
89.619,65.7511,0.024327
89.648,65.7451,0.024327
89.680,65.7389,0.024327
89.710,65.7327,0.024327
89.742,65.7263,0.024327
89.773,65.7201,0.024383
89.804,65.7141,0.024383
89.835,65.7077,0.024383
89.866,65.7014,0.024383
89.898,65.6952,0.024383
89.929,65.6889,0.024383
89.960,65.6828,0.024383
89.991,65.6766,0.024383
90.023,65.6702,0.024402
90.053,65.6642,0.024402
90.084,65.6580,0.024402
90.115,65.6518,0.024402
90.146,65.6456,0.024402
90.177,65.6393,0.024402
90.209,65.6331,0.024402
90.240,65.6268,0.024402
90.271,65.6207,0.024402
90.302,65.6145,0.024402
90.333,65.6089,0.024402
90.365,65.6039,0.024402
90.396,65.6000,0.024402
90.426,65.5966,0.024402
90.456,65.5940,0.024402
90.488,65.5920,0.024402
90.520,65.5908,0.024289
90.550,65.5903,0.024289
90.581,65.5903,0.024289
90.613,65.5903,0.024289
90.644,65.5903,0.024289
90.675,65.5903,0.024289
90.707,65.5903,0.024289
90.738,65.5903,0.024289
90.769,65.5903,0.024006
90.800,65.5903,0.024006
90.831,65.5903,0.024006
90.862,65.5903,0.024006
90.893,65.5903,0.024006
90.924,65.5903,0.024006
90.955,65.5903,0.024006
90.985,65.5903,0.024006
91.015,65.5903,0.023846
91.047,65.5903,0.023846
91.078,65.5903,0.023846
91.109,65.5907,0.023846
91.141,65.5918,0.023846
91.173,65.5938,0.023846
91.204,65.5964,0.023846
91.235,65.5997,0.023846
91.265,65.6037,0.023846
91.297,65.6085,0.023761
91.328,65.6140,0.023761
91.359,65.6201,0.023761
91.390,65.6265,0.023761
91.421,65.6326,0.023761
91.451,65.6388,0.023761
91.482,65.6447,0.023761
91.513,65.6512,0.023413
91.545,65.6573,0.023413
91.576,65.6637,0.023413
91.607,65.6697,0.023413
91.637,65.6760,0.023413
91.669,65.6823,0.023413
91.700,65.6885,0.023413
91.732,65.6947,0.023413
91.763,65.7009,0.023413
91.794,65.7071,0.023413
91.825,65.7132,0.023036
91.855,65.7194,0.023036
91.886,65.7256,0.023036
91.918,65.7320,0.023036
91.949,65.7381,0.023036
91.981,65.7445,0.023036
92.012,65.7507,0.023036
92.044,65.7571,0.023036
92.075,65.7633,0.022894
92.105,65.7694,0.022894
92.137,65.7756,0.022894
92.168,65.7818,0.022894
92.199,65.7881,0.022894
92.229,65.7942,0.022894
92.261,65.8006,0.022894
92.292,65.8067,0.022810
92.322,65.8128,0.022810
92.354,65.8191,0.022810
92.385,65.8254,0.022810
92.416,65.8316,0.022810
92.448,65.8380,0.022810
92.479,65.8442,0.022810
92.510,65.8502,0.022810
92.541,65.8566,0.022744
92.571,65.8624,0.022744
92.601,65.8687,0.022744
92.632,65.8748,0.022744
92.664,65.8812,0.022744
92.695,65.8872,0.022744
92.726,65.8938,0.022744
92.757,65.9000,0.022744
92.788,65.9062,0.022744
92.821,65.9126,0.022612
92.852,65.9188,0.022612
92.883,65.9249,0.022612
92.914,65.9312,0.022612
92.946,65.9376,0.022612
92.977,65.9438,0.022612
93.008,65.9498,0.022612
93.038,65.9559,0.022452
93.069,65.9624,0.022452
93.100,65.9684,0.022452
93.131,65.9745,0.022452
93.162,65.9807,0.022452
93.193,65.9869,0.022452
93.225,65.9934,0.022452
93.256,65.9996,0.022452
93.287,66.0058,0.022452
93.318,66.0120,0.022442
93.350,66.0183,0.022442
93.380,66.0244,0.022442
93.411,66.0305,0.022442
93.442,66.0367,0.022442
93.473,66.0430,0.022442
93.503,66.0489,0.022442
93.535,66.0555,0.022423
93.566,66.0616,0.022423
93.598,66.0680,0.022423
93.631,66.0746,0.022423
93.660,66.0803,0.022423
93.693,66.0869,0.022423
93.722,66.0927,0.022423
93.753,66.0990,0.022423
93.784,66.1051,0.022423
93.814,66.1113,0.022282
93.846,66.1175,0.022282
93.877,66.1238,0.022282
93.909,66.1302,0.022282
93.939,66.1364,0.022282
93.971,66.1426,0.022282
94.003,66.1491,0.022282
94.035,66.1552,0.022188
94.064,66.1613,0.022188
94.097,66.1677,0.022188
94.126,66.1736,0.022188
94.157,66.1799,0.022188
94.189,66.1861,0.022188
94.219,66.1922,0.022188
94.250,66.1984,0.022188
94.281,66.2047,0.022037
94.311,66.2107,0.022037
94.342,66.2169,0.022037
94.373,66.2229,0.022037
94.404,66.2291,0.022037
94.435,66.2355,0.022037
94.467,66.2417,0.022037
94.498,66.2480,0.022037
94.530,66.2543,0.022037
94.561,66.2606,0.021915
94.594,66.2670,0.021915
94.624,66.2733,0.021915
94.656,66.2795,0.021915
94.687,66.2859,0.021915
94.718,66.2920,0.021915
94.750,66.2985,0.021915
94.781,66.3045,0.021839
94.813,66.3110,0.021839
94.844,66.3171,0.021839
94.875,66.3235,0.021839
94.906,66.3296,0.021839
94.938,66.3362,0.021839
94.969,66.3420,0.021839
94.999,66.3482,0.021839
95.030,66.3544,0.021736
95.061,66.3606,0.021736
95.092,66.3667,0.021736
95.124,66.3733,0.021736
95.155,66.3793,0.021736
95.186,66.3857,0.021736
95.217,66.3917,0.021736
95.248,66.3981,0.021736
95.279,66.4041,0.021604
95.310,66.4105,0.021604
95.342,66.4168,0.021604
95.373,66.4231,0.021604
95.405,66.4293,0.021604
95.436,66.4356,0.021604
95.466,66.4415,0.021604
95.496,66.4478,0.021604
95.527,66.4537,0.021462
95.559,66.4601,0.021462
95.590,66.4663,0.021462
95.620,66.4725,0.021462
95.652,66.4787,0.021462
95.683,66.4849,0.021462
95.715,66.4913,0.021462
95.745,66.4973,0.021462
95.776,66.5036,0.021368
95.809,66.5100,0.021368
95.839,66.5160,0.021368
95.870,66.5225,0.021368
95.901,66.5284,0.021368
95.931,66.5346,0.021368
95.962,66.5408,0.021368
95.994,66.5473,0.021368
96.026,66.5535,0.021246
96.057,66.5598,0.021246
96.088,66.5660,0.021246
96.120,66.5722,0.021246
96.151,66.5785,0.021246
96.182,66.5847,0.021246
96.212,66.5907,0.021246
96.243,66.5971,0.021246
96.275,66.6032,0.021076
96.306,66.6095,0.021076
96.336,66.6157,0.021076
96.368,66.6219,0.021076
96.399,66.6284,0.021076
96.431,66.6344,0.021076
96.462,66.6409,0.021076
96.493,66.6470,0.021076
96.525,66.6534,0.020897
96.555,66.6592,0.020897
96.586,66.6656,0.020897
96.617,66.6717,0.020897
96.649,66.6782,0.020897
96.679,66.6842,0.020897
96.711,66.6906,0.020897
96.742,66.6970,0.020897
96.773,66.7029,0.020897
96.804,66.7092,0.020680
96.835,66.7153,0.020680
96.867,66.7218,0.020680
96.898,66.7280,0.020680
96.929,66.7343,0.020680
96.960,66.7404,0.020680
96.992,66.7467,0.020680
97.023,66.7530,0.020501
97.054,66.7592,0.020501
97.085,66.7655,0.020501
97.117,66.7716,0.020501
97.147,66.7778,0.020501
97.178,66.7839,0.020501
97.209,66.7903,0.020501
97.240,66.7963,0.020501
97.271,66.8026,0.020322
97.303,66.8091,0.020322
97.333,66.8148,0.020322
97.364,66.8210,0.020322
97.395,66.8272,0.020322
97.426,66.8336,0.020322
97.456,66.8396,0.020322
97.487,66.8458,0.020322
97.518,66.8520,0.020125
97.549,66.8582,0.020125
97.580,66.8644,0.020125
97.612,66.8707,0.020125
97.643,66.8769,0.020125
97.674,66.8832,0.020125
97.706,66.8894,0.020125
97.737,66.8956,0.020125
97.768,66.9018,0.019889
97.800,66.9082,0.019889
97.831,66.9146,0.019889
97.863,66.9209,0.019889
97.894,66.9273,0.019889
97.924,66.9331,0.019889
97.955,66.9394,0.019889
97.986,66.9455,0.019889
98.017,66.9517,0.019889
98.048,66.9579,0.019644
98.080,66.9642,0.019644
98.110,66.9704,0.019644
98.142,66.9766,0.019644
98.173,66.9830,0.019644
98.203,66.9889,0.019644
98.234,66.9954,0.019644
98.265,67.0013,0.019644
98.296,67.0076,0.019644
98.328,67.0140,0.019343
98.358,67.0199,0.019343
98.389,67.0260,0.019343
98.419,67.0321,0.019343
98.449,67.0381,0.019343
98.480,67.0443,0.019343
98.513,67.0508,0.019343
98.542,67.0567,0.018937
98.573,67.0628,0.018937
98.605,67.0694,0.018937
98.636,67.0755,0.018937
98.667,67.0818,0.018937
98.698,67.0879,0.018937
98.729,67.0942,0.018937
98.760,67.1003,0.018937
98.791,67.1066,0.018937
98.823,67.1129,0.018504
98.854,67.1190,0.018504
98.886,67.1256,0.018504
98.916,67.1317,0.018504
98.947,67.1377,0.018504
98.978,67.1438,0.018504
99.008,67.1501,0.018504
99.039,67.1561,0.018052
99.069,67.1623,0.018052
99.100,67.1682,0.018052
99.131,67.1744,0.018052
99.162,67.1806,0.018052
99.193,67.1871,0.018052
99.224,67.1932,0.018052
99.255,67.1995,0.018052
99.286,67.2054,0.018052
99.317,67.2118,0.017515
99.348,67.2179,0.017515
99.379,67.2242,0.017515
99.410,67.2303,0.017515
99.442,67.2367,0.017515
99.472,67.2427,0.017515
99.502,67.2487,0.017515
99.533,67.2549,0.016865
99.564,67.2611,0.016865
99.596,67.2676,0.016865
99.626,67.2735,0.016865
99.658,67.2797,0.016865
99.688,67.2858,0.016865
99.719,67.2920,0.016865
99.750,67.2982,0.016865
99.781,67.3044,0.016865
99.813,67.3110,0.016111
99.844,67.3171,0.016111
99.875,67.3231,0.016111
99.906,67.3295,0.016111
99.936,67.3355,0.016111
99.968,67.3419,0.016111
99.998,67.3480,0.016111
100.029,67.3542,0.016111
100.060,67.3604,0.015197
100.092,67.3668,0.015197
100.123,67.3729,0.015197
100.155,67.3793,0.015197
100.186,67.3854,0.015197
100.217,67.3916,0.015197
100.247,67.3978,0.015197
100.279,67.4040,0.014208
100.309,67.4101,0.014208
100.340,67.4163,0.014208
100.372,67.4227,0.014208
100.402,67.4288,0.014208
100.433,67.4348,0.014208
100.464,67.4411,0.014208
100.494,67.4473,0.014208
100.525,67.4534,0.012926
100.556,67.4596,0.012926
100.587,67.4659,0.012926
100.619,67.4721,0.012926
100.651,67.4785,0.012926
100.682,67.4847,0.012926
100.713,67.4911,0.012926
100.744,67.4970,0.012926
100.775,67.5032,0.011438
100.806,67.5094,0.011438
100.837,67.5156,0.011438
100.868,67.5221,0.011438
100.900,67.5282,0.011438
100.930,67.5344,0.011438
100.961,67.5406,0.011438
100.992,67.5466,0.011438
101.023,67.5528,0.011438
101.054,67.5590,0.009695
101.086,67.5655,0.009695
101.117,67.5717,0.009695
101.148,67.5779,0.009695
101.179,67.5840,0.009695
101.210,67.5902,0.009695
101.241,67.5965,0.009695
101.272,67.6027,0.007509
101.303,67.6088,0.007509
101.334,67.6150,0.007509
101.365,67.6213,0.007509
101.395,67.6275,0.007509
101.426,67.6335,0.007509
101.458,67.6398,0.007509
101.489,67.6460,0.007509
101.519,67.6521,0.004946
101.550,67.6585,0.004946
101.582,67.6646,0.004946
101.614,67.6710,0.004946
101.645,67.6772,0.004946
101.676,67.6836,0.004946
101.706,67.6896,0.004946
101.738,67.6958,0.004946
101.768,67.7018,0.001771
101.799,67.7082,0.001771
101.831,67.7143,0.001771
101.862,67.7208,0.001771
101.893,67.7270,0.001771
101.924,67.7333,0.001771
101.954,67.7390,0.001771
101.986,67.7454,0.001771
102.016,67.7515,0.001771
102.047,67.7578,-0.001865
102.079,67.7642,-0.001865
102.110,67.7704,-0.001865
102.141,67.7765,-0.001865
102.171,67.7824,-0.001865
102.202,67.7887,-0.001865
102.232,67.7947,-0.001865
102.264,67.8011,-0.001865
102.295,67.8073,-0.006265
102.326,67.8135,-0.006265
102.356,67.8195,-0.006265
102.388,67.8259,-0.006265
102.419,67.8320,-0.006265
102.449,67.8381,-0.006265
102.480,67.8444,-0.006265
102.512,67.8506,-0.006265
102.543,67.8568,-0.011579
102.574,67.8630,-0.011579
102.604,67.8691,-0.011579
102.634,67.8752,-0.011579
102.665,67.8814,-0.011579
102.696,67.8875,-0.011579
102.728,67.8938,-0.011579
102.759,67.9001,-0.011579
102.790,67.9062,-0.017741
102.820,67.9124,-0.017741
102.850,67.9183,-0.017741
102.881,67.9247,-0.017741
102.913,67.9307,-0.017741
102.944,67.9373,-0.017741
102.975,67.9433,-0.017741
103.006,67.9495,-0.017741
103.038,67.9558,-0.025071
103.069,67.9621,-0.025071
103.100,67.9683,-0.025071
103.130,67.9744,-0.025071
103.161,67.9805,-0.025071
103.192,67.9867,-0.025071
103.223,67.9927,-0.025071
103.254,67.9990,-0.025071
103.283,68.0049,-0.033531
103.314,68.0111,-0.033531
103.345,68.0172,-0.033531
103.376,68.0235,-0.033531
103.407,68.0297,-0.033531
103.438,68.0359,-0.033531
103.468,68.0419,-0.033531
103.499,68.0482,-0.033531
103.530,68.0541,-0.043537
103.561,68.0605,-0.043537
103.592,68.0668,-0.043537
103.623,68.0730,-0.043537
103.654,68.0793,-0.043537
103.686,68.0854,-0.043537
103.716,68.0917,-0.043537
103.748,68.0978,-0.043537
103.779,68.1040,-0.055126
103.811,68.1104,-0.055126
103.841,68.1165,-0.055126
103.872,68.1227,-0.055126
103.904,68.1289,-0.055126
103.934,68.1351,-0.055126
103.965,68.1412,-0.055126
103.996,68.1474,-0.055126
104.027,68.1536,-0.068523
104.058,68.1598,-0.068523
104.089,68.1660,-0.068523
104.119,68.1721,-0.068523
104.151,68.1784,-0.068523
104.182,68.1849,-0.068523
104.214,68.1911,-0.068523
104.246,68.1974,-0.068523
104.276,68.2033,-0.084069
104.307,68.2095,-0.084069
104.337,68.2157,-0.084069
104.369,68.2221,-0.084069
104.400,68.2283,-0.084069
104.431,68.2343,-0.084069
104.462,68.2408,-0.084069
104.493,68.2469,-0.084069
104.524,68.2532,-0.101537
104.556,68.2596,-0.101537
104.587,68.2658,-0.101537
104.619,68.2720,-0.101537
104.650,68.2784,-0.101537
104.681,68.2846,-0.101537
104.712,68.2907,-0.101537
104.743,68.2970,-0.101537
104.775,68.3034,-0.121294
104.806,68.3096,-0.121294
104.837,68.3156,-0.121294
104.868,68.3219,-0.121294
104.899,68.3280,-0.121294
104.931,68.3346,-0.121294
104.962,68.3406,-0.121294
104.993,68.3467,-0.121294
105.024,68.3530,-0.143482
105.056,68.3595,-0.143482
105.087,68.3658,-0.143482
105.118,68.3718,-0.143482
105.149,68.3781,-0.143482
105.180,68.3842,-0.143482
105.211,68.3906,-0.143482
105.242,68.3967,-0.143482
105.273,68.4029,-0.143482
105.304,68.4091,-0.168317
105.335,68.4153,-0.168317
105.366,68.4215,-0.168317
105.397,68.4277,-0.168317
105.428,68.4340,-0.168317
105.459,68.4401,-0.168317
105.490,68.4464,-0.168317
105.521,68.4526,-0.168317
105.554,68.4591,-0.196120
105.584,68.4652,-0.196120
105.617,68.4717,-0.196120
105.648,68.4779,-0.196120
105.680,68.4843,-0.196120
105.711,68.4903,-0.196120
105.741,68.4964,-0.196120
105.773,68.5027,-0.226947
105.803,68.5089,-0.226947
105.834,68.5150,-0.226947
105.865,68.5212,-0.226947
105.896,68.5274,-0.226947
105.927,68.5339,-0.226947
105.958,68.5398,-0.226947
105.989,68.5460,-0.226947
106.020,68.5522,-0.261167
106.051,68.5584,-0.261167
106.082,68.5646,-0.261167
106.113,68.5705,-0.261167
106.144,68.5754,-0.261167
106.176,68.5799,-0.261167
106.206,68.5832,-0.261167
106.237,68.5861,-0.261167
106.268,68.5882,-0.297544
106.299,68.5895,-0.297544
106.330,68.5903,-0.297544
106.360,68.5903,-0.297544
106.391,68.5903,-0.297544
106.422,68.5903,-0.297544
106.452,68.5903,-0.297544
106.483,68.5903,-0.297544
106.514,68.5903,-0.319289
106.544,68.5903,-0.319289
106.575,68.5903,-0.319289
106.606,68.5903,-0.319289
106.637,68.5903,-0.319289
106.669,68.5903,-0.319289
106.700,68.5903,-0.319289
106.731,68.5903,-0.319289
106.762,68.5903,-0.319826
106.792,68.5903,-0.319826
106.824,68.5903,-0.319826
106.855,68.5903,-0.319826
106.886,68.5903,-0.319826
106.918,68.5903,-0.319826
106.950,68.5903,-0.319826
106.980,68.5903,-0.319826
107.012,68.5903,-0.319826
107.043,68.5903,-0.314757
107.074,68.5903,-0.314757
107.104,68.5903,-0.314757
107.135,68.5903,-0.314757
107.166,68.5903,-0.314757
107.196,68.5903,-0.314757
107.227,68.5903,-0.314757
107.258,68.5903,-0.314757
107.289,68.5903,-0.310828
107.320,68.5903,-0.310828
107.351,68.5903,-0.310828
107.382,68.5903,-0.310828
107.414,68.5903,-0.310828
107.445,68.5903,-0.310828
107.476,68.5903,-0.310828
107.506,68.5903,-0.310828
107.537,68.5903,-0.307596
107.570,68.5903,-0.307596
107.600,68.5903,-0.307596
107.631,68.5903,-0.307596
107.662,68.5903,-0.307596
107.694,68.5903,-0.307596
107.725,68.5903,-0.307596
107.755,68.5903,-0.307596
107.787,68.5903,-0.304751
107.818,68.5903,-0.304751
107.849,68.5903,-0.304751
107.880,68.5903,-0.304751
107.911,68.5903,-0.304751
107.942,68.5903,-0.304751
107.972,68.5903,-0.304751
108.003,68.5903,-0.304751
108.034,68.5903,-0.302226
108.065,68.5903,-0.302226
108.096,68.5903,-0.302226
108.127,68.5903,-0.302226
108.159,68.5903,-0.302226
108.191,68.5903,-0.302226
108.221,68.5903,-0.302226
108.252,68.5903,-0.302226
108.284,68.5903,-0.299965
108.315,68.5903,-0.299965
108.346,68.5903,-0.299965
108.376,68.5903,-0.299965
108.407,68.5903,-0.299965
108.437,68.5903,-0.299965
108.469,68.5903,-0.299965
108.501,68.5903,-0.299965
108.532,68.5903,-0.297920
108.564,68.5903,-0.297920
108.594,68.5903,-0.297920
108.625,68.5903,-0.297920
108.657,68.5903,-0.297920
108.688,68.5903,-0.297920
108.718,68.5903,-0.297920
108.749,68.5903,-0.297920
108.780,68.5903,-0.296102
108.811,68.5903,-0.296102
108.841,68.5903,-0.296102
108.872,68.5903,-0.296102
108.904,68.5903,-0.296102
108.934,68.5903,-0.296102
108.965,68.5903,-0.296102
108.996,68.5903,-0.296102
109.028,68.5903,-0.296102
109.058,68.5903,-0.294463
109.090,68.5903,-0.294463
109.121,68.5903,-0.294463
109.152,68.5903,-0.294463
109.183,68.5903,-0.294463
109.214,68.5903,-0.294463
109.244,68.5903,-0.294463
109.274,68.5903,-0.294463
109.306,68.5903,-0.292899
109.337,68.5903,-0.292899
109.369,68.5903,-0.292899
109.400,68.5903,-0.292899
109.431,68.5903,-0.292899
109.462,68.5903,-0.292899
109.493,68.5903,-0.292899
109.525,68.5903,-0.291429
109.556,68.5903,-0.291429
109.588,68.5903,-0.291429
109.619,68.5903,-0.291429
109.650,68.5903,-0.291429
109.681,68.5903,-0.291429
109.712,68.5903,-0.291429
109.743,68.5903,-0.291429
109.774,68.5903,-0.290082
109.804,68.5903,-0.290082
109.836,68.5903,-0.290082
109.867,68.5903,-0.290082
109.898,68.5903,-0.290082
109.928,68.5903,-0.290082
109.959,68.5903,-0.290082
109.990,68.5903,-0.290082
110.021,68.5903,-0.288339
110.052,68.5903,-0.288339
110.083,68.5903,-0.288339
110.115,68.5903,-0.288339
110.145,68.5903,-0.288339
110.176,68.5903,-0.288339
110.207,68.5903,-0.288339
110.238,68.5903,-0.288339
110.270,68.5903,-0.282808
110.301,68.5903,-0.282808
110.332,68.5903,-0.282808
110.364,68.5903,-0.282808
110.394,68.5903,-0.282808
110.425,68.5903,-0.282808
110.456,68.5903,-0.282808
110.486,68.5903,-0.282808
110.518,68.5903,-0.274348
110.550,68.5903,-0.274348
110.581,68.5903,-0.274348
110.613,68.5900,-0.274348
110.644,68.5891,-0.274348
110.675,68.5873,-0.274348
110.707,68.5850,-0.274348
110.737,68.5817,-0.274348
110.767,68.5781,-0.274348
110.798,68.5734,-0.269533
110.830,68.5678,-0.269533
110.861,68.5620,-0.269533
110.892,68.5557,-0.269533
110.923,68.5495,-0.269533
110.954,68.5434,-0.269533
110.985,68.5371,-0.269533
111.016,68.5311,-0.269533
111.046,68.5248,-0.269533
111.079,68.5184,-0.254157
111.109,68.5123,-0.254157
111.139,68.5063,-0.254157
111.171,68.5000,-0.254157
111.201,68.4941,-0.254157
111.232,68.4876,-0.254157
111.263,68.4815,-0.254157
111.294,68.4753,-0.217705
111.325,68.4692,-0.217705
111.356,68.4629,-0.217705
111.386,68.4567,-0.217705
111.417,68.4506,-0.217705
111.448,68.4446,-0.217705
111.480,68.4384,-0.217705
111.510,68.4322,-0.217705
111.540,68.4261,-0.217705
111.570,68.4201,-0.176448
111.601,68.4138,-0.176448
111.632,68.4077,-0.176448
111.663,68.4015,-0.176448
111.693,68.3956,-0.176448
111.724,68.3894,-0.176448
111.755,68.3832,-0.176448
111.786,68.3770,-0.139864
111.817,68.3705,-0.139864
111.848,68.3646,-0.139864
111.880,68.3582,-0.139864
111.910,68.3523,-0.139864
111.942,68.3457,-0.139864
111.972,68.3398,-0.139864
112.003,68.3334,-0.139864
112.034,68.3274,-0.107359
112.066,68.3209,-0.107359
112.098,68.3147,-0.107359
112.129,68.3084,-0.107359
112.160,68.3022,-0.107359
112.191,68.2957,-0.107359
112.221,68.2900,-0.107359
112.252,68.2838,-0.107359
112.283,68.2776,-0.078454
112.314,68.2713,-0.078454
112.346,68.2649,-0.078454
112.377,68.2587,-0.078454
112.408,68.2526,-0.078454
112.439,68.2463,-0.078454
112.470,68.2402,-0.078454
112.501,68.2340,-0.078454
112.532,68.2278,-0.052817
112.563,68.2216,-0.052817
112.595,68.2152,-0.052817
112.625,68.2092,-0.052817
112.655,68.2031,-0.052817
112.686,68.1969,-0.052817
112.720,68.1903,-0.052817
112.749,68.1842,-0.052817
112.780,68.1780,-0.030017
112.811,68.1720,-0.030017
112.841,68.1660,-0.030017
112.872,68.1598,-0.030017
112.903,68.1534,-0.030017
112.934,68.1474,-0.030017
112.966,68.1410,-0.030017
112.996,68.1349,-0.030017
113.027,68.1287,-0.030017
113.059,68.1225,-0.009676
113.091,68.1160,-0.009676
113.122,68.1098,-0.009676
113.153,68.1035,-0.009676
113.183,68.0975,-0.009676
113.215,68.0911,-0.009676
113.247,68.0849,-0.009676
113.278,68.0784,-0.009676
113.310,68.0722,0.008668
113.341,68.0658,0.008668
113.372,68.0598,0.008668
113.403,68.0535,0.008668
113.434,68.0474,0.008668
113.465,68.0411,0.008668
113.496,68.0348,0.008668
113.527,68.0287,0.025127
113.559,68.0223,0.025127
113.590,68.0162,0.025127
113.621,68.0100,0.025127
113.652,68.0038,0.025127
113.683,67.9975,0.025127
113.715,67.9911,0.025127
113.747,67.9849,0.025127
113.778,67.9786,0.025127
113.809,67.9724,0.040079
113.840,67.9662,0.040079
113.870,67.9603,0.040079
113.901,67.9539,0.040079
113.932,67.9479,0.040079
113.964,67.9414,0.040079
113.995,67.9351,0.040079
114.026,67.9289,0.040079
114.056,67.9229,0.053901
114.087,67.9167,0.053901
114.118,67.9106,0.053901
114.149,67.9044,0.053901
114.179,67.8984,0.053901
114.210,67.8920,0.053901
114.241,67.8860,0.053901
114.273,67.8796,0.066940
114.304,67.8733,0.066940
114.336,67.8670,0.066940
114.368,67.8607,0.066940
114.399,67.8545,0.066940
114.428,67.8486,0.066940
114.460,67.8423,0.066940
114.491,67.8361,0.066940
114.522,67.8298,0.079801
114.552,67.8236,0.079801
114.584,67.8175,0.079801
114.615,67.8111,0.079801
114.646,67.8050,0.079801
114.676,67.7988,0.079801
114.708,67.7927,0.079801
114.740,67.7861,0.079801
114.771,67.7800,0.092586
114.802,67.7736,0.092586
114.833,67.7675,0.092586
114.865,67.7611,0.092586
114.896,67.7550,0.092586
114.927,67.7485,0.092586
114.960,67.7423,0.092586
114.991,67.7359,0.092586
115.022,67.7298,0.105974
115.053,67.7236,0.105974
115.084,67.7174,0.105974
115.115,67.7112,0.105974
115.146,67.7051,0.105974
115.178,67.6987,0.105974
115.207,67.6929,0.105974
115.238,67.6867,0.105974
115.270,67.6802,0.120210
115.300,67.6741,0.120210
115.331,67.6681,0.120210
115.362,67.6617,0.120210
115.394,67.6555,0.120210
115.425,67.6492,0.120210
115.456,67.6429,0.120210
115.487,67.6368,0.120210
115.519,67.6304,0.135662
115.548,67.6245,0.135662
115.579,67.6184,0.135662
115.610,67.6122,0.135662
115.643,67.6055,0.135662
115.673,67.5995,0.135662
115.704,67.5933,0.135662
115.735,67.5872,0.135662
115.766,67.5810,0.135662
115.797,67.5749,0.152847
115.827,67.5686,0.152847
115.859,67.5624,0.152847
115.890,67.5561,0.152847
115.921,67.5500,0.152847
115.953,67.5435,0.152847
115.984,67.5375,0.152847
116.017,67.5309,0.152847
116.046,67.5251,0.171596
116.078,67.5186,0.171596
116.109,67.5124,0.171596
116.141,67.5056,0.171596
116.172,67.4998,0.171596
116.203,67.4936,0.171596
116.235,67.4872,0.171596
116.267,67.4809,0.171596
116.298,67.4745,0.191984
116.329,67.4685,0.191984
116.360,67.4622,0.191984
116.391,67.4560,0.191984
116.422,67.4498,0.191984
116.453,67.4437,0.191984
116.484,67.4375,0.191984
116.515,67.4313,0.191984
116.546,67.4250,0.214144
116.577,67.4188,0.214144
116.608,67.4127,0.214144
116.639,67.4064,0.214144
116.670,67.4002,0.214144
116.701,67.3940,0.214144
116.732,67.3878,0.214144
116.763,67.3814,0.214144
116.795,67.3752,0.238074
116.826,67.3690,0.238074
116.857,67.3628,0.238074
116.888,67.3566,0.238074
116.919,67.3503,0.238074
116.951,67.3441,0.238074
116.982,67.3377,0.238074
117.013,67.3317,0.238074
117.044,67.3253,0.238074
117.075,67.3192,0.263371
117.106,67.3129,0.263371
117.137,67.3068,0.263371
117.168,67.3006,0.263371
117.199,67.2945,0.263371
117.230,67.2879,0.263371
117.262,67.2818,0.263371
117.292,67.2754,0.289705
117.325,67.2692,0.289705
117.356,67.2629,0.289705
117.387,67.2569,0.289705
117.418,67.2505,0.289705
117.450,67.2441,0.289705
117.480,67.2381,0.289705
117.512,67.2319,0.289705
117.544,67.2253,0.316547
117.574,67.2195,0.316547
117.605,67.2133,0.316547
117.636,67.2071,0.316547
117.667,67.2007,0.316547
117.698,67.1944,0.316547
117.729,67.1885,0.316547
117.760,67.1823,0.316547
117.791,67.1762,0.316547
117.821,67.1700,0.342673
117.854,67.1634,0.342673
117.884,67.1575,0.342673
117.915,67.1512,0.342673
117.945,67.1450,0.342673
117.977,67.1388,0.342673
118.008,67.1326,0.342673
118.040,67.1262,0.365068
118.071,67.1200,0.365068
118.102,67.1138,0.365068
118.133,67.1076,0.365068
118.164,67.1014,0.365068
118.194,67.0953,0.365068
118.225,67.0891,0.365068
118.256,67.0829,0.365068
118.287,67.0768,0.383582
118.318,67.0705,0.383582
118.348,67.0646,0.383582
118.380,67.0582,0.383582
118.410,67.0520,0.383582
118.441,67.0461,0.383582
118.471,67.0400,0.383582
118.503,67.0336,0.383582
118.534,67.0274,0.401172
118.566,67.0209,0.401172
118.598,67.0147,0.401172
118.628,67.0085,0.401172
118.660,67.0023,0.401172
118.691,66.9960,0.401172
118.723,66.9896,0.401172
118.754,66.9833,0.401172
118.785,66.9771,0.418131
118.816,66.9710,0.418131
118.848,66.9645,0.418131
118.879,66.9584,0.418131
118.910,66.9523,0.418131
118.941,66.9460,0.418131
118.972,66.9399,0.418131
119.004,66.9335,0.418131
119.035,66.9274,0.433591
119.065,66.9212,0.433591
119.097,66.9149,0.433591
119.128,66.9087,0.433591
119.160,66.9023,0.433591
119.190,66.8963,0.433591
119.221,66.8901,0.433591
119.252,66.8839,0.433591
119.283,66.8777,0.446753
119.314,66.8713,0.446753
119.345,66.8653,0.446753
119.377,66.8588,0.446753
119.408,66.8527,0.446753
119.439,66.8465,0.446753
119.470,66.8401,0.446753
119.502,66.8339,0.446753
119.533,66.8277,0.457127
119.564,66.8215,0.457127
119.594,66.8154,0.457127
119.625,66.8092,0.457127
119.656,66.8031,0.457127
119.686,66.7969,0.457127
119.717,66.7908,0.457127
119.748,66.7846,0.457127
119.778,66.7786,0.464249
119.809,66.7724,0.464249
119.840,66.7663,0.464249
119.872,66.7598,0.464249
119.903,66.7536,0.464249
119.934,66.7476,0.464249
119.965,66.7414,0.464249
119.996,66.7349,0.464249
120.027,66.7288,0.466831
120.058,66.7227,0.466831
120.088,66.7164,0.466831
120.119,66.7105,0.466831
120.150,66.7041,0.466831
120.181,66.6981,0.466831
120.212,66.6916,0.466831
120.245,66.6853,0.466831
120.277,66.6788,0.461055
120.308,66.6725,0.461055
120.339,66.6663,0.461055
120.371,66.6600,0.461055
120.402,66.6537,0.461055
120.432,66.6478,0.461055
120.462,66.6418,0.461055
120.493,66.6356,0.461055
120.524,66.6295,0.444897
120.554,66.6233,0.444897
120.585,66.6173,0.444897
120.616,66.6110,0.444897
120.646,66.6049,0.444897
120.678,66.5986,0.444897
120.708,66.5925,0.444897
120.739,66.5864,0.444897
120.770,66.5802,0.395406
120.801,66.5738,0.395406
120.833,66.5677,0.395406
120.865,66.5611,0.395406
120.896,66.5551,0.395406
120.926,66.5489,0.395406
120.957,66.5429,0.395406
120.988,66.5366,0.395406
121.019,66.5303,0.203752
121.050,66.5243,0.203752
121.080,66.5181,0.203752
121.111,66.5119,0.203752
121.142,66.5057,0.203752
121.174,66.4995,0.203752
121.204,66.4933,0.203752
121.235,66.4870,0.203752
121.267,66.4808,0.038336
121.298,66.4746,0.038336
121.329,66.4683,0.038336
121.360,66.4623,0.038336
121.391,66.4561,0.038336
121.423,66.4496,0.038336
121.453,66.4436,0.038336
121.484,66.4372,0.038336
121.517,66.4309,0.038336
121.546,66.4250,0.038336
121.580,66.4183,0.025259
121.608,66.4126,0.025259
121.640,66.4062,0.025259
121.670,66.4002,0.025259
121.701,66.3938,0.025259
121.732,66.3878,0.025259
121.763,66.3814,0.025259
121.794,66.3755,0.025259
121.826,66.3690,0.024901
121.855,66.3632,0.024901
121.886,66.3569,0.024901
121.918,66.3506,0.024901
121.949,66.3442,0.024901
121.981,66.3380,0.024901
122.012,66.3318,0.024901
122.044,66.3255,0.024798
122.075,66.3193,0.024798
122.106,66.3130,0.024798
122.135,66.3071,0.024798
122.168,66.3007,0.024798
122.198,66.2945,0.024798
122.228,66.2885,0.024798
122.260,66.2823,0.024798
122.291,66.2760,0.024675
122.322,66.2698,0.024675
122.353,66.2636,0.024675
122.384,66.2574,0.024675
122.415,66.2512,0.024675
122.446,66.2451,0.024675
122.476,66.2389,0.024675
122.508,66.2327,0.024675
122.539,66.2265,0.024675
122.570,66.2202,0.024600
122.601,66.2139,0.024600
122.632,66.2078,0.024600
122.663,66.2016,0.024600
122.692,66.1959,0.024600
122.725,66.1892,0.024600
122.756,66.1830,0.024600
122.787,66.1769,0.024562
122.817,66.1708,0.024562
122.849,66.1645,0.024562
122.879,66.1586,0.024562
122.909,66.1522,0.024562
122.940,66.1463,0.024562
122.971,66.1398,0.024562
123.003,66.1336,0.024562
123.034,66.1274,0.024562
123.064,66.1215,0.024496
123.095,66.1152,0.024496
123.127,66.1088,0.024496
123.158,66.1026,0.024496
123.189,66.0966,0.024496
123.220,66.0904,0.024496
123.250,66.0843,0.024496
123.281,66.0780,0.024440
123.312,66.0717,0.024440
123.343,66.0657,0.024440
123.375,66.0593,0.024440
123.406,66.0530,0.024440
123.437,66.0469,0.024440
123.468,66.0407,0.024440
123.499,66.0343,0.024440
123.529,66.0283,0.024440
123.560,66.0221,0.024440
123.592,66.0159,0.024440
123.623,66.0096,0.024440
123.654,66.0034,0.024440
123.686,65.9971,0.024440
123.717,65.9909,0.024440
123.750,65.9843,0.024440
123.780,65.9782,0.024440
123.811,65.9722,0.024506
123.842,65.9660,0.024506
123.872,65.9598,0.024506
123.904,65.9534,0.024506
123.934,65.9475,0.024506
123.965,65.9413,0.024506
123.996,65.9350,0.024506
124.027,65.9289,0.024506
124.058,65.9225,0.024449
124.089,65.9163,0.024449
124.121,65.9099,0.024449
124.153,65.9037,0.024449
124.185,65.8972,0.024449
124.216,65.8910,0.024449
124.247,65.8848,0.024449
124.279,65.8786,0.024449
124.309,65.8723,0.024421
124.339,65.8664,0.024421
124.371,65.8600,0.024421
124.402,65.8538,0.024421
124.434,65.8475,0.024421
124.465,65.8413,0.024421
124.495,65.8352,0.024421
124.527,65.8289,0.024458
124.558,65.8227,0.024458
124.589,65.8164,0.024458
124.621,65.8101,0.024458
124.652,65.8039,0.024458
124.683,65.7978,0.024458
124.714,65.7916,0.024458
124.745,65.7853,0.024458
124.776,65.7789,0.024411
124.807,65.7727,0.024411
124.839,65.7667,0.024411
124.869,65.7603,0.024411
124.899,65.7545,0.024411
124.930,65.7482,0.024411
124.961,65.7421,0.024411
124.993,65.7358,0.024411
125.023,65.7297,0.024421
125.055,65.7232,0.024421
125.085,65.7173,0.024421
125.115,65.7112,0.024421
125.145,65.7053,0.024421
125.177,65.6988,0.024421
125.207,65.6927,0.024421
125.238,65.6865,0.024421
125.269,65.6805,0.024477
125.300,65.6743,0.024477
125.331,65.6681,0.024477
125.363,65.6617,0.024477
125.394,65.6557,0.024477
125.425,65.6493,0.024477
125.455,65.6432,0.024477
125.486,65.6370,0.024477
125.517,65.6308,0.024534
125.549,65.6243,0.024534
125.581,65.6182,0.024534
125.612,65.6120,0.024534
125.643,65.6057,0.024534
125.674,65.5995,0.024534
125.705,65.5934,0.024534
125.736,65.5871,0.024534
125.766,65.5811,0.024581
125.797,65.5748,0.024581
125.829,65.5686,0.024581
125.861,65.5623,0.024581
125.892,65.5571,0.024581
125.922,65.5525,0.024581
125.953,65.5487,0.024581
125.984,65.5455,0.024581
126.015,65.5432,0.024468
126.046,65.5414,0.024468
126.077,65.5406,0.024468
126.108,65.5403,0.024468
126.140,65.5403,0.024468
126.170,65.5403,0.024468
126.201,65.5403,0.024468
126.233,65.5403,0.024468
126.263,65.5403,0.024148
126.294,65.5407,0.024148
126.326,65.5419,0.024148
126.358,65.5439,0.024148
126.390,65.5466,0.024148
126.421,65.5500,0.024148
126.451,65.5541,0.024148
126.482,65.5588,0.024148
126.515,65.5647,0.024148
126.545,65.5707,0.023705
126.575,65.5768,0.023705
126.606,65.5830,0.023705
126.638,65.5894,0.023705
126.669,65.5955,0.023705
126.700,65.6017,0.023705
126.731,65.6079,0.023705
126.762,65.6142,0.023705
126.793,65.6204,0.023705
126.823,65.6266,0.023337
126.854,65.6327,0.023337
126.886,65.6390,0.023337
126.917,65.6454,0.023337
126.949,65.6517,0.023337
126.979,65.6576,0.023337
127.010,65.6637,0.023337
127.041,65.6700,0.023337
127.071,65.6760,0.023130
127.103,65.6823,0.023130
127.134,65.6886,0.023130
127.164,65.6946,0.023130
127.195,65.7008,0.023130
127.226,65.7070,0.023130
127.257,65.7132,0.023130
127.288,65.7194,0.023130
127.318,65.7254,0.023045
127.349,65.7316,0.023045
127.379,65.7376,0.023045
127.410,65.7438,0.023045
127.441,65.7500,0.023045
127.471,65.7561,0.023045
127.502,65.7622,0.023045
127.533,65.7685,0.022960
127.564,65.7747,0.022960
127.595,65.7808,0.022960
127.626,65.7871,0.022960
127.657,65.7932,0.022960
127.689,65.7998,0.022960
127.721,65.8058,0.022960
127.751,65.8122,0.022960
127.782,65.8182,0.022819
127.814,65.8246,0.022819
127.844,65.8306,0.022819
127.877,65.8372,0.022819
127.907,65.8432,0.022819
127.940,65.8497,0.022819
127.970,65.8557,0.022819
128.002,65.8622,0.022819
128.033,65.8684,0.022734
128.065,65.8748,0.022734
128.096,65.8809,0.022734
128.127,65.8876,0.022734
128.158,65.8933,0.022734
128.189,65.8996,0.022734
128.221,65.9059,0.022734
128.252,65.9121,0.022734
128.284,65.9186,0.022593
128.315,65.9247,0.022593
128.345,65.9307,0.022593
128.376,65.9371,0.022593
128.406,65.9430,0.022593
128.437,65.9492,0.022593
128.468,65.9554,0.022593
128.499,65.9615,0.022593
128.529,65.9676,0.022489
128.560,65.9738,0.022489
128.591,65.9800,0.022489
128.622,65.9863,0.022489
128.654,65.9925,0.022489
128.685,65.9987,0.022489
128.716,66.0049,0.022489
128.747,66.0111,0.022489
128.778,66.0174,0.022414
128.809,66.0236,0.022414
128.840,66.0297,0.022414
128.871,66.0360,0.022414
128.902,66.0421,0.022414
128.933,66.0486,0.022414
128.964,66.0546,0.022414
128.995,66.0608,0.022414
129.027,66.0670,0.022244
129.057,66.0731,0.022244
129.088,66.0794,0.022244
129.119,66.0856,0.022244
129.151,66.0920,0.022244
129.182,66.0984,0.022244
129.214,66.1045,0.022244
129.244,66.1108,0.022244
129.276,66.1169,0.022244
129.305,66.1230,0.022160
129.337,66.1292,0.022160
129.368,66.1354,0.022160
129.399,66.1415,0.022160
129.430,66.1478,0.022160
129.461,66.1539,0.022160
129.493,66.1603,0.022160
129.524,66.1665,0.022075
129.556,66.1728,0.022075
129.586,66.1790,0.022075
129.617,66.1852,0.022075
129.648,66.1916,0.022075
129.679,66.1976,0.022075
129.711,66.2038,0.022075
129.742,66.2102,0.022075
129.773,66.2164,0.021981
129.804,66.2226,0.021981
129.834,66.2286,0.021981
129.865,66.2348,0.021981
129.896,66.2408,0.021981
129.927,66.2472,0.021981
129.959,66.2534,0.021981
129.989,66.2598,0.021981
130.021,66.2660,0.021858
130.052,66.2723,0.021858
130.083,66.2784,0.021858
130.115,66.2848,0.021858
130.146,66.2910,0.021858
130.178,66.2972,0.021858
130.209,66.3034,0.021858
130.241,66.3100,0.021858
130.272,66.3161,0.021773
130.302,66.3222,0.021773
130.334,66.3285,0.021773
130.365,66.3348,0.021773
130.396,66.3410,0.021773
130.427,66.3471,0.021773
130.457,66.3533,0.021773
130.489,66.3596,0.021773
130.519,66.3654,0.021670
130.550,66.3719,0.021670
130.581,66.3780,0.021670
130.613,66.3844,0.021670
130.644,66.3905,0.021670
130.676,66.3969,0.021670
130.706,66.4029,0.021670
130.737,66.4091,0.021670
130.768,66.4154,0.021547
130.798,66.4214,0.021547
130.830,66.4277,0.021547
130.861,66.4339,0.021547
130.891,66.4400,0.021547
130.922,66.4463,0.021547
130.953,66.4524,0.021547
130.985,66.4590,0.021547
131.015,66.4648,0.021444
131.046,66.4710,0.021444
131.077,66.4772,0.021444
131.108,66.4833,0.021444
131.138,66.4893,0.021444
131.169,66.4957,0.021444
131.200,66.5016,0.021444
131.232,66.5082,0.021444
131.262,66.5141,0.021312
131.293,66.5205,0.021312
131.326,66.5270,0.021312
131.355,66.5329,0.021312
131.386,66.5389,0.021312
131.417,66.5453,0.021312
131.449,66.5516,0.021312
131.480,66.5577,0.021312
131.511,66.5640,0.021312
131.543,66.5703,0.021180
131.572,66.5764,0.021180
131.604,66.5825,0.021180
131.635,66.5889,0.021180
131.666,66.5950,0.021180
131.697,66.6012,0.021180
131.727,66.6070,0.021180
131.758,66.6135,0.021180
131.788,66.6193,0.020935
131.820,66.6256,0.020935
131.850,66.6318,0.020935
131.883,66.6383,0.020935
131.914,66.6446,0.020935
131.945,66.6508,0.020935
131.976,66.6569,0.020935
132.007,66.6632,0.020935
132.039,66.6695,0.020709
132.070,66.6759,0.020709
132.102,66.6823,0.020709
132.133,66.6883,0.020709
132.163,66.6942,0.020709
132.193,66.7003,0.020709
132.224,66.7065,0.020709
132.255,66.7128,0.020709
132.286,66.7192,0.020511
132.317,66.7252,0.020511
132.349,66.7316,0.020511
132.380,66.7379,0.020511
132.411,66.7440,0.020511
132.443,66.7503,0.020511
132.476,66.7569,0.020511
132.505,66.7628,0.020313
132.537,66.7691,0.020313
132.567,66.7751,0.020313
132.598,66.7814,0.020313
132.629,66.7875,0.020313
132.660,66.7939,0.020313
132.692,66.8000,0.020313
132.723,66.8063,0.020313
132.754,66.8125,0.020313
132.786,66.8189,0.020125
132.816,66.8249,0.020125
132.847,66.8311,0.020125
132.878,66.8373,0.020125
132.909,66.8437,0.020125
132.940,66.8497,0.020125
132.972,66.8561,0.020125
133.002,66.8623,0.020125
133.033,66.8684,0.020125
133.064,66.8746,0.019823
133.096,66.8809,0.019823
133.128,66.8872,0.019823
133.159,66.8937,0.019823
133.190,66.8997,0.019823
133.221,66.9061,0.019823
133.252,66.9121,0.019823
133.284,66.9185,0.019823
133.315,66.9248,0.019522
133.347,66.9311,0.019522
133.378,66.9373,0.019522
133.410,66.9436,0.019522
133.441,66.9498,0.019522
133.473,66.9563,0.019522
133.504,66.9624,0.019522
133.535,66.9687,0.019522
133.566,66.9749,0.019211
133.597,66.9812,0.019211
133.628,66.9873,0.019211
133.659,66.9936,0.019211
133.690,66.9998,0.019211
133.721,67.0060,0.019211
133.751,67.0120,0.019211
133.782,67.0180,0.018815
133.813,67.0242,0.018815
133.844,67.0307,0.018815
133.874,67.0367,0.018815
133.905,67.0429,0.018815
133.936,67.0488,0.018815
133.968,67.0554,0.018815
133.999,67.0615,0.018815
134.030,67.0679,0.018815
134.062,67.0741,0.018400
134.094,67.0806,0.018400
134.125,67.0866,0.018400
134.156,67.0930,0.018400
134.187,67.0990,0.018400
134.219,67.1055,0.018400
134.248,67.1113,0.018400
134.280,67.1176,0.017929
134.311,67.1241,0.017929
134.342,67.1303,0.017929
134.374,67.1365,0.017929
134.405,67.1428,0.017929
134.435,67.1488,0.017929
134.466,67.1550,0.017929
134.499,67.1614,0.017929
134.529,67.1676,0.017929
134.560,67.1737,0.017364
134.591,67.1800,0.017364
134.622,67.1861,0.017364
134.653,67.1925,0.017364
134.684,67.1986,0.017364
134.715,67.2048,0.017364
134.746,67.2109,0.017364
134.777,67.2171,0.017364
134.808,67.2233,0.016667
134.839,67.2296,0.016667
134.871,67.2358,0.016667
134.901,67.2420,0.016667
134.932,67.2481,0.016667
134.963,67.2543,0.016667
134.994,67.2605,0.016667
135.025,67.2667,0.016667
135.056,67.2728,0.015847
135.086,67.2789,0.015847
135.117,67.2851,0.015847
135.148,67.2913,0.015847
135.179,67.2976,0.015847
135.210,67.3038,0.015847
135.242,67.3101,0.015847
135.273,67.3164,0.015847
135.305,67.3228,0.014980
135.337,67.3292,0.014980
135.368,67.3353,0.014980
135.400,67.3416,0.014980
135.431,67.3480,0.014980
135.461,67.3540,0.014980
135.492,67.3601,0.014980
135.522,67.3662,0.014980
135.553,67.3724,0.013935
135.584,67.3786,0.013935
135.616,67.3850,0.013935
135.645,67.3907,0.013935
135.676,67.3971,0.013935
135.707,67.4031,0.013935
135.738,67.4095,0.013935
135.769,67.4157,0.013935
135.801,67.4219,0.012616
135.831,67.4281,0.012616
135.862,67.4343,0.012616
135.894,67.4405,0.012616
135.925,67.4467,0.012616
135.956,67.4529,0.012616
135.988,67.4593,0.012616
136.019,67.4654,0.011023
136.050,67.4719,0.011023
136.081,67.4779,0.011023
136.112,67.4841,0.011023
136.143,67.4902,0.011023
136.174,67.4965,0.011023
136.205,67.5029,0.011023
136.236,67.5088,0.011023
136.267,67.5150,0.009177
136.297,67.5211,0.009177
136.328,67.5274,0.009177
136.359,67.5335,0.009177
136.390,67.5398,0.009177
136.421,67.5460,0.009177
136.453,67.5522,0.009177
136.484,67.5584,0.009177
136.515,67.5646,0.006925
136.546,67.5709,0.006925
136.577,67.5771,0.006925
136.609,67.5835,0.006925
136.640,67.5897,0.006925
136.671,67.5959,0.006925
136.704,67.6024,0.006925
136.734,67.6085,0.006925
136.765,67.6147,0.006925
136.796,67.6211,0.006925
136.829,67.6276,0.004164
136.859,67.6335,0.004164
136.889,67.6394,0.004164
136.920,67.6456,0.004164
136.951,67.6519,0.004164
136.982,67.6581,0.004164
137.014,67.6645,0.004164
137.044,67.6705,0.004164
137.075,67.6769,0.000829
137.107,67.6831,0.000829
137.138,67.6894,0.000829
137.170,67.6956,0.000829
137.200,67.7018,0.000829
137.231,67.7079,0.000829
137.262,67.7142,0.000829
137.293,67.7204,0.000829
137.325,67.7270,-0.003053
137.356,67.7328,-0.003053
137.386,67.7390,-0.003053
137.417,67.7451,-0.003053
137.448,67.7513,-0.003053
137.478,67.7575,-0.003053
137.510,67.7637,-0.003053
137.539,67.7698,-0.003053
137.571,67.7758,-0.007707
137.602,67.7822,-0.007707
137.632,67.7881,-0.007707
137.664,67.7946,-0.007707
137.694,67.8006,-0.007707
137.726,67.8071,-0.007707
137.757,67.8132,-0.007707
137.789,67.8197,-0.013200
137.820,67.8257,-0.013200
137.851,67.8319,-0.013200
137.882,67.8381,-0.013200
137.913,67.8443,-0.013200
137.944,67.8506,-0.013200
137.975,67.8568,-0.013200
138.006,67.8629,-0.013200
138.037,67.8695,-0.019701
138.068,67.8752,-0.019701
138.097,67.8811,-0.019701
138.129,67.8875,-0.019701
138.160,67.8937,-0.019701
138.192,67.9001,-0.019701
138.223,67.9062,-0.019701
138.255,67.9126,-0.019701
138.286,67.9188,-0.027332
138.318,67.9253,-0.027332
138.348,67.9314,-0.027332
138.380,67.9377,-0.027332
138.411,67.9439,-0.027332
138.441,67.9500,-0.027332
138.472,67.9562,-0.027332
138.503,67.9622,-0.027332
138.534,67.9684,-0.036264
138.564,67.9746,-0.036264
138.595,67.9807,-0.036264
138.627,67.9870,-0.036264
138.656,67.9930,-0.036264
138.687,67.9993,-0.036264
138.719,68.0055,-0.036264
138.750,68.0118,-0.036264
138.782,68.0180,-0.046722
138.814,68.0246,-0.046722
138.844,68.0305,-0.046722
138.875,68.0367,-0.046722
138.906,68.0429,-0.046722
138.937,68.0491,-0.046722
138.968,68.0554,-0.046722
139.000,68.0616,-0.046722
139.030,68.0678,-0.058791
139.061,68.0739,-0.058791
139.092,68.0799,-0.058791
139.124,68.0864,-0.058791
139.154,68.0928,-0.058791
139.185,68.0987,-0.058791
139.217,68.1051,-0.058791
139.247,68.1111,-0.058791
139.279,68.1174,-0.072848
139.309,68.1235,-0.072848
139.340,68.1298,-0.072848
139.372,68.1360,-0.072848
139.403,68.1423,-0.072848
139.434,68.1486,-0.072848
139.465,68.1546,-0.072848
139.496,68.1608,-0.072848
139.527,68.1670,-0.072848
139.557,68.1732,-0.088874
139.589,68.1795,-0.088874
139.620,68.1855,-0.088874
139.651,68.1919,-0.088874
139.681,68.1979,-0.088874
139.713,68.2043,-0.088874
139.743,68.2104,-0.088874
139.775,68.2167,-0.088874
139.805,68.2227,-0.107048
139.837,68.2291,-0.107048
139.868,68.2352,-0.107048
139.900,68.2418,-0.107048
139.932,68.2480,-0.107048
139.964,68.2546,-0.107048
139.995,68.2608,-0.107048
140.026,68.2671,-0.107048
140.057,68.2732,-0.127719
140.087,68.2791,-0.127719
140.118,68.2853,-0.127719
140.149,68.2914,-0.127719
140.180,68.2977,-0.127719
140.210,68.3037,-0.127719
140.241,68.3100,-0.127719
140.273,68.3165,-0.127719
140.303,68.3224,-0.127719
140.335,68.3287,-0.150736
140.366,68.3349,-0.150736
140.397,68.3411,-0.150736
140.427,68.3472,-0.150736
140.459,68.3535,-0.150736
140.491,68.3600,-0.150736
140.523,68.3663,-0.150736
140.554,68.3725,-0.176353
140.586,68.3788,-0.176353
140.617,68.3850,-0.176353
140.648,68.3914,-0.176353
140.680,68.3977,-0.176353
140.711,68.4039,-0.176353
140.742,68.4100,-0.176353
140.772,68.4162,-0.176353
140.803,68.4222,-0.176353
140.834,68.4286,-0.204910
140.864,68.4345,-0.204910
140.895,68.4406,-0.204910
140.925,68.4467,-0.204910
140.956,68.4529,-0.204910
140.987,68.4590,-0.204910
141.017,68.4652,-0.204910
141.047,68.4712,-0.236689
141.078,68.4773,-0.236689
141.109,68.4834,-0.236689
141.140,68.4896,-0.236689
141.171,68.4958,-0.236689
141.202,68.5021,-0.236689
141.232,68.5081,-0.236689
141.263,68.5145,-0.236689
141.295,68.5203,-0.271898
141.327,68.5254,-0.271898
141.357,68.5295,-0.271898
141.389,68.5334,-0.271898
141.419,68.5360,-0.271898
141.450,68.5382,-0.271898
141.481,68.5396,-0.271898
141.512,68.5403,-0.271898
141.544,68.5403,-0.306456
141.575,68.5403,-0.306456
141.606,68.5403,-0.306456
141.637,68.5403,-0.306456
141.668,68.5403,-0.306456
141.699,68.5403,-0.306456
141.731,68.5403,-0.306456
141.761,68.5403,-0.306456
141.792,68.5403,-0.322445
141.823,68.5403,-0.322445
141.855,68.5403,-0.322445
141.887,68.5403,-0.322445
141.918,68.5403,-0.322445
141.949,68.5403,-0.322445
141.980,68.5403,-0.322445
142.012,68.5403,-0.322445
142.042,68.5403,-0.319515
142.073,68.5403,-0.319515
142.104,68.5403,-0.319515
142.135,68.5403,-0.319515
142.167,68.5403,-0.319515
142.197,68.5403,-0.319515
142.229,68.5403,-0.319515
142.260,68.5403,-0.319515
142.291,68.5403,-0.314597
142.321,68.5403,-0.314597
142.353,68.5403,-0.314597
142.384,68.5403,-0.314597
142.415,68.5403,-0.314597
142.445,68.5403,-0.314597
142.477,68.5403,-0.314597
142.509,68.5403,-0.314597
142.538,68.5403,-0.314597
142.569,68.5403,-0.310781
142.599,68.5403,-0.310781
142.631,68.5403,-0.310781
142.662,68.5403,-0.310781
142.693,68.5403,-0.310781
142.724,68.5403,-0.310781
142.755,68.5403,-0.310781
142.787,68.5403,-0.307634
142.818,68.5403,-0.307634
142.850,68.5403,-0.307634
142.882,68.5403,-0.307634
142.913,68.5403,-0.307634
142.944,68.5403,-0.307634
142.976,68.5403,-0.307634
143.006,68.5403,-0.307634
143.037,68.5403,-0.307634
143.068,68.5403,-0.304883
143.097,68.5403,-0.304883
143.128,68.5403,-0.304883
143.159,68.5403,-0.304883
143.189,68.5403,-0.304883
143.220,68.5403,-0.304883
143.252,68.5403,-0.304883
143.283,68.5403,-0.302462
143.314,68.5403,-0.302462
143.345,68.5403,-0.302462
143.376,68.5403,-0.302462
143.408,68.5403,-0.302462
143.439,68.5403,-0.302462
143.470,68.5403,-0.302462
143.501,68.5403,-0.302462
143.532,68.5403,-0.300248
143.564,68.5403,-0.300248
143.594,68.5403,-0.300248
143.626,68.5403,-0.300248
143.657,68.5403,-0.300248
143.687,68.5403,-0.300248
143.718,68.5403,-0.300248
143.749,68.5403,-0.300248
143.780,68.5403,-0.298307
143.812,68.5403,-0.298307
143.843,68.5403,-0.298307
143.874,68.5403,-0.298307
143.905,68.5403,-0.298307
143.936,68.5403,-0.298307
143.967,68.5403,-0.298307
143.998,68.5403,-0.298307
144.030,68.5403,-0.296545
144.061,68.5403,-0.296545
144.092,68.5403,-0.296545
144.124,68.5403,-0.296545
144.154,68.5403,-0.296545
144.185,68.5403,-0.296545
144.216,68.5403,-0.296545
144.246,68.5403,-0.296545
144.277,68.5403,-0.294868
144.307,68.5403,-0.294868
144.339,68.5403,-0.294868
144.371,68.5403,-0.294868
144.402,68.5403,-0.294868
144.433,68.5403,-0.294868
144.465,68.5403,-0.294868
144.496,68.5403,-0.294868
144.527,68.5403,-0.294868
144.559,68.5403,-0.293379
144.590,68.5403,-0.293379
144.621,68.5403,-0.293379
144.653,68.5403,-0.293379
144.684,68.5403,-0.293379
144.716,68.5403,-0.293379
144.745,68.5403,-0.293379
144.775,68.5403,-0.293379
144.807,68.5403,-0.291994
144.837,68.5403,-0.291994
144.868,68.5403,-0.291994
144.900,68.5403,-0.291994
144.932,68.5403,-0.291994
144.962,68.5403,-0.291994
144.994,68.5403,-0.291994
145.025,68.5403,-0.291994
145.056,68.5403,-0.290647
145.086,68.5403,-0.290647
145.117,68.5403,-0.290647
145.148,68.5403,-0.290647
145.180,68.5403,-0.290647
145.211,68.5403,-0.290647
145.242,68.5403,-0.290647
145.274,68.5403,-0.290647
145.305,68.5403,-0.289318
145.335,68.5403,-0.289318
145.368,68.5403,-0.289318
145.397,68.5403,-0.289318
145.429,68.5403,-0.289318
145.460,68.5403,-0.289318
145.491,68.5403,-0.289318
145.522,68.5403,-0.289318
145.554,68.5403,-0.287133
145.584,68.5403,-0.287133
145.615,68.5403,-0.287133
145.646,68.5403,-0.287133
145.678,68.5403,-0.287133
145.709,68.5403,-0.287133
145.741,68.5403,-0.287133
145.772,68.5403,-0.287133
145.804,68.5403,-0.280509
145.834,68.5403,-0.280509
145.865,68.5403,-0.280509
145.895,68.5403,-0.280509
145.927,68.5403,-0.280509
145.957,68.5403,-0.280509
145.989,68.5403,-0.280509
146.018,68.5403,-0.280509
146.049,68.5403,-0.272576
146.081,68.5403,-0.272576
146.113,68.5402,-0.272576
146.144,68.5394,-0.272576
146.176,68.5377,-0.272576
146.207,68.5355,-0.272576
146.239,68.5323,-0.272576
146.270,68.5287,-0.269137
146.301,68.5242,-0.269137
146.332,68.5189,-0.269137
146.363,68.5129,-0.269137
146.394,68.5066,-0.269137
146.425,68.5006,-0.269137
146.456,68.4943,-0.269137
146.488,68.4881,-0.269137
146.519,68.4816,-0.254063
146.551,68.4754,-0.254063
146.582,68.4690,-0.254063
146.613,68.4630,-0.254063
146.645,68.4565,-0.254063
146.675,68.4504,-0.254063
146.707,68.4442,-0.254063
146.737,68.4380,-0.254063
146.768,68.4320,-0.217978
146.798,68.4258,-0.217978
146.829,68.4198,-0.217978
146.861,68.4132,-0.217978
146.892,68.4072,-0.217978
146.923,68.4009,-0.217978
146.953,68.3950,-0.217978
146.984,68.3888,-0.217978
147.014,68.3827,-0.177183
147.046,68.3764,-0.177183
147.077,68.3700,-0.177183
147.109,68.3637,-0.177183
147.141,68.3573,-0.177183
147.171,68.3512,-0.177183
147.203,68.3449,-0.177183
147.232,68.3390,-0.177183
147.264,68.3327,-0.177183
147.294,68.3266,-0.140712
147.326,68.3203,-0.140712
147.357,68.3141,-0.140712
147.388,68.3080,-0.140712
147.419,68.3018,-0.140712
147.449,68.2957,-0.140712
147.480,68.2894,-0.140712
147.512,68.2830,-0.140712
147.543,68.2770,-0.140712
147.573,68.2709,-0.108216
147.604,68.2646,-0.108216
147.635,68.2585,-0.108216
147.667,68.2522,-0.108216
147.698,68.2460,-0.108216
147.729,68.2396,-0.108216
147.760,68.2336,-0.108216
147.791,68.2273,-0.108216
147.821,68.2213,-0.079339
147.852,68.2151,-0.079339
147.883,68.2088,-0.079339
147.914,68.2027,-0.079339
147.945,68.1964,-0.079339
147.976,68.1903,-0.079339
148.007,68.1841,-0.079339
148.038,68.1780,-0.079339
148.069,68.1717,-0.053524
148.100,68.1655,-0.053524
148.132,68.1589,-0.053524
148.164,68.1529,-0.053524
148.194,68.1465,-0.053524
148.225,68.1405,-0.053524
148.257,68.1340,-0.053524
148.288,68.1279,-0.030535
148.319,68.1217,-0.030535
148.349,68.1157,-0.030535
148.380,68.1095,-0.030535
148.411,68.1031,-0.030535
148.442,68.0971,-0.030535
148.473,68.0909,-0.030535
148.504,68.0848,-0.030535
148.535,68.0786,-0.030535
148.567,68.0721,-0.010015
148.597,68.0662,-0.010015
148.628,68.0600,-0.010015
148.660,68.0536,-0.010015
148.691,68.0473,-0.010015
148.722,68.0411,-0.010015
148.753,68.0349,-0.010015
148.784,68.0287,0.008225
148.815,68.0226,0.008225
148.847,68.0162,0.008225
148.877,68.0100,0.008225
148.909,68.0038,0.008225
148.940,67.9976,0.008225
148.971,67.9915,0.008225
149.002,67.9852,0.008225
149.033,67.9789,0.024807
149.065,67.9727,0.024807
149.096,67.9665,0.024807
149.126,67.9601,0.024807
149.158,67.9541,0.024807
149.189,67.9477,0.024807
149.220,67.9417,0.024807
149.250,67.9356,0.024807
149.281,67.9294,0.039787
149.312,67.9232,0.039787
149.345,67.9166,0.039787
149.374,67.9108,0.039787
149.406,67.9044,0.039787
149.437,67.8981,0.039787
149.468,67.8919,0.039787
149.500,67.8856,0.039787
149.531,67.8793,0.053496
149.562,67.8732,0.053496
149.593,67.8669,0.053496
149.624,67.8607,0.053496
149.655,67.8543,0.053496
149.686,67.8484,0.053496
149.717,67.8422,0.053496
149.748,67.8361,0.053496
149.779,67.8299,0.053496
149.810,67.8237,0.066639
149.841,67.8173,0.066639
149.872,67.8111,0.066639
149.903,67.8050,0.066639
149.935,67.7987,0.066639
149.966,67.7923,0.066639
149.998,67.7861,0.066639
150.028,67.7799,0.066639
150.059,67.7736,0.079273
150.089,67.7676,0.079273
150.120,67.7616,0.079273
150.152,67.7551,0.079273
150.182,67.7492,0.079273
150.213,67.7430,0.079273
150.244,67.7366,0.079273
150.275,67.7303,0.079273
150.306,67.7244,0.092134
150.338,67.7179,0.092134
150.368,67.7120,0.092134
150.399,67.7056,0.092134
150.430,67.6997,0.092134
150.461,67.6932,0.092134
150.492,67.6873,0.092134
150.523,67.6808,0.092134
150.555,67.6746,0.105428
150.586,67.6684,0.105428
150.617,67.6621,0.105428
150.648,67.6560,0.105428
150.679,67.6499,0.105428
150.709,67.6439,0.105428
150.739,67.6378,0.105428
150.770,67.6316,0.105428
150.800,67.6255,0.105428
150.832,67.6192,0.119607
150.863,67.6130,0.119607
150.895,67.6065,0.119607
150.926,67.6003,0.119607
150.958,67.5940,0.119607
150.989,67.5878,0.119607
151.020,67.5816,0.119607
151.051,67.5754,0.134983
151.083,67.5691,0.134983
151.112,67.5631,0.134983
151.144,67.5568,0.134983
151.175,67.5506,0.134983
151.205,67.5445,0.134983
151.237,67.5381,0.134983
151.268,67.5320,0.134983
151.299,67.5257,0.151697
151.330,67.5197,0.151697
151.360,67.5135,0.151697
151.391,67.5073,0.151697
151.422,67.5012,0.151697
151.453,67.4950,0.151697
151.484,67.4887,0.151697
151.515,67.4825,0.151697
151.547,67.4762,0.170135
151.576,67.4702,0.170135
151.607,67.4642,0.170135
151.638,67.4580,0.170135
151.669,67.4518,0.170135
151.700,67.4454,0.170135
151.731,67.4392,0.170135
151.762,67.4332,0.170135
151.794,67.4267,0.190062
151.826,67.4205,0.190062
151.857,67.4142,0.190062
151.887,67.4081,0.190062
151.919,67.4017,0.190062
151.951,67.3955,0.190062
151.983,67.3890,0.190062
152.014,67.3827,0.190062
152.044,67.3767,0.190062
152.075,67.3706,0.211675
152.107,67.3642,0.211675
152.138,67.3580,0.211675
152.168,67.3519,0.211675
152.200,67.3455,0.211675
152.230,67.3395,0.211675
152.261,67.3333,0.211675
152.292,67.3271,0.234918
152.324,67.3209,0.234918
152.354,67.3147,0.234918
152.385,67.3084,0.234918
152.416,67.3024,0.234918
152.447,67.2962,0.234918
152.478,67.2900,0.234918
152.510,67.2836,0.234918
152.540,67.2776,0.259433
152.571,67.2714,0.259433
152.602,67.2652,0.259433
152.633,67.2590,0.259433
152.664,67.2526,0.259433
152.696,67.2464,0.259433
152.727,67.2401,0.259433
152.758,67.2340,0.259433
152.789,67.2279,0.284740
152.819,67.2216,0.284740
152.850,67.2155,0.284740
152.881,67.2095,0.284740
152.912,67.2033,0.284740
152.944,67.1968,0.284740
152.974,67.1908,0.284740
153.004,67.1849,0.284740
153.033,67.1789,0.309810
153.065,67.1726,0.309810
153.096,67.1664,0.309810
153.128,67.1601,0.309810
153.159,67.1537,0.309810
153.190,67.1477,0.309810
153.221,67.1415,0.309810
153.252,67.1351,0.309810
153.283,67.1290,0.332337
153.314,67.1227,0.332337
153.345,67.1166,0.332337
153.377,67.1101,0.332337
153.408,67.1040,0.332337
153.438,67.0978,0.332337
153.469,67.0918,0.332337
153.501,67.0853,0.332337
153.532,67.0792,0.332337
153.563,67.0729,0.352698
153.594,67.0668,0.352698
153.625,67.0605,0.352698
153.656,67.0545,0.352698
153.686,67.0483,0.352698
153.716,67.0425,0.352698
153.747,67.0362,0.352698
153.779,67.0298,0.372954
153.809,67.0239,0.372954
153.839,67.0176,0.372954
153.870,67.0116,0.372954
153.902,67.0050,0.372954
153.933,66.9989,0.372954
153.965,66.9925,0.372954
153.996,66.9864,0.372954
154.027,66.9801,0.372954
154.057,66.9741,0.392655
154.088,66.9679,0.392655
154.119,66.9619,0.392655
154.150,66.9555,0.392655
154.181,66.9493,0.392655
154.213,66.9430,0.392655
154.244,66.9368,0.392655
154.276,66.9305,0.411177
154.306,66.9243,0.411177
154.338,66.9181,0.411177
154.369,66.9116,0.411177
154.400,66.9056,0.411177
154.431,66.8995,0.411177
154.462,66.8933,0.411177
154.493,66.8871,0.411177
154.523,66.8809,0.427938
154.554,66.8748,0.427938
154.585,66.8685,0.427938
154.617,66.8622,0.427938
154.648,66.8561,0.427938
154.679,66.8497,0.427938
154.710,66.8437,0.427938
154.740,66.8376,0.427938
154.772,66.8313,0.442354
154.803,66.8249,0.442354
154.834,66.8189,0.442354
154.865,66.8125,0.442354
154.896,66.8065,0.442354
154.927,66.8001,0.442354
154.957,66.7943,0.442354
154.988,66.7880,0.442354
155.019,66.7818,0.453989
155.050,66.7756,0.453989
155.081,66.7693,0.453989
155.113,66.7631,0.453989
155.144,66.7567,0.453989
155.176,66.7504,0.453989
155.206,66.7445,0.453989
155.236,66.7384,0.453989
155.268,66.7319,0.462120
155.299,66.7257,0.462120
155.330,66.7195,0.462120
155.361,66.7134,0.462120
155.393,66.7069,0.462120
155.425,66.7007,0.462120
155.456,66.6943,0.462120
155.486,66.6883,0.462120
155.518,66.6821,0.466021
155.549,66.6756,0.466021
155.581,66.6694,0.466021
155.612,66.6631,0.466021
155.643,66.6569,0.466021
155.674,66.6508,0.466021
155.708,66.6440,0.466021
155.737,66.6382,0.466021
155.767,66.6322,0.466021
155.798,66.6259,0.466021
155.829,66.6197,0.462516
155.860,66.6136,0.462516
155.890,66.6074,0.462516
155.922,66.6013,0.462516
155.954,66.5948,0.462516
155.985,66.5886,0.462516
156.017,66.5822,0.462516
156.048,66.5760,0.443616
156.080,66.5696,0.443616
156.111,66.5634,0.443616
156.143,66.5569,0.443616
156.174,66.5507,0.443616
156.205,66.5447,0.443616
156.235,66.5386,0.443616
156.267,66.5322,0.443616
156.297,66.5262,0.443616
156.328,66.5201,0.374942
156.359,66.5136,0.374942
156.391,66.5073,0.374942
156.422,66.5011,0.374942
156.453,66.4950,0.374942
156.484,66.4888,0.374942
156.514,66.4828,0.374942
156.546,66.4764,0.181997
156.577,66.4702,0.181997
156.608,66.4642,0.181997
156.639,66.4577,0.181997
156.670,66.4516,0.181997
156.701,66.4453,0.181997
156.733,66.4391,0.181997
156.764,66.4328,0.181997
156.795,66.4266,0.181997
156.827,66.4201,0.034313
156.857,66.4142,0.034313
156.889,66.4077,0.034313
156.920,66.4017,0.034313
156.951,66.3953,0.034313
156.983,66.3891,0.034313
157.015,66.3827,0.034313
157.046,66.3764,0.025306
157.078,66.3699,0.025306
157.109,66.3638,0.025306
157.140,66.3575,0.025306
157.171,66.3512,0.025306
157.201,66.3455,0.025306
157.232,66.3391,0.025306
157.263,66.3331,0.025306
157.294,66.3269,0.025014
157.325,66.3207,0.025014
157.357,66.3143,0.025014
157.389,66.3078,0.025014
157.418,66.3019,0.025014
157.448,66.2959,0.025014
157.479,66.2898,0.025014
157.509,66.2837,0.025014
157.542,66.2771,0.024873
157.573,66.2711,0.024873
157.604,66.2649,0.024873
157.635,66.2587,0.024873
157.666,66.2525,0.024873
157.697,66.2460,0.024873
157.728,66.2400,0.024873
157.760,66.2337,0.024760
157.791,66.2275,0.024760
157.822,66.2211,0.024760
157.853,66.2149,0.024760
157.884,66.2087,0.024760
157.915,66.2027,0.024760
157.945,66.1966,0.024760
157.976,66.1903,0.024760
158.007,66.1841,0.024760
158.039,66.1778,0.024675
158.070,66.1716,0.024675
158.101,66.1655,0.024675
158.132,66.1592,0.024675
158.164,66.1527,0.024675
158.193,66.1469,0.024675
158.226,66.1406,0.024675
158.256,66.1343,0.024675
158.287,66.1283,0.024637
158.318,66.1221,0.024637
158.348,66.1160,0.024637
158.380,66.1096,0.024637
158.411,66.1034,0.024637
158.442,66.0973,0.024637
158.473,66.0910,0.024637
158.505,66.0846,0.024637
158.536,66.0783,0.024609
158.567,66.0722,0.024609
158.598,66.0659,0.024609
158.630,66.0597,0.024609
158.661,66.0533,0.024609
158.692,66.0473,0.024609
158.722,66.0411,0.024609
158.754,66.0349,0.024609
158.784,66.0288,0.024487
158.815,66.0225,0.024487
158.846,66.0163,0.024487
158.877,66.0101,0.024487
158.909,66.0039,0.024487
158.940,65.9976,0.024487
158.971,65.9914,0.024487
159.002,65.9852,0.024487
159.033,65.9790,0.024487
159.064,65.9728,0.024449
159.094,65.9670,0.024449
159.125,65.9607,0.024449
159.155,65.9545,0.024449
159.186,65.9485,0.024449
159.218,65.9421,0.024449
159.249,65.9358,0.024449
159.280,65.9296,0.024440
159.311,65.9234,0.024440
159.342,65.9173,0.024440
159.373,65.9110,0.024440
159.403,65.9049,0.024440
159.435,65.8986,0.024440
159.466,65.8924,0.024440
159.498,65.8860,0.024440
159.529,65.8798,0.024430
159.560,65.8737,0.024430
159.591,65.8672,0.024430
159.622,65.8612,0.024430
159.653,65.8550,0.024430
159.684,65.8489,0.024430
159.715,65.8426,0.024430
159.747,65.8364,0.024430
159.778,65.8300,0.024496
159.809,65.8238,0.024496
159.840,65.8175,0.024496
159.871,65.8113,0.024496
159.902,65.8052,0.024496
159.933,65.7991,0.024496
159.964,65.7929,0.024496
159.994,65.7867,0.024496
160.025,65.7808,0.024487
160.055,65.7747,0.024487
160.086,65.7685,0.024487
160.118,65.7621,0.024487
160.149,65.7559,0.024487
160.179,65.7497,0.024487
160.211,65.7433,0.024487
160.242,65.7371,0.024487
160.274,65.7309,0.024496
160.305,65.7247,0.024496
160.336,65.7185,0.024496
160.367,65.7123,0.024496
160.398,65.7061,0.024496
160.428,65.7001,0.024496
160.458,65.6939,0.024496
160.490,65.6878,0.024496
160.521,65.6816,0.024506
160.552,65.6752,0.024506
160.583,65.6690,0.024506
160.614,65.6628,0.024506
160.645,65.6566,0.024506
160.676,65.6503,0.024506
160.707,65.6442,0.024506
160.738,65.6380,0.024506
160.768,65.6320,0.024506
160.800,65.6256,0.024487
160.831,65.6196,0.024487
160.862,65.6132,0.024487
160.892,65.6072,0.024487
160.923,65.6008,0.024487
160.954,65.5949,0.024487
160.986,65.5884,0.024487
161.018,65.5821,0.024524
161.049,65.5758,0.024524
161.081,65.5695,0.024524
161.112,65.5633,0.024524
161.142,65.5572,0.024524
161.173,65.5510,0.024524
161.204,65.5448,0.024524
161.235,65.5386,0.024524
161.267,65.5324,0.024524
161.298,65.5260,0.024524
161.329,65.5198,0.024524
161.360,65.5136,0.024524
161.392,65.5081,0.024524
161.423,65.5034,0.024524
161.454,65.4994,0.024524
161.485,65.4962,0.024524
161.516,65.4934,0.024421
161.547,65.4917,0.024421
161.578,65.4906,0.024421
161.609,65.4902,0.024421
161.640,65.4902,0.024421
161.671,65.4902,0.024421
161.703,65.4903,0.024421
161.733,65.4909,0.024421
161.765,65.4923,0.024421
161.796,65.4945,0.024421
161.826,65.4973,0.024166
161.857,65.5010,0.024166
161.888,65.5052,0.024166
161.919,65.5103,0.024166
161.951,65.5162,0.024166
161.981,65.5222,0.024166
162.012,65.5284,0.024166
162.044,65.5349,0.024166
162.075,65.5409,0.023695
162.105,65.5471,0.023695
162.136,65.5532,0.023695
162.168,65.5594,0.023695
162.199,65.5659,0.023695
162.230,65.5721,0.023695
162.262,65.5785,0.023695
162.294,65.5847,0.023281
162.325,65.5910,0.023281
162.357,65.5974,0.023281
162.388,65.6036,0.023281
162.419,65.6098,0.023281
162.450,65.6158,0.023281
162.481,65.6222,0.023281
162.512,65.6284,0.023281
162.543,65.6346,0.023281
162.576,65.6411,0.023139
162.606,65.6471,0.023139
162.636,65.6532,0.023139
162.668,65.6596,0.023139
162.699,65.6657,0.023139
162.730,65.6719,0.023139
162.760,65.6780,0.023139
162.792,65.6843,0.023139
162.823,65.6906,0.023036
162.853,65.6966,0.023036
162.884,65.7029,0.023036
162.915,65.7090,0.023036
162.946,65.7152,0.023036
162.978,65.7215,0.023036
163.008,65.7276,0.023036
163.040,65.7340,0.022904
163.071,65.7401,0.022904
163.102,65.7466,0.022904
163.133,65.7526,0.022904
163.165,65.7591,0.022904
163.196,65.7650,0.022904
163.227,65.7715,0.022904
163.258,65.7776,0.022904
163.290,65.7840,0.022904
163.321,65.7901,0.022838
163.352,65.7965,0.022838
163.384,65.8027,0.022838
163.414,65.8088,0.022838
163.445,65.8150,0.022838
163.476,65.8212,0.022838
163.506,65.8272,0.022838
163.538,65.8335,0.022687
163.569,65.8398,0.022687
163.599,65.8457,0.022687
163.629,65.8520,0.022687
163.661,65.8582,0.022687
163.692,65.8645,0.022687
163.724,65.8707,0.022687
163.754,65.8769,0.022687
163.785,65.8829,0.022687
163.816,65.8892,0.022565
163.847,65.8954,0.022565
163.879,65.9018,0.022565
163.910,65.9080,0.022565
163.941,65.9140,0.022565
163.972,65.9202,0.022565
164.003,65.9265,0.022565
164.033,65.9327,0.022565
164.064,65.9387,0.022555
164.096,65.9450,0.022555
164.126,65.9511,0.022555
164.157,65.9573,0.022555
164.187,65.9635,0.022555
164.218,65.9696,0.022555
164.248,65.9756,0.022555
164.279,65.9817,0.022555
164.309,65.9878,0.022433
164.341,65.9942,0.022433
164.372,66.0004,0.022433
164.402,66.0065,0.022433
164.433,66.0125,0.022433
164.464,66.0189,0.022433
164.495,66.0250,0.022433
164.527,66.0314,0.022301
164.558,66.0374,0.022301
164.589,66.0440,0.022301
164.620,66.0500,0.022301
164.651,66.0562,0.022301
164.682,66.0623,0.022301
164.714,66.0688,0.022301
164.746,66.0751,0.022301
164.777,66.0814,0.022207
164.807,66.0873,0.022207
164.838,66.0936,0.022207
164.870,66.0999,0.022207
164.899,66.1059,0.022207
164.929,66.1118,0.022207
164.961,66.1180,0.022207
164.992,66.1245,0.022207
165.022,66.1304,0.022112
165.054,66.1366,0.022112
165.085,66.1429,0.022112
165.116,66.1493,0.022112
165.148,66.1556,0.022112
165.179,66.1618,0.022112
165.209,66.1677,0.022112
165.240,66.1739,0.022112
165.271,66.1801,0.021952
165.303,66.1865,0.021952
165.333,66.1924,0.021952
165.365,66.1989,0.021952
165.395,66.2050,0.021952
165.425,66.2110,0.021952
165.457,66.2174,0.021952
165.488,66.2236,0.021952
165.519,66.2296,0.021868
165.550,66.2361,0.021868
165.581,66.2422,0.021868
165.612,66.2485,0.021868
165.644,66.2547,0.021868
165.675,66.2611,0.021868
165.706,66.2670,0.021868
165.737,66.2734,0.021868
165.767,66.2794,0.021754
165.798,66.2856,0.021754
165.829,66.2916,0.021754
165.861,66.2981,0.021754
165.891,66.3042,0.021754
165.922,66.3105,0.021754
165.953,66.3164,0.021754
165.984,66.3228,0.021754
166.015,66.3289,0.021660
166.044,66.3348,0.021660
166.076,66.3410,0.021660
166.107,66.3472,0.021660
166.137,66.3534,0.021660
166.168,66.3595,0.021660
166.199,66.3658,0.021660
166.230,66.3720,0.021660
166.261,66.3783,0.021660
166.292,66.3844,0.021660
166.322,66.3905,0.021566
166.354,66.3967,0.021566
166.385,66.4031,0.021566
166.415,66.4091,0.021566
166.447,66.4152,0.021566
166.477,66.4214,0.021566
166.509,66.4276,0.021566
166.540,66.4340,0.021368
166.571,66.4400,0.021368
166.602,66.4462,0.021368
166.633,66.4524,0.021368
166.664,66.4587,0.021368
166.694,66.4648,0.021368
166.725,66.4711,0.021368
166.756,66.4772,0.021368
166.787,66.4833,0.021368
166.818,66.4897,0.021265
166.849,66.4958,0.021265
166.880,66.5021,0.021265
166.911,66.5081,0.021265
166.942,66.5144,0.021265
166.972,66.5203,0.021265
167.004,66.5268,0.021265
167.034,66.5327,0.021123
167.066,66.5392,0.021123
167.096,66.5451,0.021123
167.127,66.5513,0.021123
167.158,66.5577,0.021123
167.189,66.5636,0.021123
167.220,66.5700,0.021123
167.253,66.5764,0.021123
167.282,66.5825,0.021123
167.314,66.5888,0.020888
167.345,66.5950,0.020888
167.375,66.6010,0.020888
167.407,66.6074,0.020888
167.438,66.6134,0.020888
167.469,66.6198,0.020888
167.501,66.6261,0.020888
167.532,66.6323,0.020737
167.564,66.6387,0.020737
167.595,66.6449,0.020737
167.625,66.6511,0.020737
167.656,66.6571,0.020737
167.687,66.6633,0.020737
167.718,66.6695,0.020737
167.749,66.6757,0.020737
167.781,66.6821,0.020539
167.812,66.6883,0.020539
167.843,66.6946,0.020539
167.874,66.7007,0.020539
167.904,66.7069,0.020539
167.935,66.7130,0.020539
167.967,66.7193,0.020539
167.998,66.7255,0.020539
168.029,66.7317,0.020304
168.060,66.7379,0.020304
168.091,66.7441,0.020304
168.122,66.7504,0.020304
168.153,66.7566,0.020304
168.184,66.7626,0.020304
168.214,66.7688,0.020304
168.245,66.7750,0.020304
168.276,66.7810,0.020077
168.308,66.7876,0.020077
168.339,66.7937,0.020077
168.370,66.8000,0.020077
168.401,66.8062,0.020077
168.431,66.8122,0.020077
168.462,66.8184,0.020077
168.494,66.8247,0.020077
168.525,66.8309,0.019823
168.556,66.8372,0.019823
168.588,66.8434,0.019823
168.620,66.8500,0.019823
168.652,66.8562,0.019823
168.683,66.8626,0.019823
168.714,66.8687,0.019823
168.746,66.8752,0.019823
168.777,66.8814,0.019531
168.809,66.8877,0.019531
168.840,66.8938,0.019531
168.871,66.9001,0.019531
168.902,66.9062,0.019531
168.933,66.9125,0.019531
168.964,66.9188,0.019531
168.995,66.9252,0.019531
169.026,66.9311,0.019531
169.057,66.9373,0.019173
169.089,66.9438,0.019173
169.120,66.9498,0.019173
169.152,66.9562,0.019173
169.183,66.9625,0.019173
169.213,66.9686,0.019173
169.245,66.9750,0.019173
169.275,66.9810,0.018777
169.307,66.9873,0.018777
169.338,66.9935,0.018777
169.369,66.9997,0.018777
169.399,67.0058,0.018777
169.430,67.0118,0.018777
169.461,67.0182,0.018777
169.493,67.0245,0.018777
169.523,67.0306,0.018777
169.555,67.0370,0.018316
169.585,67.0429,0.018316
169.616,67.0491,0.018316
169.647,67.0551,0.018316
169.678,67.0615,0.018316
169.710,67.0679,0.018316
169.741,67.0741,0.018316
169.773,67.0804,0.017807
169.804,67.0868,0.017807
169.836,67.0931,0.017807
169.867,67.0993,0.017807
169.899,67.1056,0.017807
169.930,67.1121,0.017807
169.961,67.1180,0.017807
169.992,67.1242,0.017807
170.023,67.1304,0.017232
170.054,67.1367,0.017232
170.085,67.1429,0.017232
170.116,67.1491,0.017232
170.148,67.1555,0.017232
170.178,67.1615,0.017232
170.209,67.1679,0.017232
170.240,67.1739,0.017232
170.271,67.1803,0.016573
170.302,67.1863,0.016573
170.333,67.1927,0.016573
170.364,67.1986,0.016573
170.395,67.2050,0.016573
170.425,67.2110,0.016573
170.456,67.2171,0.016573
170.488,67.2236,0.016573
170.519,67.2296,0.015696
170.551,67.2362,0.015696
170.582,67.2423,0.015696
170.613,67.2486,0.015696
170.645,67.2548,0.015696
170.676,67.2613,0.015696
170.708,67.2675,0.015696
170.739,67.2737,0.015696
170.769,67.2799,0.014745
170.801,67.2861,0.014745
170.832,67.2924,0.014745
170.863,67.2985,0.014745
170.894,67.3048,0.014745
170.925,67.3110,0.014745
170.957,67.3174,0.014745
170.989,67.3236,0.014745
171.019,67.3298,0.013614
171.050,67.3359,0.013614
171.082,67.3424,0.013614
171.112,67.3483,0.013614
171.143,67.3545,0.013614
171.174,67.3608,0.013614
171.206,67.3671,0.013614
171.238,67.3734,0.013614
171.267,67.3793,0.013614
171.300,67.3859,0.012220
171.329,67.3917,0.012220
171.360,67.3981,0.012220
171.392,67.4041,0.012220
171.423,67.4106,0.012220
171.454,67.4167,0.012220
171.485,67.4229,0.012220
171.516,67.4291,0.010618
171.547,67.4353,0.010618
171.578,67.4417,0.010618
171.610,67.4478,0.010618
171.640,67.4539,0.010618
171.672,67.4602,0.010618
171.703,67.4664,0.010618
171.733,67.4725,0.010618
171.764,67.4788,0.010618
171.795,67.4847,0.010618
171.825,67.4911,0.008583
171.856,67.4972,0.008583
171.888,67.5036,0.008583
171.920,67.5098,0.008583
171.952,67.5163,0.008583
171.983,67.5225,0.008583
172.015,67.5289,0.008583
172.046,67.5351,0.006209
172.078,67.5414,0.006209
172.110,67.5478,0.006209
172.140,67.5540,0.006209
172.171,67.5602,0.006209
172.202,67.5665,0.006209
172.234,67.5726,0.006209
172.265,67.5789,0.006209
172.297,67.5852,0.003373
172.328,67.5914,0.003373
172.360,67.5977,0.003373
172.389,67.6038,0.003373
172.420,67.6099,0.003373
172.451,67.6162,0.003373
172.482,67.6222,0.003373
172.513,67.6285,0.003373
172.544,67.6347,-0.000066
172.576,67.6411,-0.000066
172.607,67.6472,-0.000066
172.639,67.6538,-0.000066
172.671,67.6600,-0.000066
172.702,67.6664,-0.000066
172.734,67.6726,-0.000066
172.765,67.6791,-0.000066
172.796,67.6850,-0.004202
172.827,67.6912,-0.004202
172.858,67.6974,-0.004202
172.890,67.7039,-0.004202
172.922,67.7102,-0.004202
172.951,67.7162,-0.004202
172.982,67.7224,-0.004202
173.013,67.7286,-0.009148
173.045,67.7348,-0.009148
173.077,67.7412,-0.009148
173.108,67.7474,-0.009148
173.139,67.7538,-0.009148
173.171,67.7601,-0.009148
173.202,67.7662,-0.009148
173.232,67.7724,-0.009148
173.264,67.7787,-0.009148
173.295,67.7849,-0.014943
173.328,67.7913,-0.014943
173.357,67.7972,-0.014943
173.389,67.8037,-0.014943
173.418,67.8096,-0.014943
173.450,67.8160,-0.014943
173.481,67.8220,-0.014943
173.513,67.8284,-0.014943
173.544,67.8347,-0.021830
173.576,67.8411,-0.021830
173.607,67.8471,-0.021830
173.637,67.8533,-0.021830
173.667,67.8592,-0.021830
173.698,67.8655,-0.021830
173.729,67.8717,-0.021830
173.759,67.8778,-0.029810
173.790,67.8840,-0.029810
173.820,67.8901,-0.029810
173.852,67.8964,-0.029810
173.883,67.9025,-0.029810
173.915,67.9089,-0.029810
173.946,67.9151,-0.029810
173.977,67.9213,-0.029810
174.008,67.9275,-0.029810
174.040,67.9340,-0.039156
174.071,67.9400,-0.039156
174.102,67.9464,-0.039156
174.134,67.9526,-0.039156
174.165,67.9590,-0.039156
174.197,67.9652,-0.039156
174.228,67.9717,-0.039156
174.260,67.9777,-0.039156
174.291,67.9841,-0.039156
174.321,67.9901,-0.050076
174.353,67.9965,-0.050076
174.384,68.0028,-0.050076
174.415,68.0089,-0.050076
174.447,68.0152,-0.050076
174.478,68.0214,-0.050076
174.508,68.0275,-0.050076
174.540,68.0338,-0.050076
174.570,68.0399,-0.062644
174.601,68.0462,-0.062644
174.632,68.0523,-0.062644
174.663,68.0585,-0.062644
174.695,68.0649,-0.062644
174.724,68.0706,-0.062644
174.756,68.0770,-0.062644
174.787,68.0834,-0.062644
174.817,68.0892,-0.077219
174.849,68.0956,-0.077219
174.880,68.1018,-0.077219
174.911,68.1081,-0.077219
174.944,68.1145,-0.077219
174.973,68.1205,-0.077219
175.004,68.1267,-0.077219
175.034,68.1328,-0.077219
175.065,68.1390,-0.093792
175.096,68.1450,-0.093792
175.127,68.1514,-0.093792
175.159,68.1577,-0.093792
175.190,68.1640,-0.093792
175.222,68.1702,-0.093792
175.252,68.1764,-0.093792
175.284,68.1826,-0.112824
175.315,68.1888,-0.112824
175.345,68.1949,-0.112824
175.376,68.2011,-0.112824
175.408,68.2077,-0.112824
175.440,68.2138,-0.112824
175.471,68.2200,-0.112824
175.503,68.2264,-0.112824
175.534,68.2326,-0.112824
175.565,68.2389,-0.134277
175.596,68.2450,-0.134277
175.626,68.2512,-0.134277
175.657,68.2573,-0.134277
175.689,68.2636,-0.134277
175.720,68.2698,-0.134277
175.751,68.2763,-0.134277
175.783,68.2823,-0.158189
175.814,68.2888,-0.158189
175.846,68.2949,-0.158189
175.878,68.3014,-0.158189
175.908,68.3075,-0.158189
175.939,68.3138,-0.158189
175.970,68.3198,-0.158189
176.000,68.3259,-0.158189
176.031,68.3321,-0.184729
176.063,68.3384,-0.184729
176.095,68.3450,-0.184729
176.127,68.3512,-0.184729
176.157,68.3574,-0.184729
176.188,68.3635,-0.184729
176.219,68.3697,-0.184729
176.250,68.3759,-0.184729
176.281,68.3821,-0.214181
176.311,68.3881,-0.214181
176.343,68.3945,-0.214181
176.375,68.4009,-0.214181
176.405,68.4069,-0.214181
176.435,68.4129,-0.214181
176.466,68.4190,-0.214181
176.497,68.4252,-0.214181
176.528,68.4317,-0.247006
176.559,68.4376,-0.247006
176.590,68.4439,-0.247006
176.622,68.4501,-0.247006
176.653,68.4568,-0.247006
176.685,68.4629,-0.247006
176.715,68.4686,-0.247006
176.746,68.4738,-0.247006
176.777,68.4784,-0.283147
176.808,68.4821,-0.283147
176.839,68.4851,-0.283147
176.870,68.4875,-0.283147
176.901,68.4891,-0.283147
176.933,68.4901,-0.283147
176.964,68.4902,-0.283147
176.995,68.4902,-0.283147
177.026,68.4902,-0.313947
177.057,68.4902,-0.313947
177.088,68.4902,-0.313947
177.119,68.4902,-0.313947
177.150,68.4902,-0.313947
177.181,68.4902,-0.313947
177.212,68.4902,-0.313947
177.243,68.4902,-0.313947
177.274,68.4902,-0.313947
177.306,68.4902,-0.323425
177.336,68.4902,-0.323425
177.367,68.4902,-0.323425
177.398,68.4902,-0.323425
177.429,68.4902,-0.323425
177.461,68.4902,-0.323425
177.492,68.4902,-0.323425
177.523,68.4902,-0.318422
177.553,68.4902,-0.318422
177.585,68.4902,-0.318422
177.616,68.4902,-0.318422
177.647,68.4902,-0.318422
177.678,68.4902,-0.318422
177.709,68.4902,-0.318422
177.740,68.4902,-0.318422
177.771,68.4902,-0.318422
177.802,68.4902,-0.313852
177.832,68.4902,-0.313852
177.863,68.4902,-0.313852
177.894,68.4902,-0.313852
177.925,68.4902,-0.313852
177.957,68.4902,-0.313852
177.988,68.4902,-0.313852
178.019,68.4902,-0.310206
178.051,68.4902,-0.310206
178.082,68.4902,-0.310206
178.113,68.4902,-0.310206
178.145,68.4902,-0.310206
178.176,68.4902,-0.310206
178.207,68.4902,-0.310206
178.238,68.4902,-0.310206
178.269,68.4902,-0.307154
178.300,68.4902,-0.307154
178.330,68.4902,-0.307154
178.362,68.4902,-0.307154
178.393,68.4902,-0.307154
178.422,68.4902,-0.307154
178.453,68.4902,-0.307154
178.484,68.4902,-0.307154
178.514,68.4902,-0.304506
178.546,68.4902,-0.304506
178.578,68.4902,-0.304506
178.608,68.4902,-0.304506
178.639,68.4902,-0.304506
178.670,68.4902,-0.304506
178.701,68.4902,-0.304506
178.732,68.4902,-0.304506
178.764,68.4902,-0.304506
178.794,68.4902,-0.304506
178.826,68.4902,-0.302132
178.856,68.4902,-0.302132
178.887,68.4902,-0.302132
178.919,68.4902,-0.302132
178.950,68.4902,-0.302132
178.980,68.4902,-0.302132
179.011,68.4902,-0.302132
179.042,68.4902,-0.300059
179.072,68.4902,-0.300059
179.104,68.4902,-0.300059
179.135,68.4902,-0.300059
179.166,68.4902,-0.300059
179.198,68.4902,-0.300059
179.229,68.4902,-0.300059
179.260,68.4902,-0.300059
179.291,68.4902,-0.298194
179.322,68.4902,-0.298194
179.353,68.4902,-0.298194
179.384,68.4902,-0.298194
179.415,68.4902,-0.298194
179.447,68.4902,-0.298194
179.478,68.4902,-0.298194
179.508,68.4902,-0.298194
179.539,68.4902,-0.296451
179.571,68.4902,-0.296451
179.603,68.4902,-0.296451
179.633,68.4902,-0.296451
179.664,68.4902,-0.296451
179.696,68.4902,-0.296451
179.727,68.4902,-0.296451
179.758,68.4902,-0.296451
179.790,68.4902,-0.294858
179.820,68.4902,-0.294858
179.852,68.4902,-0.294858
179.884,68.4902,-0.294858
179.915,68.4902,-0.294858
179.946,68.4902,-0.294858
179.977,68.4902,-0.294858
180.008,68.4902,-0.294858
180.040,68.4902,-0.294858
180.071,68.4902,-0.293351
180.103,68.4902,-0.293351
180.134,68.4902,-0.293351
180.165,68.4902,-0.293351
180.196,68.4902,-0.293351
180.227,68.4902,-0.293351
180.258,68.4902,-0.293351
180.290,68.4902,-0.291975
180.320,68.4902,-0.291975
180.351,68.4902,-0.291975
180.382,68.4902,-0.291975
180.412,68.4902,-0.291975
180.443,68.4902,-0.291975
180.474,68.4902,-0.291975
180.505,68.4902,-0.291975
180.536,68.4902,-0.291975
180.568,68.4902,-0.290675
180.598,68.4902,-0.290675
180.629,68.4902,-0.290675
180.661,68.4902,-0.290675
180.691,68.4902,-0.290675
180.722,68.4902,-0.290675
180.753,68.4902,-0.290675
180.784,68.4902,-0.289318
180.816,68.4902,-0.289318
180.848,68.4902,-0.289318
180.878,68.4902,-0.289318
180.910,68.4902,-0.289318
180.940,68.4902,-0.289318
180.971,68.4902,-0.289318
181.003,68.4902,-0.286784
181.033,68.4902,-0.286784
181.064,68.4902,-0.286784
181.095,68.4902,-0.286784
181.126,68.4902,-0.286784
181.157,68.4902,-0.286784
181.187,68.4902,-0.286784
181.218,68.4902,-0.286784
181.249,68.4902,-0.286784
181.281,68.4902,-0.279737
181.314,68.4902,-0.279737
181.344,68.4902,-0.279737
181.374,68.4902,-0.279737
181.406,68.4902,-0.279737
181.438,68.4902,-0.279737
181.469,68.4902,-0.279737
181.500,68.4902,-0.279737
181.531,68.4902,-0.279737
181.562,68.4902,-0.272171
181.594,68.4902,-0.272171
181.625,68.4902,-0.272171
181.655,68.4896,-0.272171
181.686,68.4882,-0.272171
181.717,68.4861,-0.272171
181.749,68.4834,-0.272171
181.780,68.4798,-0.272171
181.811,68.4757,-0.269731
181.842,68.4705,-0.269731
181.874,68.4648,-0.269731
181.904,68.4586,-0.269731
181.935,68.4525,-0.269731
181.967,68.4459,-0.269731
181.999,68.4397,-0.269731
182.031,68.4332,-0.269731
182.063,68.4270,-0.256748
182.094,68.4206,-0.256748
182.124,68.4147,-0.256748
182.156,68.4081,-0.256748
182.187,68.4020,-0.256748
182.218,68.3959,-0.256748
182.249,68.3896,-0.256748
182.279,68.3837,-0.222029
182.310,68.3773,-0.222029
182.340,68.3715,-0.222029
182.371,68.3652,-0.222029
182.402,68.3591,-0.222029
182.433,68.3528,-0.222029
182.464,68.3467,-0.222029
182.497,68.3400,-0.222029
182.527,68.3341,-0.222029
182.559,68.3276,-0.180659
182.591,68.3214,-0.180659
182.621,68.3151,-0.180659
182.653,68.3088,-0.180659
182.685,68.3024,-0.180659
182.716,68.2964,-0.180659
182.746,68.2903,-0.180659
182.776,68.2842,-0.180659
182.808,68.2779,-0.143849
182.839,68.2718,-0.143849
182.870,68.2656,-0.143849
182.901,68.2593,-0.143849
182.933,68.2528,-0.143849
182.963,68.2467,-0.143849
182.994,68.2408,-0.143849
183.025,68.2346,-0.111015
183.055,68.2285,-0.111015
183.086,68.2223,-0.111015
183.117,68.2160,-0.111015
183.148,68.2099,-0.111015
183.179,68.2037,-0.111015
183.210,68.1975,-0.111015
183.241,68.1912,-0.111015
183.272,68.1851,-0.111015
183.304,68.1787,-0.081770
183.336,68.1723,-0.081770
183.367,68.1659,-0.081770
183.399,68.1598,-0.081770
183.429,68.1536,-0.081770
183.461,68.1474,-0.081770
183.492,68.1410,-0.081770
183.523,68.1349,-0.055672
183.554,68.1287,-0.055672
183.586,68.1222,-0.055672
183.618,68.1159,-0.055672
183.649,68.1096,-0.055672
183.680,68.1035,-0.055672
183.710,68.0975,-0.055672
183.741,68.0912,-0.055672
183.772,68.0849,-0.032307
183.803,68.0789,-0.032307
183.834,68.0727,-0.032307
183.866,68.0664,-0.032307
183.896,68.0605,-0.032307
183.927,68.0540,-0.032307
183.959,68.0478,-0.032307
183.990,68.0416,-0.032307
184.022,68.0352,-0.011673
184.053,68.0288,-0.011673
184.085,68.0226,-0.011673
184.116,68.0162,-0.011673
184.148,68.0099,-0.011673
184.177,68.0040,-0.011673
184.208,67.9980,-0.011673
184.240,67.9916,-0.011673
184.271,67.9854,0.006897
184.301,67.9792,0.006897
184.332,67.9729,0.006897
184.363,67.9670,0.006897
184.395,67.9605,0.006897
184.425,67.9544,0.006897
184.456,67.9483,0.006897
184.487,67.9421,0.006897
184.517,67.9362,0.006897
184.549,67.9296,0.006897
184.580,67.9235,0.023535
184.612,67.9172,0.023535
184.643,67.9109,0.023535
184.674,67.9047,0.023535
184.705,67.8986,0.023535
184.736,67.8923,0.023535
184.768,67.8857,0.023535
184.798,67.8799,0.038591
184.830,67.8734,0.038591
184.861,67.8674,0.038591
184.892,67.8610,0.038591
184.923,67.8550,0.038591
184.954,67.8486,0.038591
184.985,67.8426,0.038591
185.016,67.8362,0.038591
185.047,67.8300,0.038591
185.078,67.8238,0.052459
185.109,67.8178,0.052459
185.141,67.8113,0.052459
185.172,67.8051,0.052459
185.202,67.7990,0.052459
185.234,67.7928,0.052459
185.266,67.7862,0.052459
185.298,67.7800,0.052459
185.330,67.7735,0.065527
185.361,67.7673,0.065527
185.393,67.7609,0.065527
185.424,67.7547,0.065527
185.455,67.7485,0.065527
185.487,67.7422,0.065527
185.518,67.7359,0.065527
185.549,67.7297,0.078303
185.580,67.7236,0.078303
185.610,67.7175,0.078303
185.641,67.7115,0.078303
185.672,67.7051,0.078303
185.703,67.6989,0.078303
185.735,67.6925,0.078303
185.766,67.6863,0.078303
185.797,67.6802,0.078303
185.829,67.6739,0.090956
185.860,67.6676,0.090956
185.890,67.6616,0.090956
185.921,67.6552,0.090956
185.953,67.6490,0.090956
185.985,67.6425,0.090956
186.015,67.6364,0.104250
186.046,67.6304,0.104250
186.075,67.6244,0.104250
186.107,67.6181,0.104250
186.139,67.6116,0.104250
186.170,67.6054,0.104250
186.202,67.5990,0.104250
186.233,67.5930,0.104250
186.264,67.5868,0.104250
186.296,67.5804,0.118222
186.327,67.5742,0.118222
186.358,67.5678,0.118222
186.389,67.5616,0.118222
186.420,67.5556,0.118222
186.450,67.5495,0.118222
186.481,67.5433,0.118222
186.513,67.5370,0.118222
186.544,67.5308,0.133410
186.575,67.5247,0.133410
186.606,67.5185,0.133410
186.636,67.5123,0.133410
186.668,67.5061,0.133410
186.699,67.4996,0.133410
186.730,67.4934,0.133410
186.761,67.4872,0.133410
186.793,67.4809,0.149992
186.824,67.4746,0.149992
186.856,67.4685,0.149992
186.886,67.4623,0.149992
186.918,67.4560,0.149992
186.949,67.4498,0.149992
186.980,67.4436,0.149992
187.011,67.4374,0.149992
187.042,67.4310,0.167940
187.074,67.4247,0.167940
187.103,67.4189,0.167940
187.134,67.4127,0.167940
187.165,67.4064,0.167940
187.196,67.4003,0.167940
187.228,67.3938,0.167940
187.259,67.3876,0.167940
187.290,67.3814,0.187707
187.321,67.3755,0.187707
187.352,67.3693,0.187707
187.382,67.3631,0.187707
187.413,67.3570,0.187707
187.444,67.3507,0.187707
187.475,67.3446,0.187707
187.506,67.3383,0.187707
187.536,67.3323,0.209028
187.568,67.3260,0.209028
187.599,67.3197,0.209028
187.631,67.3133,0.209028
187.660,67.3074,0.209028
187.692,67.3011,0.209028
187.722,67.2951,0.209028
187.754,67.2889,0.209028
187.784,67.2827,0.232082
187.816,67.2764,0.232082
187.846,67.2703,0.232082
187.877,67.2642,0.232082
187.909,67.2579,0.232082
187.940,67.2516,0.232082
187.970,67.2455,0.232082
188.002,67.2392,0.232082
188.033,67.2330,0.256569
188.064,67.2268,0.256569
188.095,67.2206,0.256569
188.126,67.2145,0.256569
188.157,67.2082,0.256569
188.189,67.2019,0.256569
188.219,67.1958,0.256569
188.250,67.1897,0.256569
188.280,67.1836,0.282102
188.311,67.1774,0.282102
188.342,67.1712,0.282102
188.373,67.1650,0.282102
188.405,67.1586,0.282102
188.434,67.1527,0.282102
188.465,67.1465,0.282102
188.497,67.1402,0.282102
188.528,67.1339,0.308425
188.560,67.1274,0.308425
188.591,67.1214,0.308425
188.623,67.1150,0.308425
188.654,67.1088,0.308425
188.685,67.1026,0.308425
188.716,67.0962,0.308425
188.748,67.0900,0.308425
188.778,67.0840,0.308425
188.809,67.0777,0.334457
188.840,67.0716,0.334457
188.870,67.0654,0.334457
188.901,67.0593,0.334457
188.933,67.0530,0.334457
188.964,67.0467,0.334457
188.995,67.0406,0.334457
189.025,67.0345,0.359274
189.057,67.0282,0.359274
189.088,67.0220,0.359274
189.119,67.0157,0.359274
189.150,67.0097,0.359274
189.181,67.0033,0.359274
189.211,66.9975,0.359274
189.242,66.9911,0.359274
189.273,66.9849,0.359274
189.305,66.9787,0.382187
189.335,66.9725,0.382187
189.365,66.9665,0.382187
189.397,66.9603,0.382187
189.427,66.9538,0.382187
189.458,66.9480,0.382187
189.488,66.9419,0.382187
189.519,66.9358,0.382187
189.549,66.9297,0.403009
189.581,66.9233,0.403009
189.612,66.9172,0.403009
189.643,66.9109,0.403009
189.674,66.9048,0.403009
189.705,66.8985,0.403009
189.736,66.8923,0.403009
189.767,66.8861,0.403009
189.798,66.8800,0.422012
189.830,66.8736,0.422012
189.860,66.8676,0.422012
189.891,66.8612,0.422012
189.923,66.8551,0.422012
189.955,66.8485,0.422012
189.986,66.8423,0.422012
190.018,66.8359,0.422012
190.048,66.8299,0.439047
190.080,66.8235,0.439047
190.111,66.8174,0.439047
190.143,66.8108,0.439047
190.173,66.8051,0.439047
190.204,66.7987,0.439047
190.235,66.7926,0.439047
190.266,66.7864,0.453697
190.297,66.7800,0.453697
190.328,66.7740,0.453697
190.359,66.7676,0.453697
190.391,66.7614,0.453697
190.421,66.7552,0.453697
190.452,66.7492,0.453697
190.483,66.7428,0.453697
190.514,66.7369,0.465521
190.545,66.7304,0.465521
190.579,66.7239,0.465521
190.608,66.7179,0.465521
190.639,66.7117,0.465521
190.670,66.7054,0.465521
190.700,66.6994,0.465521
190.731,66.6932,0.465521
190.763,66.6870,0.465521
190.793,66.6810,0.473972
190.824,66.6748,0.473972
190.856,66.6684,0.473972
190.887,66.6621,0.473972
190.918,66.6559,0.473972
190.949,66.6498,0.473972
190.979,66.6437,0.473972
191.010,66.6374,0.473972
191.041,66.6313,0.478391
191.073,66.6249,0.478391
191.105,66.6187,0.478391
191.136,66.6122,0.478391
191.168,66.6060,0.478391
191.199,66.5997,0.478391
191.230,66.5935,0.478391
191.262,66.5871,0.478391
191.293,66.5810,0.477816
191.324,66.5748,0.477816
191.354,66.5688,0.477816
191.385,66.5625,0.477816
191.417,66.5558,0.477816
191.447,66.5500,0.477816
191.479,66.5439,0.477816
191.509,66.5378,0.477816
191.540,66.5316,0.468687
191.571,66.5252,0.468687
191.603,66.5190,0.468687
191.635,66.5127,0.468687
191.666,66.5065,0.468687
191.697,66.5001,0.468687
191.727,66.4942,0.468687
191.758,66.4880,0.468687
191.789,66.4819,0.442269
191.820,66.4756,0.442269
191.851,66.4691,0.442269
191.882,66.4632,0.442269
191.913,66.4568,0.442269
191.945,66.4506,0.442269
191.975,66.4444,0.442269
192.008,66.4380,0.442269
192.038,66.4320,0.442269
192.069,66.4258,0.280010
192.101,66.4195,0.280010
192.132,66.4133,0.280010
192.163,66.4071,0.280010
192.194,66.4009,0.280010
192.225,66.3946,0.280010
192.256,66.3883,0.280010
192.287,66.3822,0.081308
192.318,66.3760,0.081308
192.349,66.3699,0.081308
192.380,66.3635,0.081308
192.411,66.3574,0.081308
192.441,66.3514,0.081308
192.472,66.3452,0.081308
192.503,66.3390,0.081308
192.534,66.3328,0.025551
192.565,66.3266,0.025551
192.596,66.3204,0.025551
192.628,66.3141,0.025551
192.659,66.3079,0.025551
192.690,66.3014,0.025551
192.722,66.2952,0.025551
192.753,66.2889,0.025551
192.783,66.2830,0.025156
192.815,66.2765,0.025156
192.847,66.2703,0.025156
192.878,66.2640,0.025156
192.909,66.2575,0.025156
192.942,66.2512,0.025156
192.972,66.2453,0.025156
193.003,66.2389,0.025156
193.034,66.2327,0.025005
193.066,66.2263,0.025005
193.097,66.2200,0.025005
193.128,66.2140,0.025005
193.159,66.2077,0.025005
193.190,66.2017,0.025005
193.221,66.1955,0.025005
193.253,66.1891,0.025005
193.283,66.1830,0.024835
193.314,66.1769,0.024835
193.345,66.1707,0.024835
193.376,66.1644,0.024835
193.408,66.1581,0.024835
193.439,66.1517,0.024835
193.471,66.1454,0.024835
193.502,66.1393,0.024835
193.532,66.1330,0.024732
193.563,66.1269,0.024732
193.595,66.1206,0.024732
193.626,66.1144,0.024732
193.658,66.1081,0.024732
193.689,66.1018,0.024732
193.721,66.0954,0.024732
193.752,66.0891,0.024732
193.783,66.0832,0.024685
193.813,66.0768,0.024685
193.844,66.0708,0.024685
193.876,66.0643,0.024685
193.908,66.0581,0.024685
193.940,66.0515,0.024685
193.971,66.0455,0.024685
194.002,66.0393,0.024685
194.033,66.0331,0.024590
194.064,66.0269,0.024590
194.094,66.0208,0.024590
194.124,66.0148,0.024590
194.155,66.0086,0.024590
194.185,66.0024,0.024590
194.216,65.9961,0.024590
194.249,65.9899,0.024590
194.280,65.9837,0.024590
194.312,65.9772,0.024524
194.342,65.9712,0.024524
194.373,65.9650,0.024524
194.405,65.9586,0.024524
194.436,65.9524,0.024524
194.468,65.9461,0.024524
194.499,65.9398,0.024524
194.530,65.9336,0.024524
194.562,65.9273,0.024524
194.593,65.9209,0.024524
194.624,65.9147,0.024524
194.655,65.9087,0.024524
194.685,65.9025,0.024524
194.716,65.8964,0.024524
194.747,65.8902,0.024524
194.778,65.8839,0.024524
194.810,65.8774,0.024553
194.841,65.8713,0.024553
194.871,65.8654,0.024553
194.902,65.8590,0.024553
194.933,65.8530,0.024553
194.965,65.8465,0.024553
194.996,65.8404,0.024553
195.027,65.8340,0.024553
195.059,65.8277,0.024553
195.091,65.8212,0.024553
195.123,65.8149,0.024553
195.154,65.8087,0.024553
195.185,65.8027,0.024553
195.215,65.7967,0.024553
195.246,65.7903,0.024553
195.278,65.7841,0.024581
195.309,65.7777,0.024581
195.340,65.7714,0.024581
195.370,65.7655,0.024581
195.401,65.7593,0.024581
195.432,65.7533,0.024581
195.463,65.7471,0.024581
195.494,65.7409,0.024581
195.525,65.7347,0.024581
195.556,65.7283,0.024581
195.587,65.7223,0.024581
195.618,65.7159,0.024581
195.649,65.7098,0.024581
195.680,65.7035,0.024581
195.710,65.6974,0.024581
195.741,65.6912,0.024581
195.773,65.6850,0.024524
195.804,65.6788,0.024524
195.834,65.6728,0.024524
195.866,65.6663,0.024524
195.897,65.6601,0.024524
195.928,65.6539,0.024524
195.959,65.6478,0.024524
195.991,65.6413,0.024524
196.022,65.6353,0.024515
196.052,65.6291,0.024515
196.083,65.6230,0.024515
196.114,65.6167,0.024515
196.145,65.6106,0.024515
196.176,65.6043,0.024515
196.208,65.5980,0.024515
196.240,65.5917,0.024515
196.270,65.5856,0.024515
196.301,65.5794,0.024515
196.334,65.5729,0.024515
196.363,65.5670,0.024515
196.394,65.5606,0.024515
196.425,65.5546,0.024515
196.456,65.5484,0.024515
196.488,65.5420,0.024515
196.518,65.5361,0.024515
196.549,65.5298,0.024515
196.582,65.5232,0.024524
196.612,65.5172,0.024524
196.644,65.5109,0.024524
196.674,65.5048,0.024524
196.706,65.4984,0.024524
196.736,65.4923,0.024524
196.768,65.4861,0.024524
196.798,65.4799,0.024524
196.829,65.4738,0.024543
196.861,65.4674,0.024543
196.892,65.4614,0.024543
196.924,65.4562,0.024543
196.955,65.4516,0.024543
196.987,65.4479,0.024543
197.017,65.4449,0.024515
197.048,65.4427,0.024515
197.080,65.4411,0.024515
197.109,65.4403,0.024515
197.140,65.4402,0.024515
197.171,65.4402,0.024515
197.202,65.4402,0.024515
197.233,65.4402,0.024515
197.264,65.4402,0.024515
197.296,65.4410,0.024515
197.327,65.4423,0.024279
197.359,65.4444,0.024279
197.389,65.4473,0.024279
197.420,65.4508,0.024279
197.451,65.4551,0.024279
197.482,65.4602,0.024279
197.513,65.4658,0.024279
197.544,65.4722,0.023827
197.575,65.4782,0.023827
197.606,65.4845,0.023827
197.637,65.4907,0.023827
197.668,65.4970,0.023827
197.700,65.5034,0.023827
197.730,65.5092,0.023827
197.760,65.5153,0.023827
197.792,65.5217,0.023827
197.823,65.5279,0.023403
197.855,65.5344,0.023403
197.886,65.5404,0.023403
197.917,65.5466,0.023403
197.947,65.5528,0.023403
197.979,65.5592,0.023403
198.011,65.5654,0.023403
198.042,65.5718,0.023403
198.074,65.5780,0.023168
198.104,65.5842,0.023168
198.135,65.5903,0.023168
198.167,65.5967,0.023168
198.197,65.6027,0.023168
198.229,65.6090,0.023168
198.259,65.6151,0.023168
198.291,65.6214,0.023168
198.321,65.6275,0.023092
198.353,65.6338,0.023092
198.384,65.6401,0.023092
198.415,65.6462,0.023092
198.446,65.6524,0.023092
198.477,65.6586,0.023092
198.508,65.6650,0.023092
198.538,65.6709,0.023092
198.569,65.6771,0.022970
198.600,65.6833,0.022970
198.632,65.6896,0.022970
198.663,65.6961,0.022970
198.694,65.7020,0.022970
198.726,65.7085,0.022970
198.757,65.7146,0.022970
198.788,65.7209,0.022970
198.819,65.7271,0.022885
198.850,65.7332,0.022885
198.881,65.7395,0.022885
198.912,65.7457,0.022885
198.943,65.7519,0.022885
198.974,65.7581,0.022885
199.005,65.7643,0.022885
199.037,65.7707,0.022885
199.069,65.7771,0.022772
199.101,65.7834,0.022772
199.132,65.7896,0.022772
199.162,65.7957,0.022772
199.194,65.8021,0.022772
199.224,65.8082,0.022772
199.250,65.8132,0.022772
199.287,65.8207,0.022772
199.318,65.8269,0.022715
199.348,65.8329,0.022715
199.380,65.8392,0.022715
199.411,65.8455,0.022715
199.442,65.8519,0.022715
199.474,65.8582,0.022715
199.505,65.8643,0.022715
199.536,65.8705,0.022640
199.567,65.8767,0.022640
199.599,65.8830,0.022640
199.629,65.8892,0.022640
199.661,65.8955,0.022640
199.692,65.9018,0.022640
199.723,65.9078,0.022640
199.753,65.9141,0.022640
199.784,65.9201,0.022461
199.815,65.9264,0.022461
199.846,65.9326,0.022461
199.877,65.9388,0.022461
199.909,65.9451,0.022461
199.939,65.9512,0.022461
199.970,65.9573,0.022461
200.001,65.9636,0.022461
200.033,65.9701,0.022405
200.064,65.9760,0.022405
200.096,65.9823,0.022405
200.126,65.9884,0.022405
200.157,65.9949,0.022405
200.189,66.0012,0.022405
200.219,66.0071,0.022405
200.250,66.0133,0.022405
200.280,66.0193,0.022405
200.311,66.0255,0.022301
200.342,66.0318,0.022301
200.374,66.0380,0.022301
200.405,66.0442,0.022301
200.435,66.0503,0.022301
200.467,66.0566,0.022301
200.498,66.0631,0.022301
200.529,66.0690,0.022301
200.559,66.0752,0.022197
200.590,66.0814,0.022197
200.621,66.0875,0.022197
200.652,66.0937,0.022197
200.684,66.1000,0.022197
200.716,66.1065,0.022197
200.747,66.1127,0.022197
200.779,66.1190,0.022103
200.811,66.1253,0.022103
200.842,66.1317,0.022103
200.873,66.1379,0.022103
200.903,66.1439,0.022103
200.934,66.1500,0.022103
200.965,66.1562,0.022103
200.995,66.1624,0.022103
201.027,66.1686,0.022103
201.058,66.1748,0.021896
201.089,66.1810,0.021896
201.120,66.1872,0.021896
201.151,66.1935,0.021896
201.183,66.1997,0.021896
201.215,66.2062,0.021896
201.246,66.2123,0.021896
201.277,66.2187,0.021896
201.308,66.2248,0.021783
201.338,66.2309,0.021783
201.369,66.2371,0.021783
201.400,66.2433,0.021783
201.431,66.2498,0.021783
201.461,66.2554,0.021783
201.492,66.2616,0.021783
201.522,66.2677,0.021783
201.553,66.2738,0.021717
201.584,66.2800,0.021717
201.615,66.2862,0.021717
201.646,66.2925,0.021717
201.678,66.2987,0.021717
201.709,66.3052,0.021717
201.741,66.3114,0.021717
201.772,66.3177,0.021717
201.802,66.3238,0.021585
201.833,66.3300,0.021585
201.865,66.3364,0.021585
201.897,66.3426,0.021585
201.927,66.3487,0.021585
201.958,66.3549,0.021585
201.989,66.3611,0.021585
202.020,66.3673,0.021585
202.052,66.3737,0.021425
202.083,66.3798,0.021425
202.114,66.3860,0.021425
202.144,66.3921,0.021425
202.175,66.3983,0.021425
202.207,66.4046,0.021425
202.238,66.4108,0.021425
202.269,66.4170,0.021425
202.300,66.4234,0.021302
202.332,66.4297,0.021302
202.363,66.4359,0.021302
202.394,66.4421,0.021302
202.425,66.4483,0.021302
202.456,66.4545,0.021302
202.487,66.4608,0.021302
202.519,66.4670,0.021302
202.550,66.4732,0.021170
202.581,66.4795,0.021170
202.611,66.4855,0.021170
202.642,66.4918,0.021170
202.674,66.4981,0.021170
202.704,66.5040,0.021170
202.734,66.5100,0.021170
202.765,66.5162,0.021170
202.797,66.5226,0.021001
202.827,66.5288,0.021001
202.859,66.5352,0.021001
202.889,66.5411,0.021001
202.920,66.5473,0.021001
202.951,66.5535,0.021001
202.982,66.5598,0.021001
203.013,66.5659,0.020812
203.045,66.5723,0.020812
203.076,66.5784,0.020812
203.107,66.5847,0.020812
203.137,66.5908,0.020812
203.169,66.5972,0.020812
203.201,66.6034,0.020812
203.232,66.6096,0.020812
203.262,66.6156,0.020633
203.294,66.6220,0.020633
203.326,66.6286,0.020633
203.356,66.6344,0.020633
203.387,66.6406,0.020633
203.418,66.6470,0.020633
203.449,66.6530,0.020633
203.480,66.6594,0.020633
203.511,66.6656,0.020633
203.542,66.6717,0.020398
203.574,66.6780,0.020398
203.604,66.6841,0.020398
203.635,66.6903,0.020398
203.666,66.6965,0.020398
203.697,66.7027,0.020398
203.728,66.7089,0.020398
203.759,66.7151,0.020398
203.790,66.7213,0.020125
203.822,66.7276,0.020125
203.853,66.7338,0.020125
203.884,66.7400,0.020125
203.915,66.7462,0.020125
203.947,66.7526,0.020125
203.978,66.7590,0.020125
204.009,66.7650,0.020125
204.039,66.7711,0.019898
204.070,66.7773,0.019898
204.101,66.7835,0.019898
204.132,66.7897,0.019898
204.163,66.7958,0.019898
204.195,66.8022,0.019898
204.225,66.8084,0.019898
204.255,66.8144,0.019898
204.286,66.8205,0.019588
204.318,66.8269,0.019588
204.349,66.8331,0.019588
204.381,66.8395,0.019588
204.412,66.8455,0.019588
204.443,66.8520,0.019588
204.474,66.8581,0.019588
204.505,66.8641,0.019588
204.535,66.8703,0.019229
204.567,66.8767,0.019229
204.598,66.8830,0.019229
204.629,66.8891,0.019229
204.661,66.8954,0.019229
204.692,66.9016,0.019229
204.723,66.9080,0.019229
204.754,66.9141,0.018871
204.785,66.9203,0.018871
204.816,66.9266,0.018871
204.848,66.9327,0.018871
204.877,66.9388,0.018871
204.908,66.9449,0.018871
204.940,66.9513,0.018871
204.971,66.9574,0.018871
205.002,66.9637,0.018871
205.034,66.9702,0.018447
205.064,66.9760,0.018447
205.095,66.9822,0.018447
205.126,66.9884,0.018447
205.157,66.9949,0.018447
205.188,67.0008,0.018447
205.219,67.0070,0.018447
205.250,67.0132,0.018447
205.281,67.0195,0.018042
205.312,67.0257,0.018042
205.343,67.0319,0.018042
205.374,67.0380,0.018042
205.404,67.0441,0.018042
205.435,67.0503,0.018042
205.465,67.0562,0.018042
205.495,67.0623,0.018042
205.526,67.0684,0.018042
205.558,67.0747,0.017430
205.588,67.0809,0.017430
205.619,67.0871,0.017430
205.651,67.0935,0.017430
205.681,67.0995,0.017430
205.713,67.1060,0.017430
205.744,67.1119,0.017430
205.774,67.1183,0.017430
205.805,67.1242,0.017430
205.836,67.1307,0.016714
205.868,67.1367,0.016714
205.899,67.1432,0.016714
205.930,67.1493,0.016714
205.961,67.1556,0.016714
205.992,67.1615,0.016714
206.022,67.1676,0.016714
206.051,67.1735,0.015932
206.083,67.1798,0.015932
206.115,67.1862,0.015932
206.146,67.1924,0.015932
206.177,67.1988,0.015932
206.208,67.2050,0.015932
206.240,67.2112,0.015932
206.271,67.2174,0.015932
206.301,67.2234,0.015037
206.332,67.2296,0.015037
206.363,67.2358,0.015037
206.395,67.2423,0.015037
206.425,67.2481,0.015037
206.455,67.2543,0.015037
206.487,67.2605,0.015037
206.518,67.2667,0.015037
206.549,67.2729,0.013944
206.581,67.2795,0.013944
206.611,67.2854,0.013944
206.643,67.2919,0.013944
206.674,67.2980,0.013944
206.705,67.3042,0.013944
206.736,67.3105,0.013944
206.767,67.3167,0.013944
206.799,67.3230,0.012587
206.830,67.3292,0.012587
206.861,67.3354,0.012587
206.892,67.3416,0.012587
206.922,67.3480,0.012587
206.953,67.3539,0.012587
206.985,67.3601,0.012587
207.016,67.3664,0.012587
207.050,67.3731,0.011070
207.079,67.3791,0.011070
207.109,67.3852,0.011070
207.141,67.3914,0.011070
207.173,67.3977,0.011070
207.204,67.4040,0.011070
207.235,67.4102,0.011070
207.266,67.4164,0.011070
207.298,67.4229,0.009195
207.329,67.4292,0.009195
207.359,67.4350,0.009195
207.391,67.4415,0.009195
207.422,67.4477,0.009195
207.452,67.4537,0.009195
207.483,67.4599,0.009195
207.514,67.4661,0.009195
207.546,67.4723,0.009195
207.576,67.4784,0.006953
207.607,67.4846,0.006953
207.638,67.4908,0.006953
207.668,67.4969,0.006953
207.699,67.5030,0.006953
207.730,67.5092,0.006953
207.760,67.5153,0.006953
207.792,67.5217,0.004211
207.823,67.5280,0.004211
207.854,67.5340,0.004211
207.885,67.5402,0.004211
207.916,67.5464,0.004211
207.947,67.5526,0.004211
207.978,67.5589,0.004211
208.009,67.5650,0.004211
208.040,67.5712,0.000923
208.071,67.5774,0.000923
208.101,67.5836,0.000923
208.133,67.5898,0.000923
208.164,67.5961,0.000923
208.194,67.6021,0.000923
208.225,67.6084,0.000923
208.257,67.6145,0.000923
208.288,67.6211,-0.002968
208.320,67.6271,-0.002968
208.351,67.6333,-0.002968
208.382,67.6397,-0.002968
208.413,67.6457,-0.002968
208.444,67.6522,-0.002968
208.476,67.6584,-0.002968
208.508,67.6647,-0.002968
208.539,67.6710,-0.007763
208.570,67.6771,-0.007763
208.601,67.6838,-0.007763
208.633,67.6899,-0.007763
208.663,67.6960,-0.007763
208.694,67.7020,-0.007763
208.725,67.7082,-0.007763
208.756,67.7144,-0.007763
208.787,67.7206,-0.013322
208.818,67.7268,-0.013322
208.848,67.7330,-0.013322
208.880,67.7392,-0.013322
208.910,67.7453,-0.013322
208.941,67.7515,-0.013322
208.973,67.7577,-0.013322
209.004,67.7642,-0.013322
209.036,67.7704,-0.019898
209.066,67.7765,-0.019898
209.097,67.7827,-0.019898
209.129,67.7890,-0.019898
209.160,67.7954,-0.019898
209.192,67.8018,-0.019898
209.223,67.8080,-0.019898
209.254,67.8139,-0.019898
209.285,67.8202,-0.027671
209.315,67.8262,-0.027671
209.346,67.8326,-0.027671
209.377,67.8386,-0.027671
209.409,67.8450,-0.027671
209.441,67.8514,-0.027671
209.472,67.8577,-0.027671
209.503,67.8638,-0.027671
209.533,67.8698,-0.036697
209.564,67.8759,-0.036697
209.595,67.8821,-0.036697
209.626,67.8884,-0.036697
209.656,67.8944,-0.036697
209.687,67.9006,-0.036697
209.718,67.9072,-0.036697
209.749,67.9130,-0.036697
209.780,67.9192,-0.047240
209.811,67.9254,-0.047240
209.842,67.9316,-0.047240
209.873,67.9379,-0.047240
209.905,67.9441,-0.047240
209.936,67.9503,-0.047240
209.966,67.9564,-0.047240
209.998,67.9627,-0.047240
210.030,67.9692,-0.059375
210.060,67.9751,-0.059375
210.091,67.9815,-0.059375
210.122,67.9877,-0.059375
210.153,67.9939,-0.059375
210.184,68.0002,-0.059375
210.215,68.0063,-0.059375
210.246,68.0125,-0.059375
210.277,68.0185,-0.059375
210.309,68.0250,-0.073441
210.338,68.0309,-0.073441
210.369,68.0370,-0.073441
210.400,68.0432,-0.073441
210.432,68.0497,-0.073441
210.462,68.0556,-0.073441
210.494,68.0620,-0.073441
210.524,68.0682,-0.089496
210.555,68.0742,-0.089496
210.587,68.0806,-0.089496
210.619,68.0869,-0.089496
210.649,68.0930,-0.089496
210.680,68.0993,-0.089496
210.710,68.1051,-0.089496
210.742,68.1116,-0.089496
210.773,68.1180,-0.107811
210.803,68.1238,-0.107811
210.834,68.1300,-0.107811
210.865,68.1364,-0.107811
210.898,68.1427,-0.107811
210.927,68.1485,-0.107811
210.958,68.1548,-0.107811
210.989,68.1610,-0.107811
211.020,68.1674,-0.128699
211.050,68.1735,-0.128699
211.082,68.1795,-0.128699
211.114,68.1860,-0.128699
211.144,68.1922,-0.128699
211.175,68.1984,-0.128699
211.206,68.2043,-0.128699
211.237,68.2108,-0.128699
211.268,68.2167,-0.128699
211.298,68.2228,-0.128699
211.330,68.2291,-0.152065
211.360,68.2353,-0.152065
211.391,68.2414,-0.152065
211.423,68.2477,-0.152065
211.455,68.2542,-0.152065
211.486,68.2603,-0.152065
211.517,68.2665,-0.152065
211.548,68.2728,-0.178172
211.578,68.2790,-0.178172
211.609,68.2849,-0.178172
211.640,68.2911,-0.178172
211.672,68.2976,-0.178172
211.703,68.3038,-0.178172
211.734,68.3101,-0.178172
211.765,68.3162,-0.178172
211.796,68.3224,-0.207049
211.821,68.3274,-0.207049
211.859,68.3351,-0.207049
211.890,68.3411,-0.207049
211.921,68.3476,-0.207049
211.953,68.3538,-0.207049
211.983,68.3600,-0.207049
212.014,68.3662,-0.207049
212.046,68.3724,-0.238969
212.077,68.3786,-0.238969
212.108,68.3848,-0.238969
212.139,68.3911,-0.238969
212.171,68.3976,-0.238969
212.203,68.4039,-0.238969
212.234,68.4100,-0.238969
212.264,68.4159,-0.274253
212.295,68.4215,-0.274253
212.326,68.4265,-0.274253
212.357,68.4306,-0.274253
212.388,68.4339,-0.274253
212.419,68.4366,-0.274253
212.450,68.4385,-0.274253
212.482,68.4397,-0.274253
212.511,68.4402,-0.274253
212.542,68.4402,-0.308444
212.573,68.4402,-0.308444
212.604,68.4402,-0.308444
212.635,68.4402,-0.308444
212.666,68.4402,-0.308444
212.698,68.4402,-0.308444
212.729,68.4402,-0.308444
212.760,68.4402,-0.323519
212.791,68.4402,-0.323519
212.823,68.4402,-0.323519
212.854,68.4402,-0.323519
212.885,68.4402,-0.323519
212.917,68.4402,-0.323519
212.948,68.4402,-0.323519
212.979,68.4402,-0.323519
213.010,68.4402,-0.323519
213.041,68.4402,-0.320033
213.072,68.4402,-0.320033
