Elapsed Time (s),Position (mm),Force (N)
-0.010,67.2403,-0.435278
0.021,67.2403,-0.435278
0.052,67.2403,-0.435278
0.082,67.2403,-0.435278
0.113,67.2403,-0.435278
0.145,67.2403,-0.435278
0.176,67.2403,-0.435278
0.207,67.2403,-0.429050
0.239,67.2403,-0.429050
0.269,67.2403,-0.429050
0.301,67.2403,-0.429050
0.331,67.2403,-0.429050
0.363,67.2403,-0.429050
0.394,67.2403,-0.429050
0.425,67.2403,-0.429050
0.456,67.2403,-0.424170
0.488,67.2403,-0.424170
0.519,67.2403,-0.424170
0.550,67.2403,-0.424170
0.582,67.2403,-0.424170
0.614,67.2403,-0.424170
0.644,67.2403,-0.424170
0.676,67.2403,-0.424170
0.707,67.2403,-0.424170
0.736,67.2403,-0.420062
0.768,67.2403,-0.420062
0.799,67.2403,-0.420062
0.831,67.2403,-0.420062
0.862,67.2403,-0.420062
0.893,67.2403,-0.420062
0.924,67.2403,-0.420062
0.956,67.2403,-0.416501
0.987,67.2403,-0.416501
1.018,67.2403,-0.416501
1.049,67.2403,-0.416501
1.080,67.2403,-0.416501
1.111,67.2403,-0.416501
1.141,67.2403,-0.416501
1.173,67.2403,-0.416501
1.204,67.2403,-0.416501
1.235,67.2403,-0.413448
1.266,67.2403,-0.413448
1.297,67.2403,-0.413448
1.328,67.2403,-0.413448
1.360,67.2403,-0.413448
1.392,67.2403,-0.413448
1.422,67.2403,-0.413448
1.453,67.2403,-0.413448
1.484,67.2403,-0.410650
1.516,67.2403,-0.410650
1.548,67.2403,-0.410650
1.579,67.2403,-0.410650
1.609,67.2403,-0.410650
1.640,67.2403,-0.410650
1.671,67.2403,-0.410650
1.702,67.2403,-0.408097
1.733,67.2403,-0.408097
1.763,67.2403,-0.408097
1.794,67.2403,-0.408097
1.825,67.2403,-0.408097
1.856,67.2403,-0.408097
1.887,67.2403,-0.408097
1.919,67.2403,-0.408097
1.949,67.2403,-0.405779
1.979,67.2403,-0.405779
2.011,67.2403,-0.405779
2.042,67.2403,-0.405779
2.073,67.2403,-0.405779
2.104,67.2403,-0.405779
2.135,67.2403,-0.405779
2.166,67.2403,-0.405779
2.198,67.2403,-0.403697
2.229,67.2403,-0.403697
2.261,67.2403,-0.403697
2.292,67.2403,-0.403697
2.324,67.2403,-0.403697
2.355,67.2403,-0.403697
2.386,67.2403,-0.403697
2.417,67.2403,-0.403697
2.448,67.2403,-0.401756
2.480,67.2403,-0.401756
2.511,67.2403,-0.401756
2.543,67.2403,-0.401756
2.574,67.2403,-0.401756
2.604,67.2403,-0.401756
2.636,67.2403,-0.401756
2.666,67.2403,-0.401756
2.697,67.2403,-0.399947
2.729,67.2403,-0.399947
2.760,67.2403,-0.399947
2.791,67.2403,-0.399947
2.822,67.2403,-0.399947
2.853,67.2403,-0.399947
2.884,67.2403,-0.399947
2.916,67.2403,-0.399947
2.947,67.2403,-0.398289
2.978,67.2403,-0.398289
3.009,67.2403,-0.398289
3.040,67.2403,-0.398289
3.071,67.2403,-0.398289
3.103,67.2403,-0.398289
3.134,67.2403,-0.398289
3.165,67.2403,-0.398289
3.195,67.2403,-0.396706
3.226,67.2403,-0.396706
3.258,67.2403,-0.396706
3.288,67.2403,-0.396706
3.320,67.2403,-0.396706
3.352,67.2403,-0.396706
3.384,67.2403,-0.396706
3.415,67.2403,-0.396706
3.447,67.2403,-0.396706
3.478,67.2403,-0.394652
3.510,67.2403,-0.394652
3.540,67.2403,-0.394652
3.571,67.2403,-0.394652
3.602,67.2403,-0.394652
3.633,67.2403,-0.394652
3.664,67.2403,-0.394652
3.695,67.2403,-0.394652
3.727,67.2403,-0.387548
3.757,67.2403,-0.387548
3.789,67.2403,-0.387548
3.820,67.2403,-0.387548
3.850,67.2403,-0.387548
3.882,67.2403,-0.387548
3.913,67.2403,-0.387548
3.944,67.2403,-0.387548
3.975,67.2403,-0.375451
4.006,67.2403,-0.375451
4.037,67.2403,-0.375451
4.070,67.2403,-0.375451
4.100,67.2403,-0.375451
4.131,67.2403,-0.375451
4.162,67.2403,-0.375451
4.193,67.2397,-0.375451
4.224,67.2384,-0.367942
4.255,67.2365,-0.367942
4.287,67.2337,-0.367942
4.318,67.2303,-0.367942
4.349,67.2259,-0.367942
4.381,67.2210,-0.367942
4.412,67.2152,-0.367942
4.443,67.2089,-0.367942
4.474,67.2027,-0.363099
4.506,67.1964,-0.363099
4.537,67.1902,-0.363099
4.567,67.1842,-0.363099
4.598,67.1782,-0.363099
4.629,67.1718,-0.363099
4.661,67.1654,-0.363099
4.692,67.1593,-0.333562
4.725,67.1526,-0.333562
4.754,67.1468,-0.333562
4.785,67.1406,-0.333562
4.816,67.1343,-0.333562
4.847,67.1281,-0.333562
4.879,67.1217,-0.333562
4.910,67.1157,-0.333562
4.941,67.1093,-0.333562
4.972,67.1031,-0.281913
5.003,67.0969,-0.281913
5.034,67.0909,-0.281913
5.065,67.0845,-0.281913
5.096,67.0784,-0.281913
5.127,67.0720,-0.281913
5.159,67.0658,-0.281913
5.192,67.0592,-0.281913
5.222,67.0531,-0.233024
5.252,67.0472,-0.233024
5.284,67.0409,-0.233024
5.315,67.0347,-0.233024
5.345,67.0285,-0.233024
5.376,67.0225,-0.233024
5.407,67.0162,-0.233024
5.438,67.0099,-0.233024
5.470,67.0037,-0.189205
5.501,66.9973,-0.189205
5.531,66.9914,-0.189205
5.563,66.9851,-0.189205
5.594,66.9790,-0.189205
5.625,66.9727,-0.189205
5.656,66.9663,-0.189205
5.687,66.9601,-0.189205
5.719,66.9538,-0.149964
5.751,66.9475,-0.149964
5.782,66.9413,-0.149964
5.813,66.9350,-0.149964
5.843,66.9290,-0.149964
5.874,66.9228,-0.149964
5.906,66.9165,-0.149964
5.937,66.9103,-0.114849
5.968,66.9039,-0.114849
5.999,66.8979,-0.114849
6.030,66.8915,-0.114849
6.061,66.8855,-0.114849
6.092,66.8790,-0.114849
6.124,66.8728,-0.114849
6.154,66.8667,-0.114849
6.185,66.8604,-0.114849
6.216,66.8543,-0.083570
6.247,66.8483,-0.083570
6.277,66.8422,-0.083570
6.308,66.8360,-0.083570
6.339,66.8298,-0.083570
6.370,66.8235,-0.083570
6.402,66.8173,-0.083570
6.433,66.8109,-0.055540
6.465,66.8047,-0.055540
6.496,66.7983,-0.055540
6.527,66.7921,-0.055540
6.558,66.7860,-0.055540
6.589,66.7797,-0.055540
6.619,66.7737,-0.055540
6.650,66.7675,-0.055540
6.681,66.7613,-0.055540
6.713,66.7549,-0.030385
6.745,66.7487,-0.030385
6.776,66.7423,-0.030385
6.807,66.7363,-0.030385
6.838,66.7298,-0.030385
6.869,66.7236,-0.030385
6.901,66.7175,-0.030385
6.931,66.7115,-0.030385
6.962,66.7051,-0.007792
6.993,66.6991,-0.007792
7.025,66.6927,-0.007792
7.056,66.6864,-0.007792
7.087,66.6803,-0.007792
7.118,66.6739,-0.007792
7.149,66.6678,-0.007792
7.180,66.6615,0.012568
7.211,66.6553,0.012568
7.242,66.6492,0.012568
7.273,66.6429,0.012568
7.305,66.6367,0.012568
7.336,66.6305,0.012568
7.367,66.6243,0.012568
7.398,66.6179,0.012568
7.430,66.6116,0.030959
7.460,66.6055,0.030959
7.491,66.5995,0.030959
7.523,66.5931,0.030959
7.554,66.5868,0.030959
7.585,66.5805,0.030959
7.616,66.5745,0.030959
7.647,66.5682,0.030959
7.678,66.5620,0.047899
7.710,66.5557,0.047899
7.740,66.5496,0.047899
7.772,66.5432,0.047899
7.803,66.5368,0.047899
7.833,66.5310,0.047899
7.864,66.5249,0.047899
7.895,66.5186,0.047899
7.926,66.5124,0.047899
7.957,66.5061,0.063737
7.988,66.5000,0.063737
8.019,66.4938,0.063737
8.050,66.4876,0.063737
8.081,66.4813,0.063737
8.112,66.4751,0.063737
8.144,66.4689,0.063737
8.176,66.4625,0.063737
8.206,66.4563,0.079038
8.237,66.4504,0.079038
8.267,66.4442,0.079038
8.298,66.4381,0.079038
8.330,66.4317,0.079038
8.361,66.4253,0.079038
8.392,66.4191,0.079038
8.423,66.4129,0.079038
8.454,66.4066,0.094207
8.485,66.4005,0.094207
8.516,66.3943,0.094207
8.547,66.3883,0.094207
8.577,66.3821,0.094207
8.609,66.3759,0.094207
8.640,66.3695,0.094207
8.672,66.3632,0.094207
8.703,66.3569,0.109715
8.734,66.3509,0.109715
8.765,66.3445,0.109715
8.796,66.3384,0.109715
8.827,66.3323,0.109715
8.857,66.3261,0.109715
8.888,66.3200,0.109715
8.919,66.3136,0.109715
8.951,66.3075,0.126099
8.982,66.3013,0.126099
9.012,66.2951,0.126099
9.044,66.2889,0.126099
9.074,66.2826,0.126099
9.105,66.2764,0.126099
9.136,66.2706,0.126099
9.167,66.2641,0.126099
9.199,66.2579,0.143623
9.230,66.2517,0.143623
9.261,66.2455,0.143623
9.292,66.2393,0.143623
9.323,66.2330,0.143623
9.353,66.2270,0.143623
9.383,66.2210,0.143623
9.414,66.2147,0.143623
9.446,66.2084,0.143623
9.477,66.2022,0.162956
9.509,66.1959,0.162956
9.539,66.1897,0.162956
9.571,66.1834,0.162956
9.602,66.1772,0.162956
9.633,66.1710,0.162956
9.664,66.1648,0.162956
9.694,66.1588,0.162956
9.725,66.1525,0.184239
9.757,66.1463,0.184239
9.788,66.1400,0.184239
9.819,66.1338,0.184239
9.849,66.1278,0.184239
9.879,66.1217,0.184239
9.910,66.1157,0.184239
9.942,66.1092,0.207605
9.972,66.1033,0.207605
10.003,66.0971,0.207605
10.034,66.0910,0.207605
10.065,66.0848,0.207605
10.096,66.0784,0.207605
10.127,66.0722,0.207605
10.157,66.0663,0.207605
10.187,66.0602,0.233024
10.218,66.0540,0.233024
10.249,66.0479,0.233024
10.281,66.0414,0.233024
10.312,66.0353,0.233024
10.343,66.0291,0.233024
10.374,66.0229,0.233024
10.405,66.0166,0.233024
10.436,66.0104,0.260724
10.467,66.0042,0.260724
10.498,65.9981,0.260724
10.529,65.9920,0.260724
10.559,65.9858,0.260724
10.590,65.9795,0.260724
10.622,65.9733,0.260724
10.653,65.9670,0.260724
10.685,65.9606,0.290967
10.716,65.9545,0.290967
10.747,65.9483,0.290967
10.777,65.9421,0.290967
10.808,65.9361,0.290967
10.839,65.9299,0.290967
10.870,65.9237,0.290967
10.902,65.9172,0.290967
10.933,65.9111,0.323368
10.965,65.9047,0.323368
10.995,65.8987,0.323368
11.026,65.8925,0.323368
11.057,65.8862,0.323368
11.087,65.8803,0.323368
11.118,65.8739,0.323368
11.149,65.8677,0.323368
11.180,65.8614,0.323368
11.211,65.8553,0.357823
11.242,65.8491,0.357823
11.274,65.8429,0.357823
11.306,65.8365,0.357823
11.337,65.8303,0.357823
11.368,65.8240,0.357823
11.399,65.8179,0.357823
11.430,65.8114,0.357823
11.462,65.8053,0.393813
11.494,65.7988,0.393813
11.525,65.7927,0.393813
11.556,65.7862,0.393813
11.586,65.7805,0.393813
11.617,65.7743,0.393813
11.648,65.7680,0.393813
11.679,65.7618,0.393813
11.710,65.7555,0.393813
11.741,65.7495,0.430605
11.772,65.7432,0.430605
11.802,65.7373,0.430605
11.833,65.7309,0.430605
11.864,65.7247,0.430605
11.895,65.7185,0.430605
11.926,65.7125,0.430605
11.957,65.7061,0.467283
11.990,65.6997,0.467283
12.021,65.6934,0.467283
12.051,65.6875,0.467283
12.083,65.6811,0.467283
12.113,65.6750,0.467283
12.144,65.6689,0.467283
12.175,65.6627,0.467283
12.206,65.6565,0.502972
12.237,65.6502,0.502972
12.268,65.6441,0.502972
12.299,65.6379,0.502972
12.329,65.6318,0.502972
12.359,65.6258,0.502972
12.391,65.6196,0.502972
12.421,65.6132,0.502972
12.453,65.6070,0.536975
12.485,65.6005,0.536975
12.516,65.5945,0.536975
12.547,65.5881,0.536975
12.579,65.5820,0.536975
12.610,65.5755,0.536975
12.641,65.5696,0.536975
12.670,65.5635,0.568669
12.701,65.5574,0.568669
12.732,65.5512,0.568669
12.764,65.5448,0.568669
12.795,65.5387,0.568669
12.826,65.5325,0.568669
12.855,65.5265,0.568669
12.886,65.5203,0.568669
12.917,65.5144,0.568669
12.948,65.5081,0.568669
12.980,65.5017,0.597009
13.012,65.4953,0.597009
13.042,65.4893,0.597009
13.074,65.4826,0.597009
13.104,65.4768,0.597009
13.135,65.4706,0.597009
13.167,65.4644,0.597009
13.197,65.4582,0.597009
13.228,65.4520,0.620384
13.259,65.4458,0.620384
13.290,65.4396,0.620384
13.321,65.4334,0.620384
13.352,65.4271,0.620384
13.384,65.4210,0.620384
13.415,65.4148,0.620384
13.445,65.4086,0.620384
13.477,65.4024,0.633169
13.508,65.3961,0.633169
13.539,65.3899,0.633169
13.570,65.3837,0.633169
13.602,65.3773,0.633169
13.634,65.3709,0.633169
13.665,65.3647,0.633169
13.696,65.3585,0.633169
13.728,65.3522,0.634988
13.759,65.3458,0.634988
13.790,65.3398,0.634988
13.821,65.3334,0.634988
13.853,65.3271,0.634988
13.883,65.3212,0.634988
13.914,65.3145,0.634988
13.939,65.3099,0.631200
13.976,65.3026,0.631200
14.007,65.2961,0.631200
14.038,65.2902,0.631200
14.069,65.2838,0.631200
14.100,65.2776,0.631200
14.131,65.2713,0.631200
14.163,65.2652,0.631200
14.194,65.2588,0.631200
14.225,65.2528,0.618151
14.256,65.2465,0.618151
14.288,65.2400,0.618151
14.319,65.2340,0.618151
14.349,65.2279,0.618151
14.381,65.2216,0.618151
14.412,65.2154,0.618151
14.443,65.2090,0.618151
14.476,65.2026,0.618151
14.504,65.1969,0.584874
14.535,65.1907,0.584874
14.566,65.1845,0.584874
14.597,65.1782,0.584874
14.629,65.1717,0.584874
14.662,65.1654,0.584874
14.693,65.1591,0.584874
14.724,65.1529,0.537286
14.755,65.1467,0.537286
14.786,65.1406,0.537286
14.816,65.1343,0.537286
14.847,65.1283,0.537286
14.878,65.1219,0.537286
14.909,65.1160,0.537286
14.939,65.1097,0.537286
14.971,65.1036,0.478825
15.002,65.0973,0.478825
15.033,65.0911,0.478825
15.064,65.0848,0.478825
15.095,65.0787,0.478825
15.127,65.0722,0.478825
15.158,65.0662,0.478825
15.188,65.0600,0.478825
15.219,65.0540,0.295433
15.250,65.0477,0.295433
15.281,65.0415,0.295433
15.313,65.0352,0.295433
15.343,65.0290,0.295433
15.375,65.0228,0.295433
15.405,65.0167,0.295433
15.435,65.0106,0.295433
15.467,65.0044,0.089307
15.498,64.9980,0.089307
15.529,64.9919,0.089307
15.560,64.9856,0.089307
15.591,64.9796,0.089307
15.622,64.9732,0.089307
15.653,64.9669,0.089307
15.685,64.9606,0.089307
15.715,64.9547,0.029801
15.747,64.9482,0.029801
15.778,64.9421,0.029801
15.809,64.9358,0.029801
15.840,64.9297,0.029801
15.872,64.9232,0.029801
15.903,64.9171,0.029801
15.934,64.9106,0.029801
15.964,64.9048,0.027002
15.996,64.8985,0.027002
16.027,64.8922,0.027002
16.058,64.8860,0.027002
16.089,64.8799,0.027002
16.120,64.8737,0.027002
16.151,64.8676,0.027002
16.182,64.8612,0.027002
16.213,64.8551,0.026682
16.244,64.8489,0.026682
16.275,64.8427,0.026682
16.306,64.8365,0.026682
16.338,64.8302,0.026682
16.369,64.8238,0.026682
16.400,64.8176,0.026682
16.431,64.8114,0.026682
16.463,64.8052,0.026522
16.494,64.7986,0.026522
16.525,64.7927,0.026522
16.556,64.7864,0.026522
16.588,64.7802,0.026522
16.618,64.7740,0.026522
16.648,64.7680,0.026522
16.679,64.7618,0.026522
16.711,64.7555,0.026428
16.742,64.7493,0.026428
16.773,64.7431,0.026428
16.803,64.7371,0.026428
16.834,64.7308,0.026428
16.865,64.7246,0.026428
16.896,64.7184,0.026428
16.927,64.7123,0.026428
16.957,64.7061,0.026315
16.990,64.6997,0.026315
17.020,64.6935,0.026315
17.051,64.6875,0.026315
17.081,64.6814,0.026315
17.112,64.6752,0.026315
17.143,64.6690,0.026315
17.175,64.6627,0.026315
17.206,64.6565,0.026230
17.237,64.6503,0.026230
17.268,64.6441,0.026230
17.299,64.6378,0.026230
17.330,64.6316,0.026230
17.361,64.6255,0.026230
17.391,64.6196,0.026230
17.423,64.6131,0.026230
17.453,64.6072,0.026164
17.485,64.6007,0.026164
17.515,64.5948,0.026164
17.546,64.5886,0.026164
17.577,64.5821,0.026164
17.608,64.5762,0.026164
17.639,64.5700,0.026164
17.670,64.5636,0.026164
17.701,64.5575,0.026126
17.732,64.5511,0.026126
17.764,64.5450,0.026126
17.794,64.5387,0.026126
17.825,64.5327,0.026126
17.856,64.5264,0.026126
17.887,64.5201,0.026126
17.918,64.5140,0.026126
17.949,64.5079,0.026098
17.980,64.5016,0.026098
18.011,64.4955,0.026098
18.042,64.4892,0.026098
18.074,64.4830,0.026098
18.105,64.4767,0.026098
18.135,64.4706,0.026098
18.168,64.4639,0.026098
18.198,64.4582,0.026136
18.230,64.4518,0.026136
18.261,64.4456,0.026136
18.292,64.4394,0.026136
18.323,64.4330,0.026136
18.355,64.4267,0.026136
18.386,64.4205,0.026136
18.416,64.4144,0.026117
18.447,64.4083,0.026117
18.478,64.4020,0.026117
18.509,64.3959,0.026117
18.541,64.3896,0.026117
18.572,64.3832,0.026117
18.602,64.3772,0.026117
18.634,64.3710,0.026117
18.664,64.3648,0.026117
18.696,64.3584,0.026022
18.727,64.3520,0.026022
18.759,64.3457,0.026022
18.790,64.3396,0.026022
18.820,64.3337,0.026022
18.851,64.3275,0.026022
18.882,64.3212,0.026022
18.913,64.3151,0.026022
18.944,64.3088,0.026079
18.976,64.3024,0.026079
19.006,64.2965,0.026079
19.037,64.2903,0.026079
19.069,64.2841,0.026079
19.099,64.2780,0.026079
19.131,64.2714,0.026079
19.162,64.2652,0.026079
19.193,64.2590,0.026079
19.224,64.2528,0.026117
19.255,64.2466,0.026117
19.287,64.2404,0.026117
19.317,64.2343,0.026117
19.348,64.2283,0.026117
19.379,64.2218,0.026117
19.410,64.2155,0.026117
19.442,64.2099,0.026117
19.475,64.2046,0.026070
19.504,64.2006,0.026070
19.535,64.1971,0.026070
19.568,64.1942,0.026070
19.597,64.1923,0.026070
19.628,64.1909,0.026070
19.659,64.1903,0.026070
19.690,64.1903,0.026070
19.722,64.1903,0.025796
19.753,64.1903,0.025796
19.784,64.1904,0.025796
19.815,64.1913,0.025796
19.846,64.1928,0.025796
19.877,64.1950,0.025796
19.910,64.1983,0.025796
19.940,64.2018,0.025335
19.971,64.2063,0.025335
20.002,64.2114,0.025335
20.033,64.2175,0.025335
20.065,64.2238,0.025335
20.095,64.2298,0.025335
20.126,64.2360,0.025335
20.157,64.2422,0.025335
20.188,64.2484,0.025335
20.219,64.2546,0.024685
20.249,64.2608,0.024685
20.280,64.2667,0.024685
20.311,64.2730,0.024685
20.342,64.2792,0.024685
20.373,64.2854,0.024685
20.405,64.2919,0.024685
20.437,64.2982,0.024119
20.468,64.3044,0.024119
20.500,64.3109,0.024119
20.532,64.3171,0.024119
20.563,64.3235,0.024119
20.594,64.3296,0.024119
20.625,64.3358,0.024119
20.657,64.3422,0.024119
20.686,64.3481,0.023969
20.716,64.3540,0.023969
20.747,64.3602,0.023969
20.778,64.3664,0.023969
20.810,64.3728,0.023969
20.840,64.3787,0.023969
20.871,64.3852,0.023969
20.902,64.3912,0.023969
20.933,64.3974,0.023969
20.964,64.4036,0.023827
20.996,64.4102,0.023827
21.028,64.4163,0.023827
21.059,64.4227,0.023827
21.090,64.4287,0.023827
21.120,64.4349,0.023827
21.152,64.4412,0.023827
21.183,64.4474,0.023752
21.214,64.4537,0.023752
21.244,64.4596,0.023752
21.274,64.4656,0.023752
21.305,64.4718,0.023752
21.336,64.4780,0.023752
21.367,64.4844,0.023752
21.399,64.4906,0.023752
21.430,64.4969,0.023752
21.461,64.5031,0.023648
21.492,64.5092,0.023648
21.524,64.5159,0.023648
21.554,64.5217,0.023648
21.585,64.5278,0.023648
21.616,64.5341,0.023648
21.647,64.5402,0.023648
21.678,64.5464,0.023403
21.711,64.5530,0.023403
21.740,64.5589,0.023403
21.771,64.5651,0.023403
21.801,64.5712,0.023403
21.831,64.5773,0.023403
21.865,64.5837,0.023403
21.895,64.5899,0.023403
21.926,64.5960,0.023403
21.957,64.6023,0.023243
21.988,64.6085,0.023243
22.019,64.6147,0.023243
22.050,64.6207,0.023243
22.081,64.6271,0.023243
22.113,64.6335,0.023243
22.143,64.6394,0.023243
22.174,64.6456,0.023158
22.206,64.6519,0.023158
22.237,64.6583,0.023158
22.267,64.6642,0.023158
22.299,64.6707,0.023158
22.330,64.6770,0.023158
22.361,64.6831,0.023158
22.393,64.6896,0.023158
22.424,64.6956,0.023045
22.455,64.7018,0.023045
22.486,64.7080,0.023045
22.516,64.7139,0.023045
22.547,64.7204,0.023045
22.578,64.7265,0.023045
22.610,64.7328,0.023045
22.642,64.7392,0.023045
22.673,64.7454,0.023045
22.704,64.7516,0.022885
22.735,64.7580,0.022885
22.766,64.7640,0.022885
22.797,64.7704,0.022885
22.826,64.7762,0.022885
22.856,64.7822,0.022885
22.888,64.7882,0.022885
22.918,64.7946,0.022885
22.949,64.8006,0.022715
22.980,64.8068,0.022715
23.012,64.8132,0.022715
23.041,64.8191,0.022715
23.072,64.8252,0.022715
23.104,64.8315,0.022715
23.135,64.8378,0.022715
23.166,64.8440,0.022715
23.197,64.8504,0.022593
23.228,64.8564,0.022593
23.261,64.8629,0.022593
23.291,64.8692,0.022593
23.322,64.8753,0.022593
23.352,64.8814,0.022593
23.384,64.8877,0.022593
23.415,64.8938,0.022593
23.447,64.9002,0.022593
23.478,64.9063,0.022461
23.510,64.9128,0.022461
23.540,64.9188,0.022461
23.572,64.9253,0.022461
23.603,64.9314,0.022461
23.634,64.9376,0.022461
23.666,64.9440,0.022461
23.696,64.9500,0.022461
23.727,64.9562,0.022216
23.759,64.9626,0.022216
23.789,64.9687,0.022216
23.820,64.9750,0.022216
23.851,64.9810,0.022216
23.883,64.9874,0.022216
23.913,64.9934,0.022216
23.944,64.9997,0.022216
23.975,65.0058,0.022009
24.006,65.0121,0.022009
24.037,65.0182,0.022009
24.069,65.0246,0.022009
24.100,65.0308,0.022009
24.132,65.0373,0.022009
24.163,65.0433,0.022009
24.194,65.0497,0.022009
24.225,65.0556,0.021905
24.256,65.0621,0.021905
24.287,65.0680,0.021905
24.317,65.0741,0.021905
24.348,65.0806,0.021905
24.380,65.0868,0.021905
24.411,65.0930,0.021905
24.442,65.0992,0.021698
24.473,65.1055,0.021698
24.503,65.1114,0.021698
24.534,65.1175,0.021698
24.565,65.1238,0.021698
24.597,65.1302,0.021698
24.629,65.1365,0.021698
24.659,65.1426,0.021698
24.690,65.1488,0.021698
24.722,65.1551,0.021444
24.754,65.1615,0.021444
24.786,65.1679,0.021444
24.817,65.1742,0.021444
24.848,65.1804,0.021444
24.879,65.1866,0.021444
24.911,65.1930,0.021444
24.941,65.1990,0.021236
24.973,65.2053,0.021236
25.003,65.2115,0.021236
25.033,65.2176,0.021236
25.064,65.2236,0.021236
25.095,65.2298,0.021236
25.127,65.2362,0.021236
25.157,65.2423,0.021236
25.189,65.2485,0.021236
25.221,65.2549,0.021001
25.251,65.2610,0.021001
25.282,65.2671,0.021001
25.313,65.2734,0.021001
25.345,65.2797,0.021001
25.376,65.2861,0.021001
25.407,65.2921,0.021001
25.437,65.2983,0.021001
25.469,65.3045,0.020737
25.500,65.3110,0.020737
25.531,65.3171,0.020737
25.562,65.3233,0.020737
25.593,65.3295,0.020737
25.624,65.3355,0.020737
25.655,65.3419,0.020737
25.687,65.3482,0.020435
25.718,65.3543,0.020435
25.749,65.3606,0.020435
25.779,65.3667,0.020435
25.810,65.3729,0.020435
25.841,65.3790,0.020435
25.872,65.3852,0.020435
25.903,65.3914,0.020435
25.935,65.3978,0.020435
25.966,65.4040,0.020106
25.998,65.4103,0.020106
26.030,65.4168,0.020106
26.059,65.4227,0.020106
26.090,65.4287,0.020106
26.121,65.4350,0.020106
26.152,65.4412,0.020106
26.184,65.4475,0.019719
26.214,65.4537,0.019719
26.245,65.4598,0.019719
26.277,65.4663,0.019719
26.307,65.4722,0.019719
26.339,65.4787,0.019719
26.370,65.4847,0.019719
26.401,65.4912,0.019719
26.432,65.4970,0.019719
26.463,65.5035,0.019352
26.495,65.5098,0.019352
26.526,65.5161,0.019352
26.558,65.5223,0.019352
26.589,65.5288,0.019352
26.622,65.5351,0.019352
26.653,65.5414,0.019352
26.684,65.5476,0.019352
26.715,65.5537,0.018834
26.746,65.5599,0.018834
26.777,65.5661,0.018834
26.807,65.5722,0.018834
26.839,65.5785,0.018834
26.869,65.5846,0.018834
26.901,65.5909,0.018834
26.931,65.5972,0.018268
26.961,65.6031,0.018268
26.992,65.6093,0.018268
27.024,65.6156,0.018268
27.056,65.6220,0.018268
27.087,65.6284,0.018268
27.118,65.6344,0.018268
27.149,65.6406,0.018268
27.181,65.6468,0.017656
27.211,65.6530,0.017656
27.242,65.6591,0.017656
27.273,65.6656,0.017656
27.305,65.6717,0.017656
27.335,65.6780,0.017656
27.366,65.6841,0.017656
27.399,65.6906,0.017656
27.430,65.6967,0.016959
27.461,65.7032,0.016959
27.493,65.7092,0.016959
27.524,65.7156,0.016959
27.555,65.7218,0.016959
27.586,65.7280,0.016959
27.617,65.7342,0.016959
27.648,65.7405,0.016959
27.682,65.7471,0.016959
27.711,65.7529,0.016177
27.740,65.7588,0.016177
27.771,65.7649,0.016177
27.802,65.7711,0.016177
27.833,65.7773,0.016177
27.863,65.7834,0.016177
27.893,65.7895,0.016177
27.925,65.7958,0.016177
27.957,65.8022,0.016177
27.988,65.8082,0.015169
28.019,65.8145,0.015169
28.051,65.8209,0.015169
28.082,65.8272,0.015169
28.113,65.8333,0.015169
28.144,65.8395,0.015169
28.175,65.8458,0.015169
28.206,65.8520,0.015169
28.240,65.8587,0.014095
28.269,65.8645,0.014095
28.300,65.8707,0.014095
28.330,65.8768,0.014095
28.361,65.8829,0.014095
28.392,65.8892,0.014095
28.423,65.8954,0.014095
28.454,65.9015,0.014095
28.485,65.9077,0.012766
28.516,65.9140,0.012766
28.548,65.9203,0.012766
28.578,65.9265,0.012766
28.611,65.9330,0.012766
28.640,65.9389,0.012766
28.672,65.9451,0.012766
28.703,65.9513,0.011183
28.734,65.9575,0.011183
28.765,65.9637,0.011183
28.798,65.9703,0.011183
28.828,65.9763,0.011183
28.859,65.9826,0.011183
28.890,65.9887,0.011183
28.921,65.9949,0.011183
28.951,66.0012,0.009337
28.982,66.0071,0.009337
29.013,66.0136,0.009337
29.045,66.0197,0.009337
29.076,66.0260,0.009337
29.106,66.0322,0.009337
29.138,66.0384,0.009337
29.171,66.0450,0.009337
29.200,66.0509,0.009337
29.232,66.0571,0.007113
29.264,66.0637,0.007113
29.296,66.0699,0.007113
29.327,66.0762,0.007113
29.358,66.0823,0.007113
29.390,66.0887,0.007113
29.422,66.0951,0.007113
29.451,66.1010,0.004617
29.482,66.1072,0.004617
29.513,66.1133,0.004617
29.544,66.1195,0.004617
29.575,66.1257,0.004617
29.605,66.1318,0.004617
29.636,66.1380,0.004617
29.667,66.1442,0.004617
29.698,66.1503,0.004617
29.730,66.1566,0.001621
29.761,66.1629,0.001621
29.792,66.1691,0.001621
29.823,66.1754,0.001621
29.854,66.1816,0.001621
29.885,66.1878,0.001621
29.917,66.1940,0.001621
29.948,66.2004,-0.001913
29.978,66.2064,-0.001913
30.009,66.2126,-0.001913
30.040,66.2190,-0.001913
30.071,66.2250,-0.001913
30.102,66.2314,-0.001913
30.133,66.2373,-0.001913
30.164,66.2436,-0.001913
30.195,66.2497,-0.001913
30.225,66.2559,-0.006077
30.257,66.2621,-0.006077
30.288,66.2685,-0.006077
30.319,66.2745,-0.006077
30.350,66.2810,-0.006077
30.382,66.2871,-0.006077
30.412,66.2931,-0.006077
30.443,66.2995,-0.011080
30.475,66.3057,-0.011080
30.506,66.3120,-0.011080
30.537,66.3181,-0.011080
30.568,66.3244,-0.011080
30.599,66.3306,-0.011080
30.630,66.3367,-0.011080
30.660,66.3427,-0.011080
30.691,66.3489,-0.011080
30.722,66.3553,-0.016799
30.754,66.3615,-0.016799
30.784,66.3675,-0.016799
30.814,66.3736,-0.016799
30.845,66.3798,-0.016799
30.876,66.3860,-0.016799
30.906,66.3921,-0.016799
30.937,66.3982,-0.023563
30.968,66.4044,-0.023563
31.000,66.4107,-0.023563
31.031,66.4169,-0.023563
31.062,66.4234,-0.023563
31.093,66.4293,-0.023563
31.124,66.4356,-0.023563
31.156,66.4420,-0.023563
31.187,66.4482,-0.031421
31.217,66.4542,-0.031421
31.248,66.4604,-0.031421
31.280,66.4668,-0.031421
31.310,66.4728,-0.031421
31.341,66.4790,-0.031421
31.372,66.4852,-0.031421
31.404,66.4916,-0.031421
31.434,66.4974,-0.040664
31.464,66.5037,-0.040664
31.495,66.5098,-0.040664
31.527,66.5161,-0.040664
31.558,66.5222,-0.040664
31.588,66.5285,-0.040664
31.618,66.5344,-0.040664
31.649,66.5406,-0.040664
31.681,66.5470,-0.040664
31.710,66.5528,-0.040664
31.741,66.5589,-0.051470
31.772,66.5651,-0.051470
31.804,66.5714,-0.051470
31.835,66.5778,-0.051470
31.866,66.5840,-0.051470
31.897,66.5902,-0.051470
31.927,66.5961,-0.051470
31.958,66.6023,-0.063822
31.989,66.6084,-0.063822
32.020,66.6147,-0.063822
32.050,66.6207,-0.063822
32.081,66.6269,-0.063822
32.112,66.6331,-0.063822
32.143,66.6393,-0.063822
32.174,66.6456,-0.063822
32.205,66.6517,-0.078114
32.235,66.6579,-0.078114
32.267,66.6642,-0.078114
32.298,66.6704,-0.078114
32.329,66.6765,-0.078114
32.360,66.6827,-0.078114
32.392,66.6890,-0.078114
32.423,66.6953,-0.078114
32.454,66.7014,-0.094348
32.484,66.7076,-0.094348
32.515,66.7138,-0.094348
32.546,66.7200,-0.094348
32.577,66.7260,-0.094348
32.608,66.7323,-0.094348
32.638,66.7384,-0.094348
32.669,66.7446,-0.094348
32.700,66.7508,-0.112814
32.732,66.7571,-0.112814
32.763,66.7633,-0.112814
32.795,66.7696,-0.112814
32.825,66.7757,-0.112814
32.856,66.7819,-0.112814
32.886,66.7881,-0.112814
32.917,66.7941,-0.112814
32.948,66.8003,-0.133692
32.979,66.8065,-0.133692
33.009,66.8125,-0.133692
33.041,66.8190,-0.133692
33.072,66.8251,-0.133692
33.103,66.8314,-0.133692
33.133,66.8373,-0.133692
33.164,66.8438,-0.133692
33.196,66.8499,-0.157096
33.227,66.8562,-0.157096
33.258,66.8623,-0.157096
33.289,66.8687,-0.157096
33.321,66.8748,-0.157096
33.351,66.8810,-0.157096
33.382,66.8872,-0.157096
33.413,66.8934,-0.157096
33.445,66.8996,-0.183250
33.476,66.9061,-0.183250
33.507,66.9121,-0.183250
33.538,66.9185,-0.183250
33.569,66.9245,-0.183250
33.600,66.9307,-0.183250
33.631,66.9369,-0.183250
33.662,66.9431,-0.183250
33.694,66.9496,-0.212297
33.724,66.9557,-0.212297
33.755,66.9616,-0.212297
33.786,66.9679,-0.212297
33.816,66.9739,-0.212297
33.848,66.9802,-0.212297
33.879,66.9864,-0.212297
33.909,66.9926,-0.212297
33.941,66.9989,-0.244632
33.972,67.0052,-0.244632
34.003,67.0112,-0.244632
34.033,67.0174,-0.244632
34.065,67.0238,-0.244632
34.096,67.0301,-0.244632
34.128,67.0364,-0.244632
34.159,67.0426,-0.244632
34.190,67.0487,-0.280434
34.220,67.0548,-0.280434
34.253,67.0612,-0.280434
34.282,67.0672,-0.280434
34.313,67.0732,-0.280434
34.343,67.0794,-0.280434
34.374,67.0856,-0.280434
34.405,67.0917,-0.280434
34.437,67.0982,-0.280434
34.469,67.1045,-0.319910
34.500,67.1108,-0.319910
34.530,67.1168,-0.319910
34.562,67.1233,-0.319910
34.594,67.1294,-0.319910
34.625,67.1357,-0.319910
34.656,67.1419,-0.319910
34.687,67.1483,-0.319910
34.718,67.1544,-0.363278
34.750,67.1607,-0.363278
34.780,67.1668,-0.363278
34.811,67.1721,-0.363278
34.842,67.1769,-0.363278
34.873,67.1809,-0.363278
34.905,67.1844,-0.363278
34.935,67.1868,-0.363278
34.966,67.1887,-0.409774
34.997,67.1898,-0.409774
35.028,67.1902,-0.409774
35.059,67.1902,-0.409774
35.090,67.1902,-0.409774
35.121,67.1902,-0.409774
35.152,67.1902,-0.409774
35.183,67.1902,-0.439697
35.214,67.1902,-0.439697
35.244,67.1902,-0.439697
35.276,67.1902,-0.439697
35.305,67.1902,-0.439697
35.338,67.1902,-0.439697
35.368,67.1902,-0.439697
35.399,67.1902,-0.439697
35.430,67.1902,-0.442024
35.461,67.1902,-0.442024
35.492,67.1902,-0.442024
35.523,67.1902,-0.442024
35.553,67.1902,-0.442024
35.585,67.1902,-0.442024
35.616,67.1902,-0.442024
35.649,67.1902,-0.442024
35.679,67.1902,-0.435419
35.709,67.1902,-0.435419
35.741,67.1902,-0.435419
35.772,67.1902,-0.435419
35.803,67.1902,-0.435419
35.835,67.1902,-0.435419
35.865,67.1902,-0.435419
35.895,67.1902,-0.435419
35.926,67.1902,-0.435419
35.958,67.1902,-0.430313
35.989,67.1902,-0.430313
36.019,67.1902,-0.430313
36.050,67.1902,-0.430313
36.080,67.1902,-0.430313
36.113,67.1902,-0.430313
36.143,67.1902,-0.430313
36.175,67.1902,-0.430313
36.206,67.1902,-0.426101
36.237,67.1902,-0.426101
36.268,67.1902,-0.426101
36.299,67.1902,-0.426101
36.331,67.1902,-0.426101
36.362,67.1902,-0.426101
36.394,67.1902,-0.426101
36.425,67.1902,-0.426101
36.455,67.1902,-0.422483
36.485,67.1902,-0.422483
36.515,67.1902,-0.422483
36.546,67.1902,-0.422483
36.577,67.1902,-0.422483
36.607,67.1902,-0.422483
36.638,67.1902,-0.422483
36.669,67.1902,-0.422483
36.700,67.1902,-0.419289
36.732,67.1902,-0.419289
36.762,67.1902,-0.419289
36.792,67.1902,-0.419289
36.824,67.1902,-0.419289
36.855,67.1902,-0.419289
36.885,67.1902,-0.419289
36.916,67.1902,-0.419289
36.947,67.1902,-0.416454
36.978,67.1902,-0.416454
37.008,67.1902,-0.416454
37.039,67.1902,-0.416454
37.071,67.1902,-0.416454
37.101,67.1902,-0.416454
37.132,67.1902,-0.416454
37.164,67.1902,-0.416454
37.196,67.1902,-0.416454
37.228,67.1902,-0.413834
37.259,67.1902,-0.413834
37.289,67.1902,-0.413834
37.320,67.1902,-0.413834
37.351,67.1902,-0.413834
37.383,67.1902,-0.413834
37.415,67.1902,-0.413834
37.446,67.1902,-0.413834
37.478,67.1902,-0.411385
37.509,67.1902,-0.411385
37.540,67.1902,-0.411385
37.571,67.1902,-0.411385
37.602,67.1902,-0.411385
37.633,67.1902,-0.411385
37.664,67.1902,-0.411385
37.695,67.1902,-0.411385
37.725,67.1902,-0.409208
37.756,67.1902,-0.409208
37.786,67.1902,-0.409208
37.817,67.1902,-0.409208
37.848,67.1902,-0.409208
37.878,67.1902,-0.409208
37.910,67.1902,-0.409208
37.941,67.1902,-0.407267
37.971,67.1902,-0.407267
38.002,67.1902,-0.407267
38.034,67.1902,-0.407267
38.065,67.1902,-0.407267
38.096,67.1902,-0.407267
38.127,67.1902,-0.407267
38.158,67.1902,-0.407267
38.189,67.1902,-0.405430
38.220,67.1902,-0.405430
38.251,67.1902,-0.405430
38.282,67.1902,-0.405430
38.313,67.1902,-0.405430
38.344,67.1902,-0.405430
38.375,67.1902,-0.405430
38.406,67.1902,-0.405430
38.438,67.1902,-0.403565
38.469,67.1902,-0.403565
38.500,67.1902,-0.403565
38.531,67.1902,-0.403565
38.561,67.1902,-0.403565
38.592,67.1902,-0.403565
38.622,67.1902,-0.403565
38.653,67.1902,-0.403565
38.684,67.1902,-0.403565
38.714,67.1902,-0.400540
38.746,67.1902,-0.400540
38.777,67.1902,-0.400540
38.809,67.1902,-0.400540
38.840,67.1902,-0.400540
38.871,67.1902,-0.400540
38.902,67.1902,-0.400540
38.933,67.1902,-0.400540
38.964,67.1902,-0.391053
38.995,67.1902,-0.391053
39.026,67.1902,-0.391053
39.057,67.1902,-0.391053
39.088,67.1902,-0.391053
39.118,67.1902,-0.391053
39.150,67.1902,-0.391053
39.180,67.1902,-0.391053
39.212,67.1902,-0.391053
39.242,67.1902,-0.378890
39.273,67.1902,-0.378890
39.306,67.1897,-0.378890
39.336,67.1886,-0.378890
39.367,67.1867,-0.378890
39.398,67.1840,-0.378890
39.429,67.1806,-0.378890
39.461,67.1764,-0.373915
39.492,67.1715,-0.373915
39.523,67.1661,-0.373915
39.554,67.1598,-0.373915
39.585,67.1537,-0.373915
39.616,67.1475,-0.373915
39.647,67.1415,-0.373915
39.678,67.1351,-0.373915
39.708,67.1288,-0.357465
39.741,67.1227,-0.357465
39.771,67.1164,-0.357465
39.802,67.1104,-0.357465
39.833,67.1041,-0.357465
39.864,67.0979,-0.357465
39.896,67.0916,-0.357465
39.927,67.0854,-0.357465
39.958,67.0791,-0.313494
39.989,67.0730,-0.313494
40.020,67.0668,-0.313494
40.052,67.0602,-0.313494
40.083,67.0541,-0.313494
40.114,67.0479,-0.313494
40.145,67.0417,-0.313494
40.176,67.0355,-0.260997
40.208,67.0292,-0.260997
40.238,67.0230,-0.260997
40.269,67.0168,-0.260997
40.300,67.0107,-0.260997
40.331,67.0044,-0.260997
40.362,66.9983,-0.260997
40.393,66.9920,-0.260997
40.424,66.9858,-0.260997
40.455,66.9796,-0.214172
40.487,66.9733,-0.214172
40.518,66.9670,-0.214172
40.550,66.9607,-0.214172
40.582,66.9542,-0.214172
40.612,66.9482,-0.214172
40.644,66.9419,-0.214172
40.676,66.9357,-0.172227
40.707,66.9294,-0.172227
40.738,66.9230,-0.172227
40.768,66.9171,-0.172227
40.799,66.9108,-0.172227
40.830,66.9047,-0.172227
40.860,66.8986,-0.172227
40.892,66.8924,-0.172227
40.923,66.8861,-0.172227
40.955,66.8799,-0.134738
40.986,66.8736,-0.134738
41.017,66.8674,-0.134738
41.048,66.8612,-0.134738
41.079,66.8550,-0.134738
41.109,66.8489,-0.134738
41.141,66.8427,-0.134738
41.172,66.8364,-0.134738
41.203,66.8300,-0.101292
41.234,66.8240,-0.101292
41.265,66.8176,-0.101292
41.297,66.8113,-0.101292
41.326,66.8056,-0.101292
41.358,66.7991,-0.101292
41.388,66.7931,-0.101292
41.418,66.7871,-0.101292
41.450,66.7808,-0.071265
41.481,66.7746,-0.071265
41.512,66.7685,-0.071265
41.543,66.7622,-0.071265
41.574,66.7560,-0.071265
41.605,66.7498,-0.071265
41.636,66.7436,-0.071265
41.667,66.7371,-0.071265
41.699,66.7311,-0.044451
41.731,66.7245,-0.044451
41.761,66.7185,-0.044451
41.792,66.7125,-0.044451
41.823,66.7060,-0.044451
41.854,66.6999,-0.044451
41.886,66.6936,-0.044451
41.917,66.6873,-0.020341
41.948,66.6812,-0.020341
41.979,66.6750,-0.020341
42.010,66.6688,-0.020341
42.041,66.6626,-0.020341
42.072,66.6564,-0.020341
42.103,66.6502,-0.020341
42.135,66.6437,-0.020341
42.166,66.6377,-0.020341
42.196,66.6313,0.001328
42.228,66.6251,0.001328
42.259,66.6189,0.001328
42.290,66.6127,0.001328
42.321,66.6065,0.001328
42.352,66.6003,0.001328
42.383,66.5943,0.001328
42.414,66.5881,0.001328
42.445,66.5817,0.020775
42.476,66.5757,0.020775
42.507,66.5692,0.020775
42.538,66.5633,0.020775
42.570,66.5567,0.020775
42.600,66.5507,0.020775
42.632,66.5443,0.020775
42.663,66.5382,0.020775
42.695,66.5316,0.020775
42.727,66.5254,0.038619
42.759,66.5189,0.038619
42.791,66.5125,0.038619
42.821,66.5065,0.038619
42.853,66.5003,0.038619
42.884,66.4938,0.038619
42.915,66.4878,0.038619
42.947,66.4814,0.055154
42.976,66.4756,0.055154
43.008,66.4692,0.055154
43.038,66.4630,0.055154
43.069,66.4570,0.055154
43.100,66.4508,0.055154
43.131,66.4447,0.055154
43.162,66.4385,0.055154
43.194,66.4320,0.055154
43.225,66.4258,0.070832
43.256,66.4196,0.070832
43.288,66.4132,0.070832
43.320,66.4067,0.070832
43.351,66.4004,0.070832
43.381,66.3945,0.070832
43.414,66.3880,0.070832
43.442,66.3824,0.086000
43.473,66.3761,0.086000
43.505,66.3698,0.086000
43.534,66.3639,0.086000
43.566,66.3576,0.086000
43.596,66.3514,0.086000
43.628,66.3452,0.086000
43.659,66.3390,0.086000
43.690,66.3328,0.101405
43.721,66.3266,0.101405
43.752,66.3204,0.101405
43.783,66.3142,0.101405
43.814,66.3080,0.101405
43.844,66.3019,0.101405
43.875,66.2957,0.101405
43.906,66.2895,0.101405
43.938,66.2832,0.101405
43.970,66.2769,0.117403
44.001,66.2707,0.117403
44.032,66.2645,0.117403
44.063,66.2583,0.117403
44.093,66.2521,0.117403
44.124,66.2459,0.117403
44.155,66.2399,0.117403
44.186,66.2337,0.134465
44.216,66.2276,0.134465
44.247,66.2214,0.134465
44.277,66.2154,0.134465
44.309,66.2089,0.134465
44.340,66.2028,0.134465
44.371,66.1966,0.134465
44.401,66.1906,0.134465
44.432,66.1842,0.134465
44.464,66.1780,0.153233
44.496,66.1716,0.153233
44.528,66.1650,0.153233
44.558,66.1591,0.153233
44.589,66.1527,0.153233
44.621,66.1467,0.153233
44.649,66.1410,0.153233
44.683,66.1341,0.173781
44.716,66.1274,0.173781
44.747,66.1214,0.173781
44.778,66.1150,0.173781
44.809,66.1088,0.173781
44.840,66.1028,0.173781
44.871,66.0967,0.173781
44.902,66.0905,0.173781
44.932,66.0844,0.196553
44.962,66.0782,0.196553
44.993,66.0721,0.196553
45.025,66.0657,0.196553
45.056,66.0596,0.196553
45.087,66.0531,0.196553
45.119,66.0471,0.196553
45.150,66.0406,0.196553
45.181,66.0345,0.196553
45.213,66.0282,0.221803
45.244,66.0219,0.221803
45.275,66.0157,0.221803
45.306,66.0096,0.221803
45.337,66.0034,0.221803
45.368,65.9972,0.221803
45.398,65.9911,0.221803
45.430,65.9848,0.249616
45.463,65.9782,0.249616
45.492,65.9722,0.249616
45.525,65.9658,0.249616
45.555,65.9599,0.249616
45.586,65.9537,0.249616
45.617,65.9475,0.249616
45.648,65.9412,0.249616
45.679,65.9351,0.279737
45.711,65.9285,0.279737
45.741,65.9224,0.279737
45.773,65.9161,0.279737
45.803,65.9101,0.279737
45.835,65.9037,0.279737
45.866,65.8977,0.279737
45.896,65.8914,0.279737
45.927,65.8853,0.312307
45.959,65.8789,0.312307
45.990,65.8728,0.312307
46.022,65.8664,0.312307
46.053,65.8603,0.312307
46.085,65.8540,0.312307
46.116,65.8476,0.312307
46.146,65.8416,0.312307
46.177,65.8354,0.312307
46.209,65.8290,0.347761
46.242,65.8225,0.347761
46.272,65.8165,0.347761
46.303,65.8103,0.347761
46.334,65.8039,0.347761
46.365,65.7978,0.347761
46.396,65.7915,0.347761
46.428,65.7851,0.347761
46.459,65.7791,0.347761
46.490,65.7729,0.385928
46.521,65.7667,0.385928
46.551,65.7605,0.385928
46.582,65.7542,0.385928
46.613,65.7482,0.385928
46.645,65.7418,0.385928
46.676,65.7355,0.385928
46.707,65.7293,0.385928
46.739,65.7231,0.426506
46.770,65.7168,0.426506
46.801,65.7106,0.426506
46.832,65.7043,0.426506
46.863,65.6982,0.426506
46.894,65.6920,0.426506
46.925,65.6858,0.426506
46.956,65.6795,0.468838
46.987,65.6734,0.468838
47.019,65.6669,0.468838
47.049,65.6611,0.468838
47.079,65.6548,0.468838
47.110,65.6488,0.468838
47.142,65.6424,0.468838
47.174,65.6361,0.468838
47.205,65.6296,0.468838
47.237,65.6235,0.512262
47.268,65.6172,0.512262
47.299,65.6110,0.512262
47.330,65.6044,0.512262
47.361,65.5986,0.512262
47.392,65.5924,0.512262
47.423,65.5862,0.512262
47.454,65.5800,0.556129
47.485,65.5737,0.556129
47.516,65.5676,0.556129
47.546,65.5616,0.556129
47.577,65.5554,0.556129
47.609,65.5491,0.556129
47.640,65.5428,0.556129
47.671,65.5366,0.556129
47.702,65.5305,0.556129
47.733,65.5243,0.599892
47.763,65.5181,0.599892
47.795,65.5119,0.599892
47.826,65.5056,0.599892
47.857,65.4994,0.599892
47.888,65.4932,0.599892
47.919,65.4871,0.599892
47.950,65.4808,0.642468
47.981,65.4746,0.642468
48.012,65.4685,0.642468
48.043,65.4623,0.642468
48.074,65.4561,0.642468
48.104,65.4499,0.642468
48.136,65.4437,0.642468
48.166,65.4376,0.642468
48.197,65.4314,0.642468
48.227,65.4253,0.682859
48.259,65.4189,0.682859
48.291,65.4127,0.682859
48.322,65.4065,0.682859
48.353,65.4002,0.682859
48.384,65.3940,0.682859
48.416,65.3878,0.682859
48.447,65.3813,0.682859
48.478,65.3752,0.720244
48.510,65.3688,0.720244
48.542,65.3625,0.720244
48.572,65.3564,0.720244
48.602,65.3502,0.720244
48.634,65.3441,0.720244
48.665,65.3378,0.720244
48.695,65.3317,0.720244
48.727,65.3255,0.753492
48.758,65.3192,0.753492
48.789,65.3130,0.753492
48.821,65.3066,0.753492
48.853,65.3001,0.753492
48.883,65.2941,0.753492
48.915,65.2878,0.753492
48.946,65.2817,0.753492
48.977,65.2754,0.782030
49.008,65.2692,0.782030
49.039,65.2629,0.782030
49.070,65.2568,0.782030
49.101,65.2507,0.782030
49.132,65.2444,0.782030
49.163,65.2382,0.782030
49.194,65.2321,0.805462
49.226,65.2257,0.805462
49.258,65.2191,0.805462
49.288,65.2131,0.805462
49.319,65.2069,0.805462
49.351,65.2007,0.805462
49.381,65.1945,0.805462
49.413,65.1881,0.805462
49.444,65.1820,0.822609
49.475,65.1758,0.822609
49.506,65.1697,0.822609
49.537,65.1634,0.822609
49.568,65.1572,0.822609
49.599,65.1511,0.822609
49.630,65.1448,0.822609
49.661,65.1385,0.822609
49.692,65.1325,0.832031
49.724,65.1259,0.832031
49.755,65.1197,0.832031
49.787,65.1135,0.832031
49.817,65.1073,0.832031
49.849,65.1010,0.832031
49.880,65.0946,0.832031
49.912,65.0884,0.832031
49.943,65.0823,0.830844
49.975,65.0758,0.830844
50.007,65.0695,0.830844
50.038,65.0632,0.830844
50.068,65.0571,0.830844
50.099,65.0510,0.830844
50.130,65.0447,0.830844
50.161,65.0385,0.830844
50.193,65.0323,0.804115
50.223,65.0262,0.804115
50.254,65.0199,0.804115
50.285,65.0138,0.804115
50.316,65.0076,0.804115
50.347,65.0014,0.804115
50.378,64.9952,0.804115
50.410,64.9888,0.804115
50.441,64.9827,0.732869
50.473,64.9764,0.732869
50.503,64.9700,0.732869
50.534,64.9641,0.732869
50.565,64.9579,0.732869
50.596,64.9516,0.732869
50.627,64.9454,0.732869
50.658,64.9390,0.732869
50.690,64.9328,0.573992
50.721,64.9266,0.573992
50.751,64.9206,0.573992
50.782,64.9144,0.573992
50.813,64.9083,0.573992
50.845,64.9017,0.573992
50.876,64.8956,0.573992
50.907,64.8893,0.573992
50.937,64.8834,0.259782
50.968,64.8773,0.259782
50.998,64.8713,0.259782
51.029,64.8651,0.259782
51.061,64.8586,0.259782
51.091,64.8525,0.259782
51.122,64.8464,0.259782
51.153,64.8402,0.259782
51.184,64.8341,0.041691
51.215,64.8279,0.041691
51.245,64.8217,0.041691
51.277,64.8155,0.041691
51.308,64.8093,0.041691
51.338,64.8031,0.041691
51.370,64.7968,0.041691
51.401,64.7906,0.041691
51.433,64.7843,0.041691
51.465,64.7779,0.041691
51.496,64.7716,0.027068
51.526,64.7655,0.027068
51.556,64.7597,0.027068
51.587,64.7534,0.027068
51.619,64.7472,0.027068
51.650,64.7409,0.027068
51.681,64.7345,0.027068
51.712,64.7283,0.026729
51.744,64.7221,0.026729
51.773,64.7162,0.026729
51.804,64.7100,0.026729
51.835,64.7039,0.026729
51.865,64.6977,0.026729
51.897,64.6915,0.026729
51.928,64.6852,0.026729
51.959,64.6792,0.026578
51.991,64.6725,0.026578
52.022,64.6664,0.026578
52.053,64.6602,0.026578
52.084,64.6540,0.026578
52.115,64.6477,0.026578
52.146,64.6415,0.026578
52.178,64.6352,0.026578
52.209,64.6290,0.026437
52.241,64.6227,0.026437
52.271,64.6166,0.026437
52.302,64.6103,0.026437
52.333,64.6043,0.026437
52.365,64.5979,0.026437
52.396,64.5918,0.026437
52.427,64.5853,0.026437
52.457,64.5795,0.026333
52.489,64.5731,0.026333
52.520,64.5668,0.026333
52.552,64.5605,0.026333
52.582,64.5544,0.026333
52.613,64.5482,0.026333
52.644,64.5420,0.026333
52.675,64.5358,0.026286
52.706,64.5295,0.026286
52.737,64.5234,0.026286
52.769,64.5171,0.026286
52.800,64.5108,0.026286
52.832,64.5045,0.026286
52.863,64.4983,0.026286
52.893,64.4922,0.026286
52.924,64.4860,0.026286
52.955,64.4798,0.026230
52.986,64.4736,0.026230
53.017,64.4674,0.026230
53.048,64.4611,0.026230
53.080,64.4549,0.026230
53.111,64.4485,0.026230
53.143,64.4422,0.026230
53.174,64.4360,0.026230
53.204,64.4301,0.026183
53.235,64.4239,0.026183
53.267,64.4174,0.026183
53.298,64.4112,0.026183
53.329,64.4049,0.026183
53.360,64.3987,0.026183
53.391,64.3926,0.026183
53.422,64.3863,0.026173
53.453,64.3803,0.026173
53.483,64.3742,0.026173
53.515,64.3678,0.026173
53.546,64.3617,0.026173
53.577,64.3554,0.026173
53.608,64.3493,0.026173
53.639,64.3431,0.026173
53.670,64.3369,0.026173
53.701,64.3306,0.026173
53.732,64.3245,0.026183
53.764,64.3181,0.026183
53.795,64.3119,0.026183
53.826,64.3057,0.026183
53.857,64.2995,0.026183
53.889,64.2931,0.026183
53.920,64.2869,0.026183
53.951,64.2807,0.026173
53.981,64.2745,0.026173
54.012,64.2684,0.026173
54.043,64.2622,0.026173
54.075,64.2559,0.026173
54.105,64.2498,0.026173
54.136,64.2436,0.026173
54.166,64.2376,0.026173
54.198,64.2311,0.026173
54.230,64.2249,0.026126
54.262,64.2183,0.026126
54.294,64.2121,0.026126
54.326,64.2057,0.026126
54.356,64.1996,0.026126
54.388,64.1932,0.026126
54.420,64.1868,0.026126
54.451,64.1803,0.026126
54.482,64.1744,0.026136
54.513,64.1682,0.026136
54.545,64.1622,0.026136
54.575,64.1570,0.026136
54.607,64.1521,0.026136
54.638,64.1484,0.026136
54.669,64.1453,0.026136
54.700,64.1429,0.026136
54.731,64.1413,0.026079
54.762,64.1405,0.026079
54.793,64.1402,0.026079
54.825,64.1402,0.026079
54.856,64.1402,0.026079
54.887,64.1402,0.026079
54.917,64.1402,0.026079
54.948,64.1406,0.026079
54.979,64.1417,0.025636
55.009,64.1434,0.025636
55.040,64.1460,0.025636
55.071,64.1493,0.025636
55.102,64.1531,0.025636
55.132,64.1576,0.025636
55.162,64.1629,0.025636
55.193,64.1691,0.025636
55.225,64.1753,0.025061
55.256,64.1815,0.025061
55.286,64.1877,0.025061
55.318,64.1940,0.025061
55.349,64.2002,0.025061
55.381,64.2064,0.025061
55.412,64.2128,0.025061
55.444,64.2192,0.025061
55.475,64.2253,0.024506
55.505,64.2314,0.024506
55.537,64.2377,0.024506
55.568,64.2440,0.024506
55.599,64.2501,0.024506
55.630,64.2564,0.024506
55.661,64.2625,0.024506
55.692,64.2687,0.024506
55.723,64.2750,0.024148
55.755,64.2813,0.024148
55.786,64.2874,0.024148
55.817,64.2936,0.024148
55.847,64.2998,0.024148
55.879,64.3062,0.024148
55.910,64.3124,0.024148
55.941,64.3186,0.024148
55.972,64.3249,0.024016
56.003,64.3310,0.024016
56.034,64.3370,0.024016
56.064,64.3432,0.024016
56.095,64.3493,0.024016
56.127,64.3559,0.024016
56.157,64.3617,0.024016
56.189,64.3682,0.024016
56.220,64.3744,0.023837
56.251,64.3807,0.023837
56.282,64.3866,0.023837
56.312,64.3928,0.023837
56.343,64.3989,0.023837
56.374,64.4052,0.023837
56.406,64.4114,0.023837
56.437,64.4176,0.023837
56.467,64.4237,0.023639
56.498,64.4301,0.023639
56.530,64.4365,0.023639
56.561,64.4425,0.023639
56.592,64.4488,0.023639
56.624,64.4552,0.023639
56.655,64.4613,0.023639
56.686,64.4676,0.023639
56.717,64.4740,0.023535
56.748,64.4799,0.023535
56.779,64.4861,0.023535
56.809,64.4923,0.023535
56.840,64.4984,0.023535
56.872,64.5048,0.023535
56.903,64.5109,0.023535
56.936,64.5176,0.023535
56.967,64.5239,0.023422
56.998,64.5301,0.023422
57.031,64.5366,0.023422
57.060,64.5424,0.023422
57.091,64.5485,0.023422
57.122,64.5547,0.023422
57.152,64.5609,0.023422
57.183,64.5670,0.023337
57.214,64.5731,0.023337
57.245,64.5794,0.023337
57.276,64.5855,0.023337
57.307,64.5918,0.023337
57.338,64.5979,0.023337
57.369,64.6041,0.023337
57.400,64.6103,0.023337
57.431,64.6165,0.023234
57.462,64.6229,0.023234
57.493,64.6289,0.023234
57.525,64.6353,0.023234
57.555,64.6415,0.023234
57.585,64.6475,0.023234
57.618,64.6539,0.023234
57.647,64.6599,0.023234
57.679,64.6662,0.023234
57.710,64.6724,0.023017
57.740,64.6783,0.023017
57.771,64.6847,0.023017
57.802,64.6907,0.023017
57.834,64.6972,0.023017
57.864,64.7033,0.023017
57.895,64.7094,0.023017
57.926,64.7156,0.023017
57.958,64.7220,0.022866
57.989,64.7281,0.022866
58.021,64.7347,0.022866
58.051,64.7406,0.022866
58.082,64.7467,0.022866
58.113,64.7529,0.022866
58.144,64.7590,0.022866
58.175,64.7654,0.022866
58.206,64.7715,0.022734
58.237,64.7777,0.022734
58.267,64.7838,0.022734
58.298,64.7900,0.022734
58.329,64.7962,0.022734
58.362,64.8026,0.022734
58.392,64.8087,0.022734
58.423,64.8150,0.022734
58.454,64.8211,0.022565
58.485,64.8273,0.022565
58.516,64.8335,0.022565
58.546,64.8396,0.022565
58.577,64.8458,0.022565
58.609,64.8521,0.022565
58.640,64.8583,0.022565
58.672,64.8646,0.022565
58.702,64.8708,0.022423
58.734,64.8770,0.022423
58.765,64.8832,0.022423
58.796,64.8897,0.022423
58.827,64.8956,0.022423
58.858,64.9020,0.022423
58.888,64.9082,0.022423
58.919,64.9141,0.022423
58.950,64.9204,0.022216
58.981,64.9265,0.022216
59.013,64.9328,0.022216
59.044,64.9390,0.022216
59.075,64.9452,0.022216
59.105,64.9513,0.022216
59.136,64.9575,0.022216
59.168,64.9640,0.022216
59.199,64.9702,0.021999
59.231,64.9765,0.021999
59.262,64.9827,0.021999
59.293,64.9889,0.021999
59.324,64.9952,0.021999
59.355,65.0012,0.021999
59.386,65.0075,0.021999
59.417,65.0137,0.021999
59.447,65.0197,0.021999
59.478,65.0259,0.021839
59.508,65.0319,0.021839
59.539,65.0383,0.021839
59.571,65.0445,0.021839
59.602,65.0508,0.021839
59.633,65.0569,0.021839
59.664,65.0633,0.021839
59.696,65.0694,0.021604
59.728,65.0760,0.021604
59.759,65.0822,0.021604
59.791,65.0886,0.021604
59.823,65.0948,0.021604
59.855,65.1013,0.021604
59.885,65.1073,0.021604
59.916,65.1135,0.021604
59.947,65.1197,0.021387
59.979,65.1261,0.021387
60.010,65.1324,0.021387
60.041,65.1386,0.021387
60.072,65.1448,0.021387
60.104,65.1511,0.021387
60.135,65.1573,0.021387
60.166,65.1635,0.021387
60.197,65.1697,0.021142
60.227,65.1758,0.021142
60.259,65.1821,0.021142
60.290,65.1883,0.021142
60.321,65.1944,0.021142
60.352,65.2006,0.021142
60.383,65.2069,0.021142
60.414,65.2133,0.021142
60.445,65.2192,0.020907
60.476,65.2254,0.020907
60.507,65.2316,0.020907
60.538,65.2378,0.020907
60.569,65.2440,0.020907
60.599,65.2502,0.020907
60.630,65.2564,0.020907
60.661,65.2625,0.020907
60.692,65.2687,0.020652
60.723,65.2748,0.020652
60.754,65.2811,0.020652
60.786,65.2875,0.020652
60.817,65.2936,0.020652
60.848,65.3000,0.020652
60.879,65.3062,0.020652
60.910,65.3124,0.020652
60.941,65.3186,0.020285
60.974,65.3250,0.020285
61.004,65.3311,0.020285
61.036,65.3375,0.020285
61.067,65.3437,0.020285
61.098,65.3501,0.020285
61.130,65.3563,0.020285
61.162,65.3627,0.020285
61.192,65.3688,0.019908
61.222,65.3747,0.019908
61.253,65.3809,0.019908
61.284,65.3870,0.019908
61.315,65.3933,0.019908
61.345,65.3993,0.019908
61.376,65.4056,0.019908
61.407,65.4117,0.019908
61.438,65.4179,0.019493
61.469,65.4241,0.019493
61.500,65.4303,0.019493
61.531,65.4366,0.019493
61.562,65.4427,0.019493
61.593,65.4489,0.019493
61.625,65.4552,0.019493
61.656,65.4614,0.019493
61.686,65.4678,0.019135
61.717,65.4737,0.019135
61.748,65.4799,0.019135
61.779,65.4860,0.019135
61.810,65.4923,0.019135
61.842,65.4988,0.019135
61.874,65.5051,0.019135
61.905,65.5113,0.019135
61.936,65.5175,0.018664
61.967,65.5238,0.018664
61.999,65.5300,0.018664
62.030,65.5362,0.018664
62.062,65.5425,0.018664
62.093,65.5489,0.018664
62.124,65.5552,0.018664
62.155,65.5614,0.018664
62.186,65.5673,0.018042
62.217,65.5735,0.018042
62.248,65.5797,0.018042
62.279,65.5861,0.018042
62.309,65.5922,0.018042
62.340,65.5982,0.018042
62.371,65.6046,0.018042
62.402,65.6108,0.018042
62.433,65.6170,0.018042
62.464,65.6232,0.018042
62.495,65.6295,0.017373
62.527,65.6356,0.017373
62.559,65.6421,0.017373
62.591,65.6485,0.017373
62.622,65.6549,0.017373
62.653,65.6610,0.017373
62.685,65.6672,0.017373
62.715,65.6731,0.016601
62.746,65.6796,0.016601
62.777,65.6858,0.016601
62.808,65.6917,0.016601
62.840,65.6983,0.016601
62.871,65.7044,0.016601
62.902,65.7108,0.016601
62.934,65.7169,0.016601
62.965,65.7234,0.016601
62.995,65.7293,0.015715
63.026,65.7355,0.015715
63.057,65.7415,0.015715
63.087,65.7477,0.015715
63.118,65.7539,0.015715
63.149,65.7601,0.015715
63.179,65.7663,0.015715
63.210,65.7722,0.014651
63.241,65.7784,0.014651
63.273,65.7848,0.014651
63.304,65.7911,0.014651
63.335,65.7974,0.014651
63.366,65.8034,0.014651
63.397,65.8098,0.014651
63.429,65.8161,0.014651
63.458,65.8221,0.014651
63.490,65.8282,0.013482
63.520,65.8342,0.013482
63.551,65.8406,0.013482
63.581,65.8466,0.013482
63.612,65.8526,0.013482
63.644,65.8590,0.013482
63.674,65.8653,0.013482
63.706,65.8715,0.012060
63.738,65.8778,0.012060
63.769,65.8841,0.012060
63.801,65.8903,0.012060
63.832,65.8968,0.012060
63.862,65.9027,0.012060
63.894,65.9092,0.012060
63.928,65.9160,0.012060
63.956,65.9217,0.012060
63.989,65.9280,0.010317
64.019,65.9341,0.010317
64.050,65.9404,0.010317
64.080,65.9464,0.010317
64.111,65.9526,0.010317
64.142,65.9588,0.010317
64.173,65.9650,0.010317
64.204,65.9712,0.010317
64.238,65.9779,0.008366
64.268,65.9839,0.008366
64.299,65.9901,0.008366
64.329,65.9960,0.008366
64.360,66.0022,0.008366
64.392,66.0086,0.008366
64.421,66.0145,0.008366
64.452,66.0209,0.008366
64.482,66.0266,0.008366
64.513,66.0328,0.005983
64.544,66.0390,0.005983
64.575,66.0452,0.005983
64.605,66.0513,0.005983
64.636,66.0576,0.005983
64.668,66.0639,0.005983
64.699,66.0701,0.005983
64.730,66.0763,0.003194
64.762,66.0825,0.003194
64.793,66.0889,0.003194
64.825,66.0952,0.003194
64.856,66.1015,0.003194
64.887,66.1077,0.003194
64.918,66.1138,0.003194
64.949,66.1200,-0.000075
64.982,66.1266,-0.000075
65.011,66.1326,-0.000075
65.041,66.1386,-0.000075
65.073,66.1448,-0.000075
65.103,66.1509,-0.000075
65.134,66.1572,-0.000075
65.165,66.1633,-0.000075
65.196,66.1695,-0.003901
65.227,66.1756,-0.003901
65.257,66.1819,-0.003901
65.289,66.1880,-0.003901
65.319,66.1940,-0.003901
65.350,66.2002,-0.003901
65.381,66.2064,-0.003901
65.413,66.2130,-0.003901
65.444,66.2190,-0.008385
65.475,66.2253,-0.008385
65.506,66.2314,-0.008385
65.537,66.2376,-0.008385
65.568,66.2440,-0.008385
65.600,66.2502,-0.008385
65.630,66.2563,-0.008385
65.662,66.2627,-0.008385
65.693,66.2688,-0.013746
65.724,66.2751,-0.013746
65.756,66.2815,-0.013746
65.787,66.2876,-0.013746
65.818,66.2938,-0.013746
65.849,66.3000,-0.013746
65.880,66.3062,-0.013746
65.910,66.3122,-0.013746
65.941,66.3187,-0.013746
65.973,66.3248,-0.019964
66.004,66.3311,-0.019964
66.035,66.3373,-0.019964
66.066,66.3435,-0.019964
66.097,66.3502,-0.019964
66.122,66.3548,-0.019964
66.160,66.3623,-0.019964
66.190,66.3683,-0.019964
66.222,66.3746,-0.027360
66.252,66.3807,-0.027360
66.284,66.3870,-0.027360
66.316,66.3936,-0.027360
66.346,66.3995,-0.027360
66.378,66.4057,-0.027360
66.410,66.4121,-0.027360
66.441,66.4185,-0.027360
66.472,66.4248,-0.035887
66.504,66.4309,-0.035887
66.534,66.4371,-0.035887
66.565,66.4433,-0.035887
66.596,66.4495,-0.035887
66.627,66.4557,-0.035887
66.658,66.4619,-0.035887
66.688,66.4678,-0.035887
66.719,66.4741,-0.045846
66.750,66.4803,-0.045846
66.782,66.4865,-0.045846
66.813,66.4928,-0.045846
66.843,66.4989,-0.045846
66.875,66.5052,-0.045846
66.906,66.5114,-0.045846
66.938,66.5177,-0.045846
66.969,66.5241,-0.057387
67.001,66.5305,-0.057387
67.032,66.5367,-0.057387
67.064,66.5429,-0.057387
67.094,66.5490,-0.057387
67.125,66.5553,-0.057387
67.156,66.5616,-0.057387
67.188,66.5678,-0.057387
67.218,66.5740,-0.070596
67.248,66.5799,-0.070596
67.279,66.5862,-0.070596
67.311,66.5924,-0.070596
67.342,66.5986,-0.070596
67.373,66.6048,-0.070596
67.404,66.6110,-0.070596
67.436,66.6175,-0.070596
67.468,66.6238,-0.085887
67.499,66.6300,-0.085887
67.530,66.6363,-0.085887
67.562,66.6428,-0.085887
67.594,66.6490,-0.085887
67.625,66.6553,-0.085887
67.656,66.6614,-0.085887
67.687,66.6677,-0.085887
67.718,66.6738,-0.103195
67.749,66.6800,-0.103195
67.780,66.6862,-0.103195
67.812,66.6927,-0.103195
67.841,66.6987,-0.103195
67.873,66.7050,-0.103195
67.904,66.7112,-0.103195
67.936,66.7175,-0.122848
67.967,66.7236,-0.122848
67.998,66.7297,-0.122848
68.029,66.7361,-0.122848
68.060,66.7421,-0.122848
68.092,66.7487,-0.122848
68.122,66.7546,-0.122848
68.154,66.7611,-0.122848
68.185,66.7673,-0.144998
68.217,66.7737,-0.144998
68.248,66.7797,-0.144998
68.279,66.7860,-0.144998
68.309,66.7921,-0.144998
68.340,66.7983,-0.144998
68.370,66.8045,-0.144998
68.402,66.8107,-0.144998
68.433,66.8169,-0.169824
68.465,66.8231,-0.169824
68.494,66.8293,-0.169824
68.526,66.8354,-0.169824
68.556,66.8414,-0.169824
68.587,66.8478,-0.169824
68.619,66.8540,-0.169824
68.651,66.8604,-0.169824
68.681,66.8665,-0.169824
68.712,66.8726,-0.197618
68.742,66.8786,-0.197618
68.773,66.8847,-0.197618
68.805,66.8913,-0.197618
68.835,66.8972,-0.197618
68.865,66.9035,-0.197618
68.897,66.9097,-0.197618
68.929,66.9160,-0.197618
68.960,66.9222,-0.228314
68.991,66.9286,-0.228314
69.023,66.9348,-0.228314
69.055,66.9413,-0.228314
69.086,66.9474,-0.228314
69.118,66.9539,-0.228314
69.149,66.9600,-0.228314
69.180,66.9665,-0.228314
69.211,66.9725,-0.262278
69.242,66.9787,-0.262278
69.273,66.9848,-0.262278
69.305,66.9911,-0.262278
69.335,66.9975,-0.262278
69.367,67.0035,-0.262278
69.397,67.0099,-0.262278
69.431,67.0166,-0.262278
69.459,67.0221,-0.299852
69.491,67.0285,-0.299852
69.521,67.0344,-0.299852
69.552,67.0409,-0.299852
69.583,67.0468,-0.299852
69.613,67.0530,-0.299852
69.644,67.0591,-0.299852
69.675,67.0654,-0.299852
69.706,67.0714,-0.299852
69.738,67.0778,-0.341288
69.770,67.0842,-0.341288
69.802,67.0906,-0.341288
69.831,67.0964,-0.341288
69.863,67.1028,-0.341288
69.894,67.1090,-0.341288
69.926,67.1154,-0.341288
69.955,67.1209,-0.386700
69.990,67.1262,-0.386700
70.017,67.1300,-0.386700
70.048,67.1335,-0.386700
70.079,67.1362,-0.386700
70.111,67.1384,-0.386700
70.142,67.1396,-0.386700
70.173,67.1402,-0.386700
70.205,67.1402,-0.386700
70.236,67.1402,-0.430181
70.267,67.1402,-0.430181
70.298,67.1402,-0.430181
70.330,67.1402,-0.430181
70.362,67.1402,-0.430181
70.392,67.1402,-0.430181
70.423,67.1402,-0.430181
70.454,67.1402,-0.449062
70.485,67.1402,-0.449062
70.517,67.1402,-0.449062
70.548,67.1402,-0.449062
70.578,67.1402,-0.449062
70.610,67.1402,-0.449062
70.640,67.1402,-0.449062
70.671,67.1402,-0.449062
70.703,67.1402,-0.444794
70.734,67.1402,-0.444794
70.766,67.1402,-0.444794
70.797,67.1402,-0.444794
70.827,67.1402,-0.444794
70.858,67.1402,-0.444794
70.889,67.1402,-0.444794
70.920,67.1402,-0.444794
70.951,67.1402,-0.438896
70.982,67.1402,-0.438896
71.013,67.1402,-0.438896
71.045,67.1402,-0.438896
71.075,67.1402,-0.438896
71.106,67.1402,-0.438896
71.137,67.1402,-0.438896
71.168,67.1402,-0.438896
71.199,67.1402,-0.434157
71.230,67.1402,-0.434157
71.260,67.1402,-0.434157
71.291,67.1402,-0.434157
71.322,67.1402,-0.434157
71.352,67.1402,-0.434157
71.383,67.1402,-0.434157
71.414,67.1402,-0.434157
71.445,67.1402,-0.430124
71.475,67.1402,-0.430124
71.507,67.1402,-0.430124
71.538,67.1402,-0.430124
71.569,67.1402,-0.430124
71.600,67.1402,-0.430124
71.631,67.1402,-0.430124
71.662,67.1402,-0.430124
71.693,67.1402,-0.430124
71.724,67.1402,-0.426629
71.756,67.1402,-0.426629
71.786,67.1402,-0.426629
71.816,67.1402,-0.426629
71.846,67.1402,-0.426629
71.878,67.1402,-0.426629
71.909,67.1402,-0.426629
71.939,67.1402,-0.423567
71.971,67.1402,-0.423567
72.002,67.1402,-0.423567
72.032,67.1402,-0.423567
72.063,67.1402,-0.423567
72.094,67.1402,-0.423567
72.125,67.1402,-0.423567
72.156,67.1402,-0.423567
72.188,67.1402,-0.423567
72.219,67.1402,-0.420882
72.251,67.1402,-0.420882
72.281,67.1402,-0.420882
72.312,67.1402,-0.420882
72.343,67.1402,-0.420882
72.374,67.1402,-0.420882
72.405,67.1402,-0.420882
72.436,67.1402,-0.418441
72.468,67.1402,-0.418441
72.499,67.1402,-0.418441
72.529,67.1402,-0.418441
72.560,67.1402,-0.418441
72.591,67.1402,-0.418441
72.624,67.1402,-0.418441
72.654,67.1402,-0.418441
72.686,67.1402,-0.418441
72.717,67.1402,-0.416152
72.748,67.1402,-0.416152
72.779,67.1402,-0.416152
72.810,67.1402,-0.416152
72.841,67.1402,-0.416152
72.872,67.1402,-0.416152
72.903,67.1402,-0.416152
72.934,67.1402,-0.416152
72.965,67.1402,-0.416152
72.997,67.1402,-0.414042
73.027,67.1402,-0.414042
73.059,67.1402,-0.414042
73.090,67.1402,-0.414042
73.122,67.1402,-0.414042
73.153,67.1402,-0.414042
73.185,67.1402,-0.414042
73.215,67.1402,-0.414042
73.245,67.1402,-0.412091
73.278,67.1402,-0.412091
73.308,67.1402,-0.412091
73.338,67.1402,-0.412091
73.370,67.1402,-0.412091
73.402,67.1402,-0.412091
73.433,67.1402,-0.412091
73.463,67.1402,-0.412091
73.494,67.1402,-0.410311
73.525,67.1402,-0.410311
73.556,67.1402,-0.410311
73.587,67.1402,-0.410311
73.619,67.1402,-0.410311
73.651,67.1402,-0.410311
73.682,67.1402,-0.410311
73.713,67.1402,-0.408502
73.744,67.1402,-0.408502
73.775,67.1402,-0.408502
73.806,67.1402,-0.408502
73.838,67.1402,-0.408502
73.869,67.1402,-0.408502
73.902,67.1402,-0.408502
73.932,67.1402,-0.408502
73.962,67.1402,-0.405214
73.994,67.1402,-0.405214
74.025,67.1402,-0.405214
74.056,67.1402,-0.405214
74.088,67.1402,-0.405214
74.118,67.1402,-0.405214
74.150,67.1402,-0.405214
74.180,67.1402,-0.405214
74.212,67.1402,-0.395123
74.243,67.1402,-0.395123
74.274,67.1402,-0.395123
74.305,67.1402,-0.395123
74.337,67.1402,-0.395123
74.368,67.1402,-0.395123
74.399,67.1402,-0.395123
74.431,67.1402,-0.395123
74.462,67.1402,-0.395123
74.493,67.1401,-0.383214
74.524,67.1393,-0.383214
74.555,67.1377,-0.383214
74.586,67.1355,-0.383214
74.617,67.1325,-0.383214
74.648,67.1288,-0.383214
74.680,67.1242,-0.383214
74.710,67.1193,-0.378447
74.741,67.1134,-0.378447
74.771,67.1073,-0.378447
74.802,67.1013,-0.378447
74.832,67.0949,-0.378447
74.863,67.0889,-0.378447
74.894,67.0827,-0.378447
74.925,67.0766,-0.378447
74.956,67.0703,-0.356532
74.987,67.0639,-0.356532
75.018,67.0580,-0.356532
75.049,67.0518,-0.356532
75.080,67.0456,-0.356532
75.112,67.0393,-0.356532
75.143,67.0329,-0.356532
75.174,67.0266,-0.356532
75.205,67.0205,-0.307738
75.236,67.0143,-0.307738
75.266,67.0085,-0.307738
75.296,67.0023,-0.307738
75.327,66.9962,-0.307738
75.357,66.9901,-0.307738
75.389,66.9837,-0.307738
75.421,66.9772,-0.307738
75.451,66.9712,-0.255928
75.483,66.9650,-0.255928
75.514,66.9586,-0.255928
75.545,66.9524,-0.255928
75.577,66.9462,-0.255928
75.606,66.9404,-0.255928
75.636,66.9343,-0.255928
75.667,66.9281,-0.255928
75.699,66.9219,-0.209800
75.730,66.9156,-0.209800
75.761,66.9093,-0.209800
75.793,66.9030,-0.209800
75.824,66.8968,-0.209800
75.855,66.8904,-0.209800
75.887,66.8842,-0.209800
75.918,66.8780,-0.209800
75.949,66.8717,-0.168364
75.981,66.8655,-0.168364
76.012,66.8591,-0.168364
76.043,66.8531,-0.168364
76.073,66.8469,-0.168364
76.108,66.8400,-0.168364
76.135,66.8345,-0.168364
76.166,66.8283,-0.168364
76.197,66.8221,-0.168364
76.228,66.8158,-0.131271
76.260,66.8096,-0.131271
76.291,66.8031,-0.131271
76.323,66.7969,-0.131271
76.354,66.7907,-0.131271
76.385,66.7845,-0.131271
76.416,66.7783,-0.131271
76.447,66.7720,-0.131271
76.480,66.7655,-0.098107
76.511,66.7593,-0.098107
76.542,66.7530,-0.098107
76.574,66.7469,-0.098107
76.605,66.7406,-0.098107
76.636,66.7343,-0.098107
76.666,66.7285,-0.098107
76.698,66.7220,-0.068335
76.729,66.7159,-0.068335
76.760,66.7096,-0.068335
76.791,66.7034,-0.068335
76.822,66.6972,-0.068335
76.853,66.6909,-0.068335
76.884,66.6847,-0.068335
76.915,66.6785,-0.068335
76.946,66.6724,-0.068335
76.976,66.6662,-0.041785
77.007,66.6601,-0.041785
77.038,66.6539,-0.041785
77.069,66.6477,-0.041785
77.100,66.6415,-0.041785
77.132,66.6352,-0.041785
77.162,66.6291,-0.041785
77.194,66.6228,-0.017929
77.226,66.6165,-0.017929
77.255,66.6105,-0.017929
77.285,66.6043,-0.017929
77.316,66.5984,-0.017929
77.347,66.5920,-0.017929
77.378,66.5861,-0.017929
77.409,66.5797,-0.017929
77.440,66.5737,-0.017929
77.472,66.5672,0.003467
77.503,66.5610,0.003467
77.534,66.5548,0.003467
77.565,66.5486,0.003467
77.597,66.5422,0.003467
77.628,66.5360,0.003467
77.658,66.5300,0.003467
77.689,66.5238,0.022857
77.721,66.5175,0.022857
77.752,66.5110,0.022857
77.783,66.5050,0.022857
77.813,66.4988,0.022857
77.845,66.4926,0.022857
77.875,66.4866,0.022857
77.906,66.4804,0.022857
77.936,66.4743,0.022857
77.967,66.4681,0.040551
77.998,66.4619,0.040551
78.029,66.4557,0.040551
78.060,66.4496,0.040551
78.090,66.4436,0.040551
78.121,66.4374,0.040551
78.152,66.4313,0.040551
78.183,66.4250,0.056954
78.213,66.4189,0.056954
78.244,66.4127,0.056954
78.275,66.4066,0.056954
78.306,66.4004,0.056954
78.338,66.3940,0.056954
78.368,66.3880,0.056954
78.400,66.3816,0.056954
78.430,66.3756,0.056954
78.463,66.3690,0.072697
78.493,66.3631,0.072697
78.524,66.3568,0.072697
78.554,66.3508,0.072697
78.586,66.3444,0.072697
78.616,66.3384,0.072697
78.648,66.3318,0.072697
78.678,66.3260,0.072697
78.709,66.3197,0.087913
78.741,66.3135,0.087913
78.772,66.3073,0.087913
78.803,66.3008,0.087913
78.834,66.2947,0.087913
78.866,66.2883,0.087913
78.897,66.2823,0.087913
78.927,66.2761,0.087913
78.958,66.2701,0.103383
78.989,66.2639,0.103383
79.019,66.2578,0.103383
79.051,66.2515,0.103383
79.082,66.2453,0.103383
79.113,66.2389,0.103383
79.144,66.2329,0.103383
79.175,66.2265,0.103383
79.206,66.2202,0.119551
79.238,66.2141,0.119551
79.268,66.2079,0.119551
79.299,66.2019,0.119551
79.330,66.1956,0.119551
79.362,66.1892,0.119551
79.392,66.1832,0.119551
79.424,66.1768,0.136924
79.455,66.1706,0.136924
79.486,66.1643,0.136924
79.517,66.1583,0.136924
79.547,66.1520,0.136924
79.578,66.1459,0.136924
79.609,66.1397,0.136924
79.640,66.1338,0.136924
79.670,66.1276,0.136924
79.700,66.1214,0.155899
79.731,66.1154,0.155899
79.763,66.1090,0.155899
79.795,66.1026,0.155899
79.826,66.0964,0.155899
79.856,66.0902,0.155899
79.887,66.0842,0.155899
79.918,66.0778,0.155899
79.949,66.0716,0.176749
79.979,66.0657,0.176749
80.011,66.0595,0.176749
80.042,66.0530,0.176749
80.072,66.0472,0.176749
80.104,66.0407,0.176749
80.136,66.0344,0.176749
80.167,66.0281,0.176749
80.198,66.0220,0.176749
80.229,66.0158,0.200058
80.260,66.0096,0.200058
80.291,66.0034,0.200058
80.323,65.9970,0.200058
80.354,65.9909,0.200058
80.385,65.9846,0.200058
80.416,65.9785,0.200058
80.447,65.9722,0.200058
80.478,65.9658,0.225902
80.510,65.9596,0.225902
80.540,65.9536,0.225902
80.571,65.9474,0.225902
80.602,65.9413,0.225902
80.633,65.9350,0.225902
80.664,65.9288,0.225902
80.694,65.9228,0.225902
80.726,65.9165,0.254581
80.758,65.9100,0.254581
80.788,65.9039,0.254581
80.820,65.8975,0.254581
80.851,65.8915,0.254581
80.882,65.8852,0.254581
80.913,65.8791,0.254581
80.944,65.8728,0.285729
80.975,65.8665,0.285729
81.005,65.8605,0.285729
81.036,65.8543,0.285729
81.066,65.8484,0.285729
81.097,65.8421,0.285729
81.127,65.8362,0.285729
81.158,65.8299,0.285729
81.189,65.8238,0.318987
81.220,65.8175,0.318987
81.251,65.8115,0.318987
81.282,65.8053,0.318987
81.313,65.7990,0.318987
81.343,65.7929,0.318987
81.373,65.7870,0.318987
81.405,65.7808,0.318987
81.436,65.7745,0.354657
81.467,65.7683,0.354657
81.498,65.7621,0.354657
81.529,65.7557,0.354657
81.561,65.7495,0.354657
81.591,65.7433,0.354657
81.621,65.7374,0.354657
81.653,65.7311,0.354657
81.684,65.7249,0.392862
81.715,65.7187,0.392862
81.745,65.7126,0.392862
81.776,65.7064,0.392862
81.808,65.7001,0.392862
81.839,65.6939,0.392862
81.871,65.6875,0.392862
81.901,65.6813,0.392862
81.932,65.6751,0.392862
81.963,65.6689,0.392862
81.995,65.6627,0.433290
82.026,65.6564,0.433290
82.056,65.6502,0.433290
82.088,65.6441,0.433290
82.118,65.6378,0.433290
82.149,65.6318,0.433290
82.181,65.6254,0.433290
82.212,65.6193,0.475301
82.243,65.6130,0.475301
82.273,65.6070,0.475301
82.304,65.6006,0.475301
82.336,65.5945,0.475301
82.368,65.5879,0.475301
82.400,65.5817,0.475301
82.432,65.5752,0.475301
82.464,65.5690,0.518367
82.495,65.5625,0.518367
82.526,65.5564,0.518367
82.557,65.5501,0.518367
82.587,65.5443,0.518367
82.618,65.5380,0.518367
82.649,65.5319,0.518367
82.680,65.5254,0.518367
82.711,65.5192,0.561801
82.741,65.5134,0.561801
82.772,65.5071,0.561801
82.804,65.5009,0.561801
82.834,65.4947,0.561801
82.865,65.4886,0.561801
82.896,65.4823,0.561801
82.928,65.4759,0.561801
82.959,65.4697,0.604829
82.990,65.4637,0.604829
83.022,65.4571,0.604829
83.053,65.4510,0.604829
83.084,65.4448,0.604829
83.115,65.4386,0.604829
83.146,65.4325,0.604829
83.177,65.4261,0.604829
83.207,65.4201,0.604829
83.239,65.4139,0.646614
83.270,65.4077,0.646614
83.301,65.4013,0.646614
83.332,65.3952,0.646614
83.364,65.3889,0.646614
83.395,65.3827,0.646614
83.426,65.3764,0.646614
83.457,65.3703,0.686269
83.488,65.3639,0.686269
83.519,65.3577,0.686269
83.550,65.3515,0.686269
83.582,65.3452,0.686269
83.613,65.3389,0.686269
83.644,65.3328,0.686269
83.675,65.3266,0.686269
83.706,65.3203,0.723032
83.737,65.3142,0.723032
83.769,65.3079,0.723032
83.800,65.3016,0.723032
83.831,65.2954,0.723032
83.861,65.2893,0.723032
83.893,65.2830,0.723032
83.925,65.2765,0.723032
83.956,65.2706,0.755876
83.987,65.2641,0.755876
84.018,65.2582,0.755876
84.049,65.2518,0.755876
84.080,65.2456,0.755876
84.111,65.2393,0.755876
84.142,65.2332,0.755876
84.174,65.2268,0.755876
84.206,65.2206,0.784018
84.236,65.2143,0.784018
84.267,65.2082,0.784018
84.299,65.2018,0.784018
84.329,65.1958,0.784018
84.360,65.1894,0.784018
84.391,65.1834,0.784018
84.422,65.1774,0.784018
84.452,65.1711,0.806875
84.484,65.1649,0.806875
84.514,65.1587,0.806875
84.545,65.1525,0.806875
84.576,65.1465,0.806875
84.606,65.1403,0.806875
84.637,65.1344,0.806875
84.668,65.1279,0.806875
84.699,65.1219,0.822948
84.730,65.1157,0.822948
84.761,65.1095,0.822948
84.791,65.1034,0.822948
84.822,65.0972,0.822948
84.853,65.0910,0.822948
84.884,65.0848,0.822948
84.915,65.0786,0.822948
84.946,65.0724,0.822948
84.977,65.0663,0.830194
85.008,65.0601,0.830194
85.039,65.0539,0.830194
85.070,65.0476,0.830194
85.102,65.0411,0.830194
85.133,65.0352,0.830194
85.164,65.0287,0.830194
85.195,65.0226,0.825813
85.225,65.0167,0.825813
85.257,65.0104,0.825813
85.288,65.0040,0.825813
85.319,64.9978,0.825813
85.350,64.9915,0.825813
85.381,64.9854,0.825813
85.412,64.9791,0.825813
85.443,64.9729,0.800440
85.474,64.9668,0.800440
85.506,64.9604,0.800440
85.536,64.9544,0.800440
85.567,64.9481,0.800440
85.597,64.9423,0.800440
85.628,64.9362,0.800440
85.659,64.9299,0.800440
85.690,64.9237,0.732812
85.721,64.9175,0.732812
85.752,64.9113,0.732812
85.784,64.9047,0.732812
85.815,64.8986,0.732812
85.846,64.8923,0.732812
85.878,64.8862,0.732812
85.908,64.8800,0.732812
85.939,64.8738,0.577516
85.970,64.8676,0.577516
86.002,64.8613,0.577516
86.033,64.8551,0.577516
86.064,64.8489,0.577516
86.094,64.8428,0.577516
86.125,64.8366,0.577516
86.157,64.8304,0.577516
86.188,64.8241,0.577516
86.219,64.8179,0.263249
86.251,64.8115,0.263249
86.281,64.8055,0.263249
86.313,64.7989,0.263249
86.344,64.7929,0.263249
86.376,64.7865,0.263249
86.406,64.7804,0.263249
86.437,64.7742,0.263249
86.468,64.7679,0.041926
86.500,64.7616,0.041926
86.531,64.7550,0.041926
86.562,64.7494,0.041926
86.593,64.7431,0.041926
86.625,64.7368,0.041926
86.655,64.7306,0.041926
86.686,64.7245,0.041926
86.717,64.7183,0.027153
86.748,64.7120,0.027153
86.780,64.7056,0.027153
86.811,64.6996,0.027153
86.843,64.6931,0.027153
86.873,64.6870,0.027153
86.904,64.6810,0.027153
86.935,64.6746,0.026861
86.966,64.6685,0.026861
86.998,64.6621,0.026861
87.029,64.6558,0.026861
87.059,64.6498,0.026861
87.090,64.6436,0.026861
87.121,64.6374,0.026861
87.151,64.6312,0.026861
87.182,64.6251,0.026691
87.215,64.6187,0.026691
87.246,64.6124,0.026691
87.276,64.6063,0.026691
87.308,64.6002,0.026691
87.338,64.5939,0.026691
87.370,64.5877,0.026691
87.401,64.5814,0.026691
87.432,64.5753,0.026691
87.463,64.5690,0.026503
87.495,64.5625,0.026503
87.526,64.5566,0.026503
87.556,64.5502,0.026503
87.587,64.5443,0.026503
87.617,64.5382,0.026503
87.649,64.5319,0.026503
87.680,64.5258,0.026503
87.711,64.5195,0.026503
87.742,64.5134,0.026437
87.773,64.5071,0.026437
87.804,64.5010,0.026437
87.834,64.4948,0.026437
87.866,64.4882,0.026437
87.897,64.4823,0.026437
87.927,64.4762,0.026437
87.960,64.4696,0.026437
87.991,64.4634,0.026380
88.022,64.4572,0.026380
88.053,64.4511,0.026380
88.084,64.4448,0.026380
88.116,64.4385,0.026380
88.146,64.4324,0.026380
88.177,64.4263,0.026380
88.208,64.4201,0.026380
88.240,64.4137,0.026324
88.270,64.4076,0.026324
88.301,64.4015,0.026324
88.332,64.3953,0.026324
88.363,64.3890,0.026324
88.395,64.3827,0.026324
88.426,64.3763,0.026324
88.457,64.3703,0.026324
88.489,64.3639,0.026315
88.519,64.3579,0.026315
88.551,64.3514,0.026315
88.581,64.3453,0.026315
88.612,64.3393,0.026315
88.643,64.3329,0.026315
88.675,64.3267,0.026315
88.705,64.3207,0.026315
88.737,64.3142,0.026258
88.767,64.3081,0.026258
88.798,64.3021,0.026258
88.828,64.2960,0.026258
88.859,64.2897,0.026258
88.891,64.2835,0.026258
88.922,64.2771,0.026258
88.954,64.2708,0.026258
88.986,64.2645,0.026230
89.016,64.2584,0.026230
89.047,64.2521,0.026230
89.078,64.2461,0.026230
89.108,64.2400,0.026230
89.140,64.2337,0.026230
89.171,64.2275,0.026230
89.202,64.2211,0.026249
89.234,64.2150,0.026249
89.265,64.2088,0.026249
89.295,64.2027,0.026249
89.326,64.1964,0.026249
89.357,64.1902,0.026249
89.388,64.1840,0.026249
89.420,64.1775,0.026249
89.450,64.1716,0.026249
89.481,64.1655,0.026277
89.512,64.1593,0.026277
89.544,64.1530,0.026277
89.576,64.1465,0.026277
89.608,64.1402,0.026277
89.640,64.1338,0.026277
89.670,64.1277,0.026277
89.700,64.1216,0.026277
89.732,64.1153,0.026277
89.761,64.1099,0.026277
89.793,64.1049,0.026277
89.824,64.1005,0.026277
89.855,64.0970,0.026277
89.886,64.0942,0.026277
89.917,64.0922,0.026277
89.948,64.0908,0.026098
89.980,64.0902,0.026098
90.011,64.0902,0.026098
90.043,64.0902,0.026098
90.074,64.0902,0.026098
90.105,64.0904,0.026098
90.135,64.0911,0.026098
90.166,64.0926,0.026098
90.198,64.0948,0.025636
90.230,64.0979,0.025636
90.261,64.1015,0.025636
90.292,64.1060,0.025636
90.323,64.1112,0.025636
90.354,64.1171,0.025636
90.384,64.1233,0.025636
90.415,64.1293,0.025636
90.446,64.1355,0.024939
90.477,64.1416,0.024939
90.508,64.1478,0.024939
90.540,64.1542,0.024939
90.571,64.1604,0.024939
90.603,64.1667,0.024939
90.635,64.1731,0.024939
90.666,64.1794,0.024939
90.697,64.1856,0.024393
90.728,64.1921,0.024393
90.759,64.1980,0.024393
90.790,64.2042,0.024393
90.821,64.2104,0.024393
90.851,64.2165,0.024393
90.882,64.2227,0.024393
90.913,64.2288,0.024393
90.944,64.2351,0.024393
90.977,64.2415,0.024138
91.006,64.2475,0.024138
91.037,64.2537,0.024138
91.069,64.2599,0.024138
91.100,64.2661,0.024138
91.131,64.2724,0.024138
91.162,64.2786,0.024138
91.194,64.2849,0.023969
91.225,64.2911,0.023969
91.255,64.2972,0.023969
91.286,64.3034,0.023969
91.317,64.3094,0.023969
91.347,64.3157,0.023969
91.378,64.3217,0.023969
91.409,64.3280,0.023969
91.440,64.3341,0.023827
91.471,64.3405,0.023827
91.502,64.3466,0.023827
91.533,64.3529,0.023827
91.564,64.3590,0.023827
91.594,64.3649,0.023827
91.625,64.3710,0.023827
91.655,64.3773,0.023827
91.686,64.3833,0.023714
91.716,64.3895,0.023714
91.747,64.3958,0.023714
91.778,64.4018,0.023714
91.809,64.4080,0.023714
91.840,64.4142,0.023714
91.872,64.4205,0.023714
91.903,64.4270,0.023714
91.934,64.4330,0.023620
91.965,64.4391,0.023620
91.996,64.4453,0.023620
92.027,64.4516,0.023620
92.058,64.4578,0.023620
92.089,64.4640,0.023620
92.120,64.4702,0.023620
92.151,64.4766,0.023620
92.182,64.4825,0.023469
92.213,64.4887,0.023469
92.244,64.4950,0.023469
92.276,64.5014,0.023469
92.307,64.5076,0.023469
92.339,64.5140,0.023469
92.370,64.5201,0.023469
92.401,64.5265,0.023469
92.433,64.5329,0.023469
92.465,64.5392,0.023290
92.499,64.5460,0.023290
92.528,64.5518,0.023290
92.559,64.5580,0.023290
92.591,64.5644,0.023290
92.622,64.5706,0.023290
92.654,64.5770,0.023290
92.684,64.5831,0.023290
92.715,64.5892,0.023092
92.746,64.5953,0.023092
92.777,64.6016,0.023092
92.808,64.6078,0.023092
92.839,64.6140,0.023092
92.869,64.6199,0.023092
92.900,64.6263,0.023092
92.931,64.6323,0.023092
92.963,64.6388,0.023092
92.993,64.6450,0.022979
93.023,64.6508,0.022979
93.053,64.6570,0.022979
93.085,64.6632,0.022979
93.116,64.6694,0.022979
93.148,64.6757,0.022979
93.179,64.6818,0.022979
93.211,64.6884,0.022847
93.242,64.6945,0.022847
93.272,64.7008,0.022847
93.303,64.7069,0.022847
93.335,64.7133,0.022847
93.368,64.7198,0.022847
93.398,64.7257,0.022847
93.428,64.7318,0.022847
93.458,64.7380,0.022847
93.490,64.7442,0.022706
93.522,64.7507,0.022706
93.554,64.7569,0.022706
93.585,64.7632,0.022706
93.615,64.7691,0.022706
93.646,64.7753,0.022706
93.678,64.7817,0.022706
93.709,64.7880,0.022706
93.739,64.7942,0.022555
93.770,64.8003,0.022555
93.803,64.8070,0.022555
93.832,64.8127,0.022555
93.863,64.8187,0.022555
93.894,64.8249,0.022555
93.925,64.8311,0.022555
93.955,64.8372,0.022555
93.987,64.8435,0.022386
94.018,64.8497,0.022386
94.049,64.8561,0.022386
94.081,64.8623,0.022386
94.112,64.8686,0.022386
94.144,64.8749,0.022386
94.175,64.8811,0.022386
94.207,64.8877,0.022216
94.240,64.8941,0.022216
94.271,64.9002,0.022216
94.301,64.9064,0.022216
94.332,64.9126,0.022216
94.363,64.9190,0.022216
94.394,64.9250,0.022216
94.424,64.9309,0.022216
94.455,64.9373,0.022216
94.486,64.9434,0.022009
94.516,64.9495,0.022009
94.547,64.9555,0.022009
94.578,64.9616,0.022009
94.609,64.9679,0.022009
94.640,64.9741,0.022009
94.671,64.9803,0.022009
94.702,64.9867,0.021849
94.733,64.9926,0.021849
94.765,64.9991,0.021849
94.797,65.0056,0.021849
94.827,65.0115,0.021849
94.858,65.0179,0.021849
94.889,65.0239,0.021849
94.920,65.0303,0.021849
94.951,65.0363,0.021849
94.982,65.0425,0.021623
95.012,65.0487,0.021623
95.043,65.0548,0.021623
95.074,65.0610,0.021623
95.105,65.0673,0.021623
95.137,65.0736,0.021623
95.168,65.0798,0.021623
95.199,65.0860,0.021623
95.230,65.0922,0.021340
95.262,65.0984,0.021340
95.293,65.1046,0.021340
95.324,65.1111,0.021340
95.356,65.1175,0.021340
95.386,65.1235,0.021340
95.418,65.1298,0.021340
95.450,65.1361,0.021104
95.480,65.1423,0.021104
95.512,65.1485,0.021104
95.543,65.1547,0.021104
95.574,65.1609,0.021104
95.605,65.1671,0.021104
95.637,65.1736,0.021104
95.666,65.1794,0.021104
95.697,65.1857,0.021104
95.730,65.1923,0.020850
95.761,65.1985,0.020850
95.793,65.2047,0.020850
95.824,65.2112,0.020850
95.856,65.2174,0.020850
95.887,65.2238,0.020850
95.918,65.2298,0.020850
95.949,65.2361,0.020511
95.981,65.2424,0.020511
96.011,65.2486,0.020511
96.042,65.2546,0.020511
96.073,65.2606,0.020511
96.103,65.2667,0.020511
96.134,65.2729,0.020511
96.165,65.2791,0.020511
96.196,65.2854,0.020125
96.228,65.2918,0.020125
96.258,65.2977,0.020125
96.289,65.3038,0.020125
96.320,65.3100,0.020125
96.351,65.3162,0.020125
96.382,65.3224,0.020125
96.412,65.3286,0.020125
96.443,65.3349,0.020125
96.475,65.3411,0.019814
96.506,65.3473,0.019814
96.537,65.3535,0.019814
96.568,65.3597,0.019814
96.600,65.3661,0.019814
96.631,65.3723,0.019814
96.661,65.3785,0.019814
96.693,65.3848,0.019418
96.724,65.3909,0.019418
96.754,65.3969,0.019418
96.786,65.4033,0.019418
96.816,65.4093,0.019418
96.848,65.4158,0.019418
96.879,65.4219,0.019418
96.910,65.4282,0.019418
96.942,65.4345,0.018928
96.973,65.4408,0.018928
97.004,65.4469,0.018928
97.035,65.4532,0.018928
97.067,65.4596,0.018928
97.097,65.4656,0.018928
97.128,65.4717,0.018928
97.159,65.4780,0.018928
97.190,65.4841,0.018419
97.222,65.4906,0.018419
97.253,65.4967,0.018419
97.284,65.5031,0.018419
97.315,65.5092,0.018419
97.347,65.5156,0.018419
97.379,65.5220,0.018419
97.411,65.5284,0.018419
97.442,65.5345,0.017863
97.473,65.5407,0.017863
97.503,65.5466,0.017863
97.534,65.5530,0.017863
97.565,65.5592,0.017863
97.596,65.5654,0.017863
97.626,65.5714,0.017863
97.657,65.5776,0.017863
97.689,65.5838,0.017166
97.720,65.5902,0.017166
97.751,65.5962,0.017166
97.782,65.6026,0.017166
97.812,65.6086,0.017166
97.843,65.6148,0.017166
97.874,65.6209,0.017166
97.904,65.6271,0.017166
97.935,65.6331,0.016337
97.966,65.6393,0.016337
97.996,65.6454,0.016337
98.027,65.6516,0.016337
98.058,65.6578,0.016337
98.088,65.6638,0.016337
98.118,65.6702,0.016337
98.149,65.6760,0.016337
98.180,65.6822,0.015461
98.211,65.6884,0.015461
98.242,65.6946,0.015461
98.273,65.7008,0.015461
98.304,65.7067,0.015461
98.334,65.7130,0.015461
98.365,65.7192,0.015461
98.397,65.7255,0.015461
98.427,65.7314,0.014330
98.459,65.7379,0.014330
98.489,65.7441,0.014330
98.520,65.7502,0.014330
98.552,65.7566,0.014330
98.582,65.7627,0.014330
98.614,65.7690,0.014330
98.645,65.7751,0.014330
98.677,65.7815,0.014330
98.707,65.7875,0.013002
98.738,65.7938,0.013002
98.769,65.7998,0.013002
98.800,65.8062,0.013002
98.830,65.8122,0.013002
98.862,65.8186,0.013002
98.892,65.8246,0.013002
98.924,65.8310,0.013002
98.955,65.8371,0.011428
98.986,65.8433,0.011428
99.016,65.8495,0.011428
99.047,65.8556,0.011428
99.078,65.8618,0.011428
99.109,65.8680,0.011428
99.140,65.8742,0.011428
99.172,65.8805,0.011428
99.202,65.8866,0.011428
99.233,65.8928,0.009619
99.264,65.8990,0.009619
99.295,65.9052,0.009619
99.327,65.9114,0.009619
99.358,65.9177,0.009619
99.389,65.9240,0.009619
99.420,65.9301,0.009619
99.451,65.9363,0.007509
99.482,65.9428,0.007509
99.514,65.9488,0.007509
99.545,65.9552,0.007509
99.576,65.9612,0.007509
99.606,65.9674,0.007509
99.637,65.9738,0.007509
99.669,65.9798,0.007509
99.700,65.9863,0.004965
99.730,65.9921,0.004965
99.761,65.9985,0.004965
99.792,66.0045,0.004965
99.823,66.0109,0.004965
99.854,66.0171,0.004965
99.885,66.0231,0.004965
99.916,66.0293,0.004965
99.947,66.0354,0.002026
99.978,66.0417,0.002026
100.009,66.0478,0.002026
100.040,66.0541,0.002026
100.071,66.0602,0.002026
100.101,66.0665,0.002026
100.131,66.0724,0.002026
100.162,66.0784,0.002026
100.194,66.0849,-0.001507
100.224,66.0910,-0.001507
100.255,66.0973,-0.001507
100.286,66.1034,-0.001507
100.317,66.1097,-0.001507
100.348,66.1157,-0.001507
100.379,66.1221,-0.001507
100.410,66.1282,-0.001507
100.442,66.1345,-0.001507
100.473,66.1407,-0.005587
100.505,66.1472,-0.005587
100.536,66.1534,-0.005587
100.568,66.1598,-0.005587
100.600,66.1660,-0.005587
100.630,66.1721,-0.005587
100.660,66.1782,-0.005587
100.691,66.1842,-0.005587
100.722,66.1907,-0.010449
100.753,66.1966,-0.010449
100.784,66.2027,-0.010449
100.815,66.2092,-0.010449
100.846,66.2154,-0.010449
100.878,66.2217,-0.010449
100.908,66.2278,-0.010449
100.940,66.2341,-0.010449
100.971,66.2402,-0.016186
101.002,66.2465,-0.016186
101.033,66.2527,-0.016186
101.064,66.2589,-0.016186
101.094,66.2650,-0.016186
101.126,66.2713,-0.016186
101.158,66.2776,-0.016186
101.189,66.2840,-0.016186
101.221,66.2903,-0.022829
101.251,66.2965,-0.022829
101.282,66.3024,-0.022829
101.313,66.3088,-0.022829
101.344,66.3150,-0.022829
101.375,66.3212,-0.022829
101.406,66.3274,-0.022829
101.437,66.3336,-0.030648
101.468,66.3398,-0.030648
101.499,66.3460,-0.030648
101.530,66.3522,-0.030648
101.561,66.3584,-0.030648
101.591,66.3643,-0.030648
101.622,66.3705,-0.030648
101.654,66.3768,-0.030648
101.685,66.3830,-0.039712
101.716,66.3892,-0.039712
101.747,66.3957,-0.039712
101.779,66.4019,-0.039712
101.811,66.4082,-0.039712
101.843,66.4148,-0.039712
101.873,66.4208,-0.039712
101.904,66.4271,-0.039712
101.935,66.4330,-0.050236
101.966,66.4392,-0.050236
101.996,66.4453,-0.050236
102.027,66.4514,-0.050236
102.057,66.4577,-0.050236
102.089,66.4640,-0.050236
102.120,66.4702,-0.050236
102.151,66.4764,-0.050236
102.182,66.4825,-0.050236
102.214,66.4888,-0.062418
102.246,66.4952,-0.062418
102.277,66.5015,-0.062418
102.309,66.5078,-0.062418
102.340,66.5141,-0.062418
102.371,66.5203,-0.062418
102.402,66.5265,-0.062418
102.433,66.5329,-0.076409
102.464,66.5389,-0.076409
102.496,66.5453,-0.076409
102.527,66.5513,-0.076409
102.558,66.5575,-0.076409
102.588,66.5638,-0.076409
102.618,66.5697,-0.076409
102.650,66.5762,-0.076409
102.681,66.5824,-0.076409
102.712,66.5886,-0.092567
102.743,66.5946,-0.092567
102.773,66.6010,-0.092567
102.805,66.6072,-0.092567
102.836,66.6135,-0.092567
102.868,66.6197,-0.092567
102.899,66.6260,-0.092567
102.930,66.6322,-0.110883
102.962,66.6384,-0.110883
102.992,66.6446,-0.110883
103.024,66.6508,-0.110883
103.055,66.6573,-0.110883
103.086,66.6633,-0.110883
103.117,66.6695,-0.110883
103.150,66.6760,-0.110883
103.180,66.6821,-0.131573
103.210,66.6883,-0.131573
103.241,66.6943,-0.131573
103.273,66.7007,-0.131573
103.303,66.7066,-0.131573
103.334,66.7130,-0.131573
103.365,66.7192,-0.131573
103.397,66.7254,-0.131573
103.426,66.7313,-0.131573
103.458,66.7378,-0.154882
103.490,66.7441,-0.154882
103.521,66.7503,-0.154882
103.552,66.7565,-0.154882
103.582,66.7624,-0.154882
103.612,66.7686,-0.154882
103.644,66.7750,-0.154882
103.674,66.7809,-0.180980
103.705,66.7872,-0.180980
103.736,66.7933,-0.180980
103.767,66.7994,-0.180980
103.797,66.8056,-0.180980
103.828,66.8118,-0.180980
103.859,66.8179,-0.180980
103.890,66.8241,-0.180980
103.921,66.8303,-0.180980
103.952,66.8365,-0.210083
103.984,66.8429,-0.210083
104.016,66.8491,-0.210083
104.047,66.8556,-0.210083
104.079,66.8618,-0.210083
104.111,66.8684,-0.210083
104.142,66.8746,-0.210083
104.173,66.8808,-0.242173
104.203,66.8868,-0.242173
104.235,66.8932,-0.242173
104.267,66.8995,-0.242173
104.298,66.9056,-0.242173
104.330,66.9121,-0.242173
104.361,66.9183,-0.242173
104.392,66.9245,-0.242173
104.423,66.9307,-0.277551
104.454,66.9369,-0.277551
104.485,66.9433,-0.277551
104.516,66.9492,-0.277551
104.547,66.9557,-0.277551
104.578,66.9616,-0.277551
104.609,66.9679,-0.277551
104.639,66.9739,-0.277551
104.671,66.9803,-0.277551
104.702,66.9865,-0.316575
104.734,66.9930,-0.316575
104.765,66.9989,-0.316575
104.795,67.0053,-0.316575
104.828,67.0118,-0.316575
104.858,67.0178,-0.316575
104.889,67.0239,-0.316575
104.920,67.0301,-0.316575
104.951,67.0362,-0.359547
104.981,67.0425,-0.359547
105.012,67.0486,-0.359547
105.043,67.0546,-0.359547
105.076,67.0612,-0.359547
105.105,67.0669,-0.359547
105.137,67.0726,-0.359547
105.166,67.0771,-0.359547
105.198,67.0811,-0.406485
105.228,67.0844,-0.406485
105.259,67.0869,-0.406485
105.289,67.0887,-0.406485
105.321,67.0899,-0.406485
105.352,67.0902,-0.406485
105.383,67.0902,-0.406485
105.415,67.0902,-0.406485
105.446,67.0902,-0.406485
105.477,67.0902,-0.444426
105.508,67.0902,-0.444426
105.539,67.0902,-0.444426
105.569,67.0902,-0.444426
105.600,67.0902,-0.444426
105.631,67.0902,-0.444426
105.662,67.0902,-0.444426
105.693,67.0902,-0.444426
105.724,67.0902,-0.454423
105.755,67.0902,-0.454423
105.785,67.0902,-0.454423
105.817,67.0902,-0.454423
105.849,67.0902,-0.454423
105.879,67.0902,-0.454423
105.910,67.0902,-0.454423
105.941,67.0902,-0.454423
105.972,67.0902,-0.447780
106.004,67.0902,-0.447780
106.035,67.0902,-0.447780
106.067,67.0902,-0.447780
106.099,67.0902,-0.447780
106.129,67.0902,-0.447780
106.159,67.0902,-0.447780
106.191,67.0902,-0.447780
106.221,67.0902,-0.442222
106.252,67.0902,-0.442222
106.283,67.0902,-0.442222
106.314,67.0902,-0.442222
106.345,67.0902,-0.442222
106.376,67.0902,-0.442222
106.408,67.0902,-0.442222
106.438,67.0902,-0.442222
106.469,67.0902,-0.437718
106.500,67.0902,-0.437718
106.532,67.0902,-0.437718
106.563,67.0902,-0.437718
106.594,67.0902,-0.437718
106.626,67.0902,-0.437718
106.656,67.0902,-0.437718
106.687,67.0902,-0.433940
106.719,67.0902,-0.433940
106.749,67.0902,-0.433940
106.780,67.0902,-0.433940
106.812,67.0902,-0.433940
106.843,67.0902,-0.433940
106.875,67.0902,-0.433940
106.905,67.0902,-0.433940
106.936,67.0902,-0.433940
106.967,67.0902,-0.430642
106.998,67.0902,-0.430642
107.029,67.0902,-0.430642
107.060,67.0902,-0.430642
107.090,67.0902,-0.430642
107.122,67.0902,-0.430642
107.153,67.0902,-0.430642
107.185,67.0902,-0.430642
107.217,67.0902,-0.427675
107.248,67.0902,-0.427675
107.280,67.0902,-0.427675
107.311,67.0902,-0.427675
107.342,67.0902,-0.427675
107.374,67.0902,-0.427675
107.405,67.0902,-0.427675
107.436,67.0902,-0.427675
107.467,67.0902,-0.425027
107.497,67.0902,-0.425027
107.529,67.0902,-0.425027
107.559,67.0902,-0.425027
107.590,67.0902,-0.425027
107.621,67.0902,-0.425027
107.652,67.0902,-0.425027
107.683,67.0902,-0.425027
107.713,67.0902,-0.422568
107.745,67.0902,-0.422568
107.776,67.0902,-0.422568
107.807,67.0902,-0.422568
107.839,67.0902,-0.422568
107.870,67.0902,-0.422568
107.902,67.0902,-0.422568
107.933,67.0902,-0.420382
107.964,67.0902,-0.420382
107.996,67.0902,-0.420382
108.026,67.0902,-0.420382
108.057,67.0902,-0.420382
108.088,67.0902,-0.420382
108.119,67.0902,-0.420382
108.151,67.0902,-0.420382
108.182,67.0902,-0.420382
108.212,67.0902,-0.418366
108.243,67.0902,-0.418366
108.274,67.0902,-0.418366
108.305,67.0902,-0.418366
108.336,67.0902,-0.418366
108.367,67.0902,-0.418366
108.399,67.0902,-0.418366
108.430,67.0902,-0.418366
108.463,67.0902,-0.416435
108.492,67.0902,-0.416435
108.523,67.0902,-0.416435
108.554,67.0902,-0.416435
108.585,67.0902,-0.416435
108.618,67.0902,-0.416435
108.648,67.0902,-0.416435
108.679,67.0902,-0.414682
108.710,67.0902,-0.414682
108.741,67.0902,-0.414682
108.773,67.0902,-0.414682
108.803,67.0902,-0.414682
108.834,67.0902,-0.414682
108.865,67.0902,-0.414682
108.896,67.0902,-0.414682
108.927,67.0902,-0.414682
108.958,67.0902,-0.413043
108.989,67.0902,-0.413043
109.022,67.0902,-0.413043
109.053,67.0902,-0.413043
109.085,67.0902,-0.413043
109.116,67.0902,-0.413043
109.148,67.0902,-0.413043
109.178,67.0902,-0.413043
109.209,67.0902,-0.411460
109.241,67.0902,-0.411460
109.271,67.0902,-0.411460
109.303,67.0902,-0.411460
109.334,67.0902,-0.411460
109.366,67.0902,-0.411460
109.397,67.0902,-0.411460
109.427,67.0902,-0.409161
109.459,67.0902,-0.409161
109.490,67.0902,-0.409161
109.522,67.0902,-0.409161
109.553,67.0902,-0.409161
109.584,67.0902,-0.409161
109.614,67.0902,-0.409161
109.645,67.0902,-0.409161
109.679,67.0902,-0.409161
109.707,67.0902,-0.400861
109.738,67.0902,-0.400861
109.770,67.0902,-0.400861
109.800,67.0902,-0.400861
109.832,67.0902,-0.400861
109.863,67.0902,-0.400861
109.894,67.0902,-0.400861
109.926,67.0902,-0.400861
109.956,67.0902,-0.400861
109.987,67.0902,-0.388811
110.019,67.0902,-0.388811
110.049,67.0902,-0.388811
110.081,67.0896,-0.388811
110.113,67.0882,-0.388811
110.144,67.0861,-0.388811
110.176,67.0833,-0.388811
110.206,67.0797,-0.388811
110.237,67.0755,-0.382668
110.268,67.0704,-0.382668
110.299,67.0647,-0.382668
110.330,67.0585,-0.382668
110.361,67.0524,-0.382668
110.392,67.0461,-0.382668
110.422,67.0401,-0.382668
110.453,67.0338,-0.366670
110.483,67.0278,-0.366670
110.515,67.0215,-0.366670
110.546,67.0153,-0.366670
110.577,67.0092,-0.366670
110.607,67.0030,-0.366670
110.638,66.9970,-0.366670
110.669,66.9906,-0.366670
110.700,66.9847,-0.323717
110.730,66.9785,-0.323717
110.761,66.9724,-0.323717
110.791,66.9662,-0.323717
110.823,66.9600,-0.323717
110.852,66.9539,-0.323717
110.884,66.9477,-0.323717
110.915,66.9415,-0.323717
110.946,66.9353,-0.270880
110.978,66.9289,-0.270880
111.009,66.9228,-0.270880
111.041,66.9163,-0.270880
111.071,66.9103,-0.270880
111.103,66.9039,-0.270880
111.134,66.8977,-0.270880
111.166,66.8914,-0.270880
111.197,66.8851,-0.223424
111.228,66.8790,-0.223424
111.259,66.8727,-0.223424
111.290,66.8665,-0.223424
111.321,66.8604,-0.223424
111.351,66.8542,-0.223424
111.382,66.8481,-0.223424
111.412,66.8421,-0.223424
111.444,66.8357,-0.180782
111.475,66.8297,-0.180782
111.506,66.8235,-0.180782
111.536,66.8174,-0.180782
111.569,66.8107,-0.180782
111.599,66.8047,-0.180782
111.629,66.7987,-0.180782
111.661,66.7923,-0.180782
111.692,66.7862,-0.180782
111.722,66.7802,-0.142455
111.753,66.7740,-0.142455
111.785,66.7676,-0.142455
111.816,66.7612,-0.142455
111.847,66.7554,-0.142455
111.878,66.7489,-0.142455
111.909,66.7427,-0.142455
111.940,66.7365,-0.142455
111.971,66.7304,-0.108075
112.002,66.7241,-0.108075
112.033,66.7180,-0.108075
112.064,66.7117,-0.108075
112.095,66.7055,-0.108075
112.127,66.6992,-0.108075
112.158,66.6930,-0.108075
112.189,66.6868,-0.108075
112.220,66.6806,-0.077210
112.252,66.6743,-0.077210
112.282,66.6679,-0.077210
112.313,66.6619,-0.077210
112.344,66.6558,-0.077210
112.376,66.6495,-0.077210
112.407,66.6430,-0.077210
112.438,66.6369,-0.077210
112.470,66.6306,-0.049708
112.500,66.6244,-0.049708
112.531,66.6183,-0.049708
112.562,66.6121,-0.049708
112.593,66.6060,-0.049708
112.625,66.5996,-0.049708
112.657,66.5933,-0.049708
112.689,66.5867,-0.049708
112.719,66.5807,-0.024986
112.751,66.5744,-0.024986
112.782,66.5681,-0.024986
112.814,66.5618,-0.024986
112.845,66.5556,-0.024986
112.876,66.5492,-0.024986
112.908,66.5430,-0.024986
112.939,66.5367,-0.024986
112.969,66.5308,-0.002751
113.001,66.5244,-0.002751
113.033,66.5180,-0.002751
113.063,66.5119,-0.002751
113.094,66.5056,-0.002751
113.125,66.4996,-0.002751
113.157,66.4931,-0.002751
113.189,66.4869,-0.002751
113.219,66.4805,0.017204
113.251,66.4745,0.017204
113.282,66.4683,0.017204
113.312,66.4622,0.017204
113.343,66.4560,0.017204
113.374,66.4495,0.017204
113.405,66.4437,0.017204
113.435,66.4376,0.017204
113.465,66.4315,0.035453
113.496,66.4255,0.035453
113.526,66.4193,0.035453
113.557,66.4131,0.035453
113.587,66.4072,0.035453
113.618,66.4009,0.035453
113.649,66.3948,0.035453
113.680,66.3888,0.035453
113.711,66.3824,0.052243
113.742,66.3762,0.052243
113.773,66.3699,0.052243
113.803,66.3638,0.052243
113.835,66.3576,0.052243
113.866,66.3514,0.052243
113.897,66.3452,0.052243
113.928,66.3389,0.052243
113.959,66.3328,0.068156
113.989,66.3266,0.068156
114.020,66.3205,0.068156
114.052,66.3141,0.068156
114.082,66.3081,0.068156
114.114,66.3017,0.068156
114.145,66.2956,0.068156
114.176,66.2893,0.068156
114.207,66.2831,0.083504
114.237,66.2770,0.083504
114.268,66.2709,0.083504
114.300,66.2645,0.083504
114.331,66.2584,0.083504
114.363,66.2520,0.083504
114.395,66.2456,0.083504
114.426,66.2392,0.083504
114.458,66.2330,0.099002
114.492,66.2263,0.099002
114.521,66.2203,0.099002
114.553,66.2139,0.099002
114.584,66.2079,0.099002
114.615,66.2016,0.099002
114.645,66.1955,0.099002
114.676,66.1894,0.099002
114.707,66.1831,0.115085
114.738,66.1772,0.115085
114.768,66.1708,0.115085
114.799,66.1648,0.115085
114.830,66.1584,0.115085
114.862,66.1520,0.115085
114.893,66.1458,0.115085
114.924,66.1396,0.115085
114.956,66.1333,0.132147
114.987,66.1272,0.132147
115.018,66.1207,0.132147
115.050,66.1147,0.132147
115.082,66.1081,0.132147
115.114,66.1018,0.132147
115.144,66.0959,0.132147
115.174,66.0899,0.132147
115.205,66.0837,0.132147
115.236,66.0773,0.150830
115.266,66.0714,0.150830
115.297,66.0651,0.150830
115.327,66.0591,0.150830
115.359,66.0528,0.150830
115.389,66.0468,0.150830
115.420,66.0405,0.150830
115.451,66.0344,0.171332
115.483,66.0278,0.171332
115.514,66.0218,0.171332
115.546,66.0153,0.171332
115.577,66.0092,0.171332
115.608,66.0029,0.171332
115.638,65.9970,0.171332
115.669,65.9908,0.171332
115.701,65.9844,0.194358
115.732,65.9782,0.194358
115.763,65.9719,0.194358
115.795,65.9655,0.194358
115.827,65.9591,0.194358
115.857,65.9532,0.194358
115.888,65.9470,0.194358
115.919,65.9408,0.194358
115.950,65.9346,0.220192
115.982,65.9283,0.220192
116.013,65.9221,0.220192
116.044,65.9157,0.220192
116.074,65.9098,0.220192
116.105,65.9036,0.220192
116.135,65.8975,0.220192
116.167,65.8913,0.220192
116.197,65.8851,0.249079
116.228,65.8789,0.249079
116.260,65.8726,0.249079
116.291,65.8664,0.249079
116.322,65.8602,0.249079
116.353,65.8541,0.249079
116.383,65.8479,0.249079
116.414,65.8418,0.249079
116.445,65.8357,0.281206
116.476,65.8294,0.281206
116.507,65.8233,0.281206
116.538,65.8171,0.281206
116.568,65.8111,0.281206
116.599,65.8047,0.281206
116.630,65.7985,0.281206
116.662,65.7922,0.281206
116.693,65.7860,0.316594
116.724,65.7799,0.316594
116.755,65.7736,0.316594
116.785,65.7675,0.316594
116.816,65.7613,0.316594
116.847,65.7552,0.316594
116.878,65.7490,0.316594
116.909,65.7427,0.316594
116.940,65.7366,0.355298
116.971,65.7304,0.355298
117.001,65.7244,0.355298
117.032,65.7182,0.355298
117.063,65.7120,0.355298
117.094,65.7058,0.355298
117.125,65.6997,0.355298
117.155,65.6936,0.355298
117.187,65.6873,0.396809
117.219,65.6808,0.396809
117.249,65.6748,0.396809
117.280,65.6684,0.396809
117.311,65.6625,0.396809
117.343,65.6561,0.396809
117.373,65.6498,0.396809
117.404,65.6437,0.396809
117.435,65.6374,0.396809
117.466,65.6315,0.440648
117.497,65.6253,0.440648
117.527,65.6193,0.440648
117.558,65.6130,0.440648
117.589,65.6068,0.440648
117.620,65.6006,0.440648
117.652,65.5943,0.440648
117.683,65.5881,0.485928
117.715,65.5816,0.485928
117.746,65.5753,0.485928
117.777,65.5692,0.485928
117.807,65.5633,0.485928
117.839,65.5568,0.485928
117.870,65.5506,0.485928
117.901,65.5443,0.485928
117.932,65.5381,0.485928
117.963,65.5320,0.531604
117.993,65.5259,0.531604
118.024,65.5197,0.531604
118.055,65.5135,0.531604
118.086,65.5076,0.531604
118.117,65.5012,0.531604
118.148,65.4952,0.531604
118.180,65.4887,0.531604
118.211,65.4825,0.576451
118.242,65.4762,0.576451
118.273,65.4701,0.576451
118.304,65.4639,0.576451
118.335,65.4575,0.576451
118.366,65.4514,0.576451
118.398,65.4452,0.576451
118.429,65.4387,0.576451
118.460,65.4327,0.619828
118.491,65.4262,0.619828
118.522,65.4203,0.619828
118.553,65.4141,0.619828
118.584,65.4079,0.619828
118.615,65.4017,0.619828
118.645,65.3956,0.619828
118.676,65.3894,0.619828
118.707,65.3832,0.656544
118.739,65.3768,0.656544
118.770,65.3706,0.656544
118.800,65.3644,0.656544
118.831,65.3582,0.656544
118.863,65.3520,0.656544
118.894,65.3458,0.656544
118.925,65.3398,0.656544
118.956,65.3336,0.680795
118.986,65.3272,0.680795
119.017,65.3213,0.680795
119.048,65.3148,0.680795
119.079,65.3090,0.680795
119.110,65.3026,0.680795
119.142,65.2962,0.680795
119.173,65.2899,0.680795
119.204,65.2838,0.692817
119.235,65.2775,0.692817
119.267,65.2713,0.692817
119.298,65.2650,0.692817
119.328,65.2589,0.692817
119.360,65.2525,0.692817
119.392,65.2464,0.692817
119.422,65.2403,0.692817
119.453,65.2340,0.692761
119.484,65.2279,0.692761
119.515,65.2216,0.692761
119.545,65.2156,0.692761
119.576,65.2095,0.692761
119.606,65.2032,0.692761
119.638,65.1971,0.692761
119.669,65.1908,0.692761
119.700,65.1847,0.692761
119.731,65.1785,0.669254
119.762,65.1722,0.669254
119.793,65.1660,0.669254
119.824,65.1597,0.669254
119.856,65.1535,0.669254
119.888,65.1470,0.669254
119.919,65.1410,0.669254
119.949,65.1348,0.627186
119.981,65.1284,0.627186
120.012,65.1222,0.627186
120.043,65.1161,0.627186
120.073,65.1101,0.627186
120.105,65.1037,0.627186
120.136,65.0973,0.627186
120.169,65.0907,0.627186
120.198,65.0849,0.567764
120.229,65.0788,0.567764
120.261,65.0722,0.567764
120.293,65.0662,0.567764
120.323,65.0598,0.567764
120.355,65.0536,0.567764
120.385,65.0474,0.567764
120.417,65.0412,0.567764
120.449,65.0348,0.490394
120.480,65.0286,0.490394
120.511,65.0223,0.490394
120.544,65.0158,0.490394
120.574,65.0096,0.490394
120.606,65.0034,0.490394
120.637,64.9972,0.490394
120.668,64.9911,0.490394
120.698,64.9849,0.406250
120.731,64.9785,0.406250
120.761,64.9724,0.406250
120.793,64.9661,0.406250
120.823,64.9600,0.406250
120.854,64.9539,0.406250
120.884,64.9477,0.406250
120.916,64.9414,0.406250
120.947,64.9352,0.406250
120.980,64.9286,0.226467
121.009,64.9228,0.226467
121.041,64.9163,0.226467
121.071,64.9104,0.226467
121.102,64.9043,0.226467
121.133,64.8979,0.226467
121.165,64.8917,0.226467
121.196,64.8853,0.226467
121.228,64.8790,0.060816
121.260,64.8727,0.060816
121.291,64.8665,0.060816
121.322,64.8603,0.060816
121.352,64.8543,0.060816
121.383,64.8480,0.060816
121.414,64.8418,0.060816
121.445,64.8355,0.028915
121.477,64.8294,0.028915
121.508,64.8231,0.028915
121.539,64.8170,0.028915
121.570,64.8106,0.028915
121.600,64.8046,0.028915
121.632,64.7983,0.028915
121.663,64.7921,0.028915
121.695,64.7858,0.028915
121.726,64.7795,0.027144
121.757,64.7732,0.027144
121.790,64.7667,0.027144
121.819,64.7608,0.027144
121.850,64.7546,0.027144
121.881,64.7483,0.027144
121.913,64.7421,0.027144
121.942,64.7363,0.026908
121.974,64.7299,0.026908
122.005,64.7236,0.026908
122.036,64.7174,0.026908
122.068,64.7111,0.026908
122.098,64.7051,0.026908
122.129,64.6989,0.026908
122.160,64.6927,0.026908
122.191,64.6864,0.026908
122.221,64.6805,0.026738
122.252,64.6743,0.026738
122.283,64.6682,0.026738
122.314,64.6617,0.026738
122.345,64.6558,0.026738
122.376,64.6493,0.026738
122.408,64.6431,0.026738
122.440,64.6368,0.026541
122.471,64.6305,0.026541
122.502,64.6243,0.026541
122.533,64.6179,0.026541
122.564,64.6119,0.026541
122.595,64.6057,0.026541
122.627,64.5993,0.026541
122.658,64.5931,0.026541
122.689,64.5868,0.026437
122.719,64.5807,0.026437
122.751,64.5745,0.026437
122.781,64.5683,0.026437
122.812,64.5623,0.026437
122.843,64.5559,0.026437
122.874,64.5499,0.026437
122.906,64.5434,0.026437
122.937,64.5373,0.026437
122.968,64.5311,0.026399
122.998,64.5251,0.026399
123.029,64.5190,0.026399
123.060,64.5127,0.026399
123.092,64.5063,0.026399
123.123,64.5000,0.026399
123.155,64.4937,0.026399
123.186,64.4876,0.026352
123.217,64.4813,0.026352
123.249,64.4749,0.026352
123.279,64.4687,0.026352
123.311,64.4625,0.026352
123.343,64.4561,0.026352
123.374,64.4499,0.026352
123.405,64.4437,0.026352
123.437,64.4374,0.026352
123.467,64.4312,0.026277
123.499,64.4247,0.026277
123.530,64.4186,0.026277
123.561,64.4124,0.026277
123.592,64.4062,0.026277
123.623,64.4002,0.026277
123.654,64.3940,0.026277
123.685,64.3878,0.026230
123.716,64.3813,0.026230
123.747,64.3752,0.026230
123.779,64.3689,0.026230
123.810,64.3626,0.026230
123.842,64.3564,0.026230
123.873,64.3502,0.026230
123.904,64.3437,0.026230
123.935,64.3377,0.026249
123.965,64.3315,0.026249
123.997,64.3253,0.026249
124.028,64.3191,0.026249
124.059,64.3130,0.026249
124.090,64.3066,0.026249
124.121,64.3004,0.026249
124.152,64.2942,0.026249
124.183,64.2879,0.026173
124.215,64.2815,0.026173
124.246,64.2754,0.026173
124.277,64.2692,0.026173
124.308,64.2629,0.026173
124.340,64.2567,0.026173
124.371,64.2505,0.026173
124.402,64.2441,0.026173
124.434,64.2377,0.026173
124.466,64.2315,0.026173
124.498,64.2250,0.026192
124.529,64.2190,0.026192
124.560,64.2126,0.026192
124.591,64.2063,0.026192
124.623,64.1999,0.026192
124.654,64.1939,0.026192
124.685,64.1877,0.026192
124.715,64.1818,0.026249
124.746,64.1756,0.026249
124.777,64.1692,0.026249
124.809,64.1630,0.026249
124.840,64.1566,0.026249
124.871,64.1504,0.026249
124.903,64.1439,0.026249
124.934,64.1379,0.026249
124.965,64.1317,0.026249
124.996,64.1255,0.026239
125.026,64.1194,0.026239
125.057,64.1133,0.026239
125.088,64.1070,0.026239
125.120,64.1008,0.026239
125.149,64.0947,0.026239
125.181,64.0885,0.026239
125.212,64.0822,0.026239
125.243,64.0761,0.026239
125.274,64.0698,0.026239
125.306,64.0637,0.026239
125.338,64.0580,0.026239
125.368,64.0534,0.026239
125.400,64.0493,0.026239
125.431,64.0460,0.026239
125.461,64.0435,0.026164
125.493,64.0417,0.026164
125.524,64.0406,0.026164
125.555,64.0402,0.026164
125.586,64.0402,0.026164
125.616,64.0402,0.026164
125.647,64.0402,0.026164
125.678,64.0404,0.026164
125.709,64.0412,0.025749
125.740,64.0429,0.025749
125.771,64.0451,0.025749
125.802,64.0482,0.025749
125.833,64.0519,0.025749
125.864,64.0564,0.025749
125.895,64.0616,0.025749
125.926,64.0675,0.025749
125.956,64.0736,0.025071
125.987,64.0797,0.025071
126.018,64.0859,0.025071
126.049,64.0920,0.025071
126.080,64.0983,0.025071
126.111,64.1045,0.025071
126.142,64.1106,0.025071
126.173,64.1169,0.025071
126.203,64.1231,0.024543
126.233,64.1290,0.024543
126.264,64.1350,0.024543
126.296,64.1416,0.024543
126.327,64.1475,0.024543
126.358,64.1540,0.024543
126.389,64.1602,0.024543
126.421,64.1664,0.024543
126.452,64.1728,0.024270
126.484,64.1790,0.024270
126.515,64.1852,0.024270
126.546,64.1914,0.024270
126.577,64.1978,0.024270
126.608,64.2038,0.024270
126.639,64.2103,0.024270
126.670,64.2164,0.024270
126.701,64.2226,0.024110
126.732,64.2286,0.024110
126.764,64.2351,0.024110
126.794,64.2410,0.024110
126.825,64.2474,0.024110
126.857,64.2536,0.024110
126.889,64.2600,0.024110
126.918,64.2660,0.024110
126.949,64.2722,0.023931
126.980,64.2784,0.023931
127.011,64.2844,0.023931
127.043,64.2910,0.023931
127.074,64.2972,0.023931
127.105,64.3033,0.023931
127.137,64.3097,0.023931
127.168,64.3158,0.023931
127.198,64.3220,0.023931
127.230,64.3282,0.023837
127.260,64.3343,0.023837
127.291,64.3405,0.023837
127.322,64.3466,0.023837
127.352,64.3528,0.023837
127.383,64.3589,0.023837
127.414,64.3652,0.023837
127.446,64.3715,0.023837
127.478,64.3778,0.023676
127.509,64.3842,0.023676
127.542,64.3907,0.023676
127.571,64.3966,0.023676
127.602,64.4028,0.023676
127.632,64.4088,0.023676
127.663,64.4149,0.023676
127.695,64.4212,0.023460
127.726,64.4274,0.023460
127.758,64.4340,0.023460
127.791,64.4405,0.023460
127.822,64.4467,0.023460
127.852,64.4527,0.023460
127.883,64.4589,0.023460
127.915,64.4653,0.023460
127.944,64.4711,0.023460
127.975,64.4772,0.023337
128.006,64.4836,0.023337
128.038,64.4898,0.023337
128.069,64.4960,0.023337
128.100,64.5022,0.023337
128.131,64.5084,0.023337
128.164,64.5151,0.023337
128.194,64.5211,0.023337
128.226,64.5274,0.023234
128.257,64.5339,0.023234
128.289,64.5399,0.023234
128.320,64.5463,0.023234
128.352,64.5527,0.023234
128.384,64.5592,0.023234
128.414,64.5651,0.023234
128.444,64.5712,0.023158
128.475,64.5773,0.023158
128.506,64.5835,0.023158
128.537,64.5898,0.023158
128.568,64.5960,0.023158
128.599,64.6022,0.023158
128.630,64.6083,0.023158
128.661,64.6146,0.023158
128.693,64.6209,0.023158
128.724,64.6272,0.022979
128.755,64.6333,0.022979
128.787,64.6399,0.022979
128.818,64.6459,0.022979
128.851,64.6527,0.022979
128.882,64.6588,0.022979
128.913,64.6650,0.022979
128.944,64.6712,0.022979
128.974,64.6771,0.022800
129.006,64.6834,0.022800
129.038,64.6899,0.022800
129.069,64.6960,0.022800
129.099,64.7020,0.022800
129.130,64.7084,0.022800
129.160,64.7143,0.022800
129.191,64.7205,0.022650
129.223,64.7267,0.022650
129.253,64.7329,0.022650
129.285,64.7394,0.022650
129.317,64.7457,0.022650
129.348,64.7520,0.022650
129.379,64.7581,0.022650
129.410,64.7644,0.022650
129.442,64.7707,0.022452
129.473,64.7769,0.022452
129.503,64.7830,0.022452
129.535,64.7895,0.022452
129.565,64.7953,0.022452
129.595,64.8015,0.022452
129.627,64.8077,0.022452
129.657,64.8137,0.022452
129.688,64.8197,0.022320
129.719,64.8261,0.022320
129.749,64.8323,0.022320
129.781,64.8385,0.022320
129.812,64.8447,0.022320
129.843,64.8507,0.022320
129.874,64.8572,0.022320
129.906,64.8634,0.022320
129.936,64.8697,0.022320
129.967,64.8758,0.022160
129.998,64.8819,0.022160
130.029,64.8882,0.022160
130.060,64.8943,0.022160
130.091,64.9006,0.022160
130.123,64.9068,0.022160
130.154,64.9131,0.022160
130.185,64.9193,0.021962
130.217,64.9256,0.021962
130.249,64.9320,0.021962
130.279,64.9383,0.021962
130.311,64.9444,0.021962
130.342,64.9506,0.021962
130.373,64.9569,0.021962
130.405,64.9632,0.021962
130.435,64.9694,0.021689
130.466,64.9755,0.021689
130.497,64.9817,0.021689
130.528,64.9879,0.021689
130.561,64.9946,0.021689
130.591,65.0006,0.021689
130.621,65.0066,0.021689
130.652,65.0128,0.021689
130.683,65.0189,0.021689
130.714,65.0251,0.021689
130.746,65.0314,0.021472
130.777,65.0375,0.021472
130.808,65.0438,0.021472
130.839,65.0502,0.021472
130.871,65.0566,0.021472
130.902,65.0626,0.021472
130.933,65.0689,0.021472
130.964,65.0750,0.021227
130.995,65.0814,0.021227
131.027,65.0876,0.021227
131.058,65.0939,0.021227
131.089,65.1000,0.021227
131.119,65.1061,0.021227
131.151,65.1123,0.021227
131.182,65.1186,0.021227
131.213,65.1250,0.020963
131.244,65.1312,0.020963
131.276,65.1374,0.020963
131.306,65.1436,0.020963
131.337,65.1498,0.020963
131.369,65.1561,0.020963
131.400,65.1622,0.020963
131.431,65.1685,0.020963
131.462,65.1747,0.020680
131.493,65.1809,0.020680
131.524,65.1870,0.020680
131.555,65.1933,0.020680
131.585,65.1992,0.020680
131.617,65.2056,0.020680
131.647,65.2118,0.020680
131.678,65.2181,0.020680
131.710,65.2242,0.020360
131.741,65.2305,0.020360
131.772,65.2366,0.020360
131.803,65.2429,0.020360
131.833,65.2490,0.020360
131.866,65.2554,0.020360
131.897,65.2616,0.020360
131.927,65.2678,0.020360
131.958,65.2739,0.020002
131.990,65.2804,0.020002
132.020,65.2863,0.020002
132.052,65.2926,0.020002
132.083,65.2988,0.020002
132.114,65.3050,0.020002
132.145,65.3112,0.020002
132.175,65.3174,0.020002
132.207,65.3238,0.019550
132.237,65.3297,0.019550
132.267,65.3359,0.019550
132.299,65.3421,0.019550
132.330,65.3483,0.019550
132.360,65.3543,0.019550
132.391,65.3606,0.019550
132.422,65.3667,0.019550
132.454,65.3730,0.019116
132.484,65.3790,0.019116
132.515,65.3853,0.019116
132.546,65.3915,0.019116
132.577,65.3976,0.019116
132.607,65.4038,0.019116
132.637,65.4097,0.019116
132.669,65.4160,0.019116
132.700,65.4221,0.018589
132.729,65.4282,0.018589
132.761,65.4344,0.018589
132.791,65.4406,0.018589
132.823,65.4468,0.018589
132.855,65.4532,0.018589
132.886,65.4593,0.018589
132.916,65.4655,0.018589
132.947,65.4717,0.017986
132.977,65.4778,0.017986
133.008,65.4841,0.017986
133.039,65.4901,0.017986
133.070,65.4962,0.017986
133.102,65.5026,0.017986
133.133,65.5088,0.017986
133.164,65.5151,0.017986
133.195,65.5212,0.017317
133.226,65.5275,0.017317
133.257,65.5336,0.017317
133.289,65.5399,0.017317
133.320,65.5463,0.017317
133.350,65.5523,0.017317
133.381,65.5584,0.017317
133.412,65.5647,0.017317
133.443,65.5707,0.016563
133.474,65.5771,0.016563
133.505,65.5832,0.016563
133.536,65.5895,0.016563
133.567,65.5956,0.016563
133.599,65.6023,0.016563
133.629,65.6082,0.016563
133.660,65.6142,0.016563
133.692,65.6206,0.015668
133.723,65.6269,0.015668
133.754,65.6332,0.015668
133.786,65.6395,0.015668
133.817,65.6456,0.015668
133.848,65.6519,0.015668
133.879,65.6580,0.015668
133.911,65.6645,0.015668
133.942,65.6707,0.014547
133.973,65.6770,0.014547
134.004,65.6832,0.014547
134.035,65.6893,0.014547
134.066,65.6956,0.014547
134.097,65.7015,0.014547
134.129,65.7080,0.014547
134.159,65.7141,0.014547
134.190,65.7203,0.014547
134.221,65.7266,0.013322
134.253,65.7328,0.013322
134.284,65.7391,0.013322
134.316,65.7454,0.013322
134.347,65.7516,0.013322
134.378,65.7580,0.013322
134.409,65.7640,0.013322
134.440,65.7702,0.013322
134.471,65.7763,0.011862
134.501,65.7827,0.011862
134.531,65.7885,0.011862
134.562,65.7947,0.011862
134.593,65.8009,0.011862
134.624,65.8072,0.011862
134.656,65.8133,0.011862
134.687,65.8197,0.011862
134.718,65.8258,0.010081
134.750,65.8323,0.010081
134.780,65.8383,0.010081
134.811,65.8444,0.010081
134.842,65.8506,0.010081
134.873,65.8569,0.010081
134.904,65.8630,0.010081
134.936,65.8696,0.008037
134.967,65.8755,0.008037
134.998,65.8817,0.008037
135.029,65.8879,0.008037
135.060,65.8944,0.008037
135.091,65.9006,0.008037
135.122,65.9067,0.008037
135.154,65.9131,0.008037
135.183,65.9190,0.008037
135.215,65.9255,0.005615
135.246,65.9315,0.005615
135.278,65.9378,0.005615
135.310,65.9444,0.005615
135.342,65.9506,0.005615
135.372,65.9567,0.005615
135.403,65.9629,0.005615
135.434,65.9691,0.002789
135.466,65.9756,0.002789
135.496,65.9815,0.002789
135.527,65.9877,0.002789
135.558,65.9941,0.002789
135.589,65.9999,0.002789
135.620,66.0063,0.002789
135.651,66.0123,0.002789
135.682,66.0185,0.002789
135.713,66.0249,-0.000631
135.744,66.0309,-0.000631
135.775,66.0373,-0.000631
135.807,66.0436,-0.000631
135.838,66.0498,-0.000631
135.869,66.0560,-0.000631
135.900,66.0624,-0.000631
135.930,66.0683,-0.004626
135.962,66.0746,-0.004626
135.993,66.0808,-0.004626
136.024,66.0871,-0.004626
136.055,66.0933,-0.004626
136.086,66.0995,-0.004626
136.117,66.1056,-0.004626
136.147,66.1118,-0.004626
136.178,66.1179,-0.004626
136.209,66.1242,-0.009356
136.239,66.1300,-0.009356
136.271,66.1365,-0.009356
136.302,66.1427,-0.009356
136.334,66.1491,-0.009356
136.365,66.1553,-0.009356
136.397,66.1618,-0.009356
136.428,66.1679,-0.009356
136.460,66.1743,-0.014867
136.492,66.1805,-0.014867
136.523,66.1868,-0.014867
136.554,66.1929,-0.014867
136.583,66.1989,-0.014867
136.615,66.2053,-0.014867
136.646,66.2114,-0.014867
136.677,66.2176,-0.021189
136.708,66.2239,-0.021189
136.740,66.2301,-0.021189
136.770,66.2363,-0.021189
136.801,66.2424,-0.021189
136.832,66.2486,-0.021189
136.862,66.2548,-0.021189
136.894,66.2610,-0.021189
136.926,66.2673,-0.021189
136.957,66.2737,-0.028821
136.988,66.2797,-0.028821
137.018,66.2859,-0.028821
137.049,66.2920,-0.028821
137.080,66.2982,-0.028821
137.111,66.3044,-0.028821
137.142,66.3106,-0.028821
137.173,66.3169,-0.037686
137.203,66.3230,-0.037686
137.235,66.3292,-0.037686
137.265,66.3352,-0.037686
137.296,66.3416,-0.037686
137.328,66.3477,-0.037686
137.358,66.3540,-0.037686
137.391,66.3604,-0.037686
137.421,66.3666,-0.037686
137.452,66.3728,-0.047862
137.483,66.3790,-0.047862
137.515,66.3852,-0.047862
137.546,66.3915,-0.047862
137.576,66.3974,-0.047862
137.607,66.4036,-0.047862
137.638,66.4100,-0.047862
137.669,66.4160,-0.047862
137.700,66.4224,-0.059601
137.731,66.4284,-0.059601
137.761,66.4346,-0.059601
137.792,66.4406,-0.059601
137.823,66.4469,-0.059601
137.854,66.4529,-0.059601
137.885,66.4593,-0.059601
137.916,66.4655,-0.059601
137.948,66.4718,-0.059601
137.978,66.4779,-0.073074
138.010,66.4844,-0.073074
138.042,66.4907,-0.073074
138.074,66.4970,-0.073074
138.105,66.5031,-0.073074
138.136,66.5093,-0.073074
138.167,66.5155,-0.073074
138.198,66.5218,-0.073074
138.229,66.5279,-0.088733
138.259,66.5341,-0.088733
138.290,66.5403,-0.088733
138.321,66.5465,-0.088733
138.353,66.5528,-0.088733
138.384,66.5590,-0.088733
138.415,66.5652,-0.088733
138.447,66.5716,-0.088733
138.477,66.5776,-0.106511
138.508,66.5838,-0.106511
138.539,66.5899,-0.106511
138.570,66.5962,-0.106511
138.601,66.6024,-0.106511
138.633,66.6089,-0.106511
138.665,66.6151,-0.106511
138.697,66.6215,-0.106511
138.729,66.6281,-0.126692
138.759,66.6341,-0.126692
138.791,66.6405,-0.126692
138.822,66.6467,-0.126692
138.853,66.6528,-0.126692
138.883,66.6589,-0.126692
138.916,66.6655,-0.126692
138.946,66.6715,-0.149521
138.976,66.6775,-0.149521
139.008,66.6839,-0.149521
139.039,66.6899,-0.149521
139.070,66.6963,-0.149521
139.102,66.7025,-0.149521
139.133,66.7089,-0.149521
139.165,66.7153,-0.149521
139.195,66.7214,-0.149521
139.227,66.7278,-0.175053
139.257,66.7338,-0.175053
139.289,66.7400,-0.175053
139.320,66.7463,-0.175053
139.349,66.7520,-0.175053
139.380,66.7583,-0.175053
139.411,66.7643,-0.175053
139.442,66.7706,-0.203507
139.473,66.7768,-0.203507
139.503,66.7829,-0.203507
139.535,66.7893,-0.203507
139.565,66.7953,-0.203507
139.597,66.8016,-0.203507
139.628,66.8078,-0.203507
139.659,66.8142,-0.203507
139.691,66.8205,-0.203507
139.722,66.8267,-0.235012
139.753,66.8328,-0.235012
139.784,66.8391,-0.235012
139.815,66.8452,-0.235012
139.845,66.8512,-0.235012
139.876,66.8574,-0.235012
139.907,66.8635,-0.235012
139.937,66.8698,-0.269835
139.968,66.8759,-0.269835
139.999,66.8822,-0.269835
140.030,66.8881,-0.269835
140.061,66.8945,-0.269835
140.092,66.9006,-0.269835
140.123,66.9070,-0.269835
140.154,66.9130,-0.269835
140.185,66.9193,-0.269835
140.217,66.9255,-0.308152
140.248,66.9320,-0.308152
140.279,66.9381,-0.308152
140.310,66.9443,-0.308152
140.341,66.9503,-0.308152
140.372,66.9565,-0.308152
140.403,66.9629,-0.308152
140.434,66.9689,-0.350201
140.465,66.9753,-0.350201
140.496,66.9813,-0.350201
140.526,66.9877,-0.350201
140.558,66.9937,-0.350201
140.589,67.0002,-0.350201
140.619,67.0060,-0.350201
140.649,67.0122,-0.350201
140.681,67.0182,-0.396329
140.712,67.0236,-0.396329
140.743,67.0281,-0.396329
140.774,67.0321,-0.396329
140.806,67.0352,-0.396329
140.838,67.0376,-0.396329
140.870,67.0393,-0.396329
140.901,67.0401,-0.396329
140.932,67.0402,-0.396329
140.962,67.0402,-0.439781
140.993,67.0402,-0.439781
141.025,67.0402,-0.439781
141.055,67.0402,-0.439781
141.086,67.0402,-0.439781
141.117,67.0402,-0.439781
141.148,67.0402,-0.439781
141.180,67.0402,-0.439781
141.210,67.0402,-0.439781
141.241,67.0402,-0.457692
141.273,67.0402,-0.457692
141.303,67.0402,-0.457692
141.335,67.0402,-0.457692
141.366,67.0402,-0.457692
141.397,67.0402,-0.457692
141.427,67.0402,-0.457692
141.458,67.0402,-0.452915
141.490,67.0402,-0.452915
141.520,67.0402,-0.452915
141.551,67.0402,-0.452915
141.581,67.0402,-0.452915
141.613,67.0402,-0.452915
141.644,67.0402,-0.452915
141.674,67.0402,-0.452915
141.705,67.0402,-0.446951
141.736,67.0402,-0.446951
141.767,67.0402,-0.446951
141.799,67.0402,-0.446951
141.830,67.0402,-0.446951
141.860,67.0402,-0.446951
141.892,67.0402,-0.446951
141.924,67.0402,-0.446951
141.956,67.0402,-0.442250
141.988,67.0402,-0.442250
142.018,67.0402,-0.442250
142.049,67.0402,-0.442250
142.080,67.0402,-0.442250
142.111,67.0402,-0.442250
142.143,67.0402,-0.442250
142.174,67.0402,-0.442250
142.205,67.0402,-0.438302
142.236,67.0402,-0.438302
142.268,67.0402,-0.438302
142.299,67.0402,-0.438302
142.331,67.0402,-0.438302
142.362,67.0402,-0.438302
142.394,67.0402,-0.438302
142.424,67.0402,-0.438302
142.456,67.0402,-0.434769
142.486,67.0402,-0.434769
142.516,67.0402,-0.434769
142.548,67.0402,-0.434769
142.580,67.0402,-0.434769
142.612,67.0402,-0.434769
142.643,67.0402,-0.434769
142.674,67.0402,-0.434769
142.704,67.0402,-0.431717
142.735,67.0402,-0.431717
142.766,67.0402,-0.431717
142.798,67.0402,-0.431717
142.829,67.0402,-0.431717
142.862,67.0402,-0.431717
142.891,67.0402,-0.431717
142.922,67.0402,-0.431717
142.954,67.0402,-0.429041
142.985,67.0402,-0.429041
143.016,67.0402,-0.429041
143.046,67.0402,-0.429041
143.078,67.0402,-0.429041
143.108,67.0402,-0.429041
143.139,67.0402,-0.429041
143.170,67.0402,-0.429041
143.201,67.0402,-0.429041
143.232,67.0402,-0.426591
143.263,67.0402,-0.426591
143.294,67.0402,-0.426591
143.325,67.0402,-0.426591
143.356,67.0402,-0.426591
143.387,67.0402,-0.426591
143.419,67.0402,-0.426591
143.450,67.0402,-0.424311
143.480,67.0402,-0.424311
143.511,67.0402,-0.424311
143.543,67.0402,-0.424311
143.574,67.0402,-0.424311
143.604,67.0402,-0.424311
143.636,67.0402,-0.424311
143.667,67.0402,-0.424311
143.698,67.0402,-0.422191
143.729,67.0402,-0.422191
143.760,67.0402,-0.422191
143.790,67.0402,-0.422191
143.821,67.0402,-0.422191
143.852,67.0402,-0.422191
143.883,67.0402,-0.422191
143.914,67.0402,-0.422191
143.945,67.0402,-0.420316
143.976,67.0402,-0.420316
144.007,67.0402,-0.420316
144.038,67.0402,-0.420316
144.069,67.0402,-0.420316
144.100,67.0402,-0.420316
144.130,67.0402,-0.420316
144.161,67.0402,-0.420316
144.192,67.0402,-0.418479
144.223,67.0402,-0.418479
144.255,67.0402,-0.418479
144.286,67.0402,-0.418479
144.316,67.0402,-0.418479
144.347,67.0402,-0.418479
144.378,67.0402,-0.418479
144.409,67.0402,-0.418479
144.439,67.0402,-0.416746
144.470,67.0402,-0.416746
144.501,67.0402,-0.416746
144.532,67.0402,-0.416746
144.563,67.0402,-0.416746
144.595,67.0402,-0.416746
144.627,67.0402,-0.416746
144.658,67.0402,-0.416746
144.690,67.0402,-0.415219
144.722,67.0402,-0.415219
144.752,67.0402,-0.415219
144.783,67.0402,-0.415219
144.815,67.0402,-0.415219
144.845,67.0402,-0.415219
144.876,67.0402,-0.415219
144.907,67.0402,-0.415219
144.938,67.0402,-0.415219
144.969,67.0402,-0.413429
145.001,67.0402,-0.413429
145.032,67.0402,-0.413429
145.063,67.0402,-0.413429
145.094,67.0402,-0.413429
145.125,67.0402,-0.413429
145.157,67.0402,-0.413429
145.187,67.0402,-0.413429
145.219,67.0402,-0.408238
145.249,67.0402,-0.408238
145.281,67.0402,-0.408238
145.313,67.0402,-0.408238
145.344,67.0402,-0.408238
145.374,67.0402,-0.408238
145.404,67.0402,-0.408238
145.437,67.0402,-0.408238
145.466,67.0402,-0.396885
145.497,67.0402,-0.396885
145.528,67.0402,-0.396885
145.558,67.0402,-0.396885
145.588,67.0402,-0.396885
145.621,67.0402,-0.396885
145.652,67.0402,-0.396885
145.683,67.0400,-0.396885
145.715,67.0389,-0.387539
145.746,67.0371,-0.387539
145.776,67.0348,-0.387539
145.808,67.0314,-0.387539
145.839,67.0276,-0.387539
145.870,67.0229,-0.387539
145.902,67.0172,-0.387539
145.934,67.0110,-0.387539
145.965,67.0048,-0.381396
145.997,66.9985,-0.381396
146.027,66.9924,-0.381396
146.058,66.9863,-0.381396
146.089,66.9801,-0.381396
146.119,66.9739,-0.381396
146.150,66.9678,-0.381396
146.181,66.9615,-0.381396
146.214,66.9549,-0.350794
146.244,66.9491,-0.350794
146.275,66.9429,-0.350794
146.306,66.9366,-0.350794
146.337,66.9304,-0.350794
146.369,66.9240,-0.350794
146.400,66.9180,-0.350794
146.430,66.9116,-0.297741
146.461,66.9057,-0.297741
146.492,66.8994,-0.297741
146.525,66.8928,-0.297741
146.555,66.8868,-0.297741
146.587,66.8804,-0.297741
146.617,66.8744,-0.297741
146.648,66.8681,-0.297741
146.679,66.8620,-0.297741
146.709,66.8560,-0.247600
146.740,66.8497,-0.247600
146.772,66.8434,-0.247600
146.803,66.8372,-0.247600
146.835,66.8309,-0.247600
146.865,66.8248,-0.247600
146.896,66.8186,-0.247600
146.927,66.8123,-0.247600
146.959,66.8061,-0.202470
146.990,66.7998,-0.202470
147.021,66.7936,-0.202470
147.053,66.7872,-0.202470
147.083,66.7812,-0.202470
147.114,66.7750,-0.202470
147.145,66.7688,-0.202470
147.176,66.7626,-0.161816
147.207,66.7564,-0.161816
147.238,66.7502,-0.161816
147.269,66.7438,-0.161816
147.300,66.7378,-0.161816
147.332,66.7313,-0.161816
147.363,66.7252,-0.161816
147.393,66.7190,-0.161816
147.424,66.7130,-0.161816
147.456,66.7066,-0.125336
147.487,66.7004,-0.125336
147.520,66.6939,-0.125336
147.549,66.6879,-0.125336
147.579,66.6819,-0.125336
147.611,66.6756,-0.125336
147.642,66.6694,-0.125336
147.674,66.6630,-0.092605
147.705,66.6569,-0.092605
147.736,66.6507,-0.092605
147.767,66.6445,-0.092605
147.797,66.6384,-0.092605
147.828,66.6323,-0.092605
147.860,66.6259,-0.092605
147.891,66.6197,-0.092605
147.921,66.6136,-0.092605
147.953,66.6073,-0.063445
147.984,66.6011,-0.063445
148.015,66.5949,-0.063445
148.047,66.5884,-0.063445
148.079,66.5820,-0.063445
148.109,66.5762,-0.063445
148.140,66.5698,-0.063445
148.171,66.5635,-0.063445
148.202,66.5574,-0.037338
148.232,66.5512,-0.037338
148.264,66.5451,-0.037338
148.294,66.5388,-0.037338
148.325,66.5329,-0.037338
148.356,66.5267,-0.037338
148.387,66.5203,-0.037338
148.418,66.5141,-0.037338
148.449,66.5079,-0.013916
148.480,66.5016,-0.013916
148.511,66.4955,-0.013916
148.542,66.4893,-0.013916
148.574,66.4831,-0.013916
148.605,66.4768,-0.013916
148.637,66.4705,-0.013916
148.669,66.4640,-0.013916
148.699,66.4580,0.007217
148.731,66.4516,0.007217
148.762,66.4453,0.007217
148.793,66.4394,0.007217
148.823,66.4330,0.007217
148.855,66.4270,0.007217
148.885,66.4208,0.007217
148.917,66.4146,0.007217
148.947,66.4083,0.007217
148.978,66.4021,0.026258
149.009,66.3958,0.026258
149.041,66.3896,0.026258
149.072,66.3833,0.026258
149.103,66.3771,0.026258
149.135,66.3709,0.026258
149.165,66.3646,0.026258
149.196,66.3585,0.026258
149.227,66.3523,0.043669
149.258,66.3462,0.043669
149.289,66.3400,0.043669
149.320,66.3336,0.043669
149.352,66.3274,0.043669
149.382,66.3214,0.043669
149.413,66.3152,0.043669
149.444,66.3090,0.043669
149.476,66.3027,0.059893
149.507,66.2964,0.059893
149.538,66.2903,0.059893
149.569,66.2840,0.059893
149.600,66.2779,0.059893
149.631,66.2716,0.059893
149.662,66.2655,0.059893
149.693,66.2590,0.059893
149.724,66.2529,0.075307
149.756,66.2466,0.075307
149.786,66.2407,0.075307
149.817,66.2345,0.075307
149.847,66.2279,0.075307
149.879,66.2219,0.075307
149.910,66.2157,0.075307
149.940,66.2098,0.075307
149.972,66.2032,0.090692
150.004,66.1969,0.090692
150.036,66.1906,0.090692
150.067,66.1845,0.090692
150.098,66.1780,0.090692
150.129,66.1720,0.090692
150.159,66.1659,0.090692
150.190,66.1596,0.090692
150.222,66.1535,0.106285
150.252,66.1474,0.106285
150.283,66.1412,0.106285
150.315,66.1348,0.106285
150.345,66.1288,0.106285
150.377,66.1225,0.106285
150.408,66.1163,0.106285
150.439,66.1099,0.122584
150.471,66.1036,0.122584
150.500,66.0977,0.122584
150.531,66.0916,0.122584
150.562,66.0854,0.122584
150.593,66.0791,0.122584
150.625,66.0727,0.122584
150.656,66.0665,0.122584
150.687,66.0605,0.122584
150.718,66.0540,0.140014
150.750,66.0478,0.140014
150.781,66.0416,0.140014
150.812,66.0354,0.140014
150.843,66.0292,0.140014
150.874,66.0230,0.140014
150.905,66.0168,0.140014
150.936,66.0105,0.159065
150.970,66.0038,0.159065
150.999,65.9980,0.159065
151.030,65.9916,0.159065
151.062,65.9854,0.159065
151.094,65.9791,0.159065
151.124,65.9730,0.159065
151.155,65.9667,0.159065
151.186,65.9607,0.180150
151.216,65.9545,0.180150
151.247,65.9485,0.180150
151.278,65.9420,0.180150
151.309,65.9361,0.180150
151.341,65.9296,0.180150
151.372,65.9234,0.180150
151.403,65.9172,0.180150
151.434,65.9111,0.203356
151.465,65.9049,0.203356
151.496,65.8986,0.203356
151.527,65.8924,0.203356
151.558,65.8862,0.203356
151.588,65.8803,0.203356
151.619,65.8741,0.203356
151.651,65.8675,0.203356
151.683,65.8613,0.229048
151.714,65.8550,0.229048
151.745,65.8486,0.229048
151.776,65.8426,0.229048
151.807,65.8365,0.229048
151.838,65.8303,0.229048
151.869,65.8240,0.229048
151.900,65.8179,0.229048
151.931,65.8114,0.229048
151.962,65.8056,0.257068
151.993,65.7993,0.257068
152.024,65.7931,0.257068
152.055,65.7869,0.257068
152.086,65.7807,0.257068
152.117,65.7745,0.257068
152.148,65.7683,0.257068
152.180,65.7619,0.257068
152.210,65.7559,0.287406
152.242,65.7494,0.287406
152.273,65.7433,0.287406
152.304,65.7371,0.287406
152.335,65.7307,0.287406
152.365,65.7249,0.287406
152.395,65.7189,0.287406
152.426,65.7127,0.287406
152.456,65.7066,0.319779
152.487,65.7003,0.319779
152.517,65.6943,0.319779
152.549,65.6879,0.319779
152.580,65.6818,0.319779
152.611,65.6755,0.319779
152.643,65.6694,0.319779
152.674,65.6630,0.319779
152.705,65.6569,0.353376
152.737,65.6504,0.353376
152.768,65.6442,0.353376
152.799,65.6378,0.353376
152.830,65.6320,0.353376
152.861,65.6254,0.353376
152.893,65.6192,0.353376
152.925,65.6127,0.353376
152.956,65.6067,0.387557
152.987,65.6005,0.387557
153.017,65.5944,0.387557
153.049,65.5881,0.387557
153.079,65.5819,0.387557
153.110,65.5759,0.387557
153.141,65.5698,0.387557
153.171,65.5636,0.387557
153.202,65.5574,0.421635
153.234,65.5511,0.421635
153.265,65.5448,0.421635
153.296,65.5387,0.421635
153.327,65.5325,0.421635
153.357,65.5263,0.421635
153.388,65.5203,0.421635
153.419,65.5141,0.421635
153.449,65.5079,0.454837
153.479,65.5021,0.454837
153.510,65.4959,0.454837
153.540,65.4898,0.454837
153.571,65.4836,0.454837
153.601,65.4777,0.454837
153.632,65.4714,0.454837
153.663,65.4652,0.454837
153.695,65.4588,0.486089
153.725,65.4527,0.486089
153.756,65.4465,0.486089
153.787,65.4405,0.486089
153.819,65.4341,0.486089
153.850,65.4278,0.486089
153.881,65.4216,0.486089
153.913,65.4154,0.486089
153.943,65.4092,0.486089
153.974,65.4029,0.514985
154.006,65.3967,0.514985
154.037,65.3906,0.514985
154.067,65.3843,0.514985
154.099,65.3781,0.514985
154.130,65.3718,0.514985
154.161,65.3657,0.514985
154.191,65.3596,0.514985
154.223,65.3533,0.514985
154.254,65.3470,0.540875
154.285,65.3406,0.540875
154.317,65.3346,0.540875
154.348,65.3284,0.540875
154.379,65.3220,0.540875
154.410,65.3158,0.540875
154.441,65.3096,0.540875
154.472,65.3034,0.560406
154.503,65.2972,0.560406
154.535,65.2910,0.560406
154.566,65.2846,0.560406
154.598,65.2784,0.560406
154.630,65.2719,0.560406
154.660,65.2660,0.560406
154.691,65.2595,0.560406
154.722,65.2533,0.572051
154.753,65.2471,0.572051
154.785,65.2409,0.572051
154.815,65.2348,0.572051
154.846,65.2285,0.572051
154.878,65.2223,0.572051
154.909,65.2160,0.572051
154.941,65.2095,0.572051
154.972,65.2035,0.578863
155.002,65.1975,0.578863
155.033,65.1912,0.578863
155.064,65.1851,0.578863
155.094,65.1789,0.578863
155.126,65.1728,0.578863
155.158,65.1663,0.578863
155.189,65.1601,0.578863
155.220,65.1539,0.582368
155.251,65.1478,0.582368
155.282,65.1416,0.582368
155.313,65.1352,0.582368
155.343,65.1292,0.582368
155.375,65.1230,0.582368
155.405,65.1169,0.582368
155.437,65.1104,0.582368
155.467,65.1046,0.581256
155.499,65.0980,0.581256
155.529,65.0922,0.581256
155.559,65.0859,0.581256
155.591,65.0797,0.581256
155.622,65.0735,0.581256
155.653,65.0672,0.581256
155.685,65.0610,0.581256
155.716,65.0546,0.572993
155.747,65.0484,0.572993
155.777,65.0422,0.572993
155.809,65.0360,0.572993
155.840,65.0300,0.572993
155.871,65.0238,0.572993
155.902,65.0176,0.572993
155.933,65.0111,0.572993
155.964,65.0051,0.546773
155.995,64.9987,0.546773
156.026,64.9927,0.546773
156.057,64.9863,0.546773
156.088,64.9802,0.546773
156.119,64.9739,0.546773
156.150,64.9678,0.546773
156.181,64.9615,0.546773
156.212,64.9554,0.503603
156.243,64.9493,0.503603
156.274,64.9433,0.503603
156.304,64.9371,0.503603
156.335,64.9307,0.503603
156.366,64.9248,0.503603
156.397,64.9186,0.503603
156.428,64.9123,0.503603
156.459,64.9061,0.450032
156.491,64.8997,0.450032
156.521,64.8937,0.450032
156.552,64.8873,0.450032
156.585,64.8810,0.450032
156.616,64.8747,0.450032
156.647,64.8686,0.450032
156.678,64.8624,0.450032
156.709,64.8561,0.272963
156.739,64.8500,0.272963
156.771,64.8437,0.272963
156.801,64.8375,0.272963
156.832,64.8314,0.272963
156.864,64.8251,0.272963
156.895,64.8189,0.272963
156.926,64.8125,0.272963
156.957,64.8065,0.079038
156.989,64.8001,0.079038
157.019,64.7939,0.079038
157.050,64.7877,0.079038
157.082,64.7814,0.079038
157.112,64.7755,0.079038
157.143,64.7693,0.079038
157.174,64.7629,0.079038
157.205,64.7569,0.029593
157.236,64.7505,0.029593
157.268,64.7442,0.029593
157.299,64.7380,0.029593
157.331,64.7314,0.029593
157.362,64.7256,0.029593
157.393,64.7193,0.029593
157.424,64.7132,0.029593
157.454,64.7070,0.029593
157.486,64.7008,0.027153
157.516,64.6947,0.027153
157.547,64.6885,0.027153
157.578,64.6823,0.027153
157.609,64.6761,0.027153
157.640,64.6700,0.027153
157.671,64.6637,0.027153
157.702,64.6575,0.026889
157.733,64.6513,0.026889
157.764,64.6450,0.026889
157.796,64.6387,0.026889
157.827,64.6325,0.026889
157.858,64.6264,0.026889
157.889,64.6201,0.026889
157.920,64.6139,0.026889
157.951,64.6077,0.026701
157.983,64.6013,0.026701
158.015,64.5949,0.026701
158.046,64.5886,0.026701
158.078,64.5824,0.026701
158.109,64.5760,0.026701
158.141,64.5698,0.026701
158.171,64.5636,0.026701
158.202,64.5573,0.026616
158.233,64.5513,0.026616
158.265,64.5449,0.026616
158.295,64.5388,0.026616
158.326,64.5325,0.026616
158.357,64.5264,0.026616
158.388,64.5202,0.026616
158.419,64.5141,0.026616
158.450,64.5078,0.026465
158.481,64.5017,0.026465
158.512,64.4955,0.026465
158.543,64.4895,0.026465
158.574,64.4833,0.026465
158.604,64.4771,0.026465
158.635,64.4710,0.026465
158.666,64.4648,0.026465
158.697,64.4586,0.026380
158.728,64.4524,0.026380
158.759,64.4461,0.026380
158.790,64.4400,0.026380
158.820,64.4339,0.026380
158.852,64.4274,0.026380
158.883,64.4214,0.026380
158.913,64.4152,0.026380
158.945,64.4090,0.026362
158.976,64.4026,0.026362
159.007,64.3964,0.026362
159.038,64.3902,0.026362
159.069,64.3842,0.026362
159.100,64.3778,0.026362
159.131,64.3716,0.026362
159.163,64.3653,0.026362
159.193,64.3594,0.026296
159.224,64.3530,0.026296
159.255,64.3470,0.026296
159.286,64.3406,0.026296
159.317,64.3344,0.026296
159.349,64.3280,0.026296
159.379,64.3220,0.026296
159.410,64.3157,0.026296
159.442,64.3095,0.026324
159.474,64.3032,0.026324
159.504,64.2971,0.026324
159.536,64.2905,0.026324
159.567,64.2844,0.026324
159.599,64.2780,0.026324
159.631,64.2718,0.026324
159.662,64.2653,0.026324
159.692,64.2595,0.026305
159.724,64.2532,0.026305
159.755,64.2469,0.026305
159.785,64.2409,0.026305
159.816,64.2348,0.026305
159.847,64.2286,0.026305
159.878,64.2224,0.026305
159.909,64.2161,0.026305
159.941,64.2098,0.026211
159.972,64.2036,0.026211
160.003,64.1974,0.026211
160.034,64.1912,0.026211
160.065,64.1849,0.026211
160.096,64.1788,0.026211
160.127,64.1726,0.026211
160.158,64.1663,0.026211
160.189,64.1601,0.026239
160.221,64.1536,0.026239
160.252,64.1475,0.026239
160.282,64.1414,0.026239
160.314,64.1350,0.026239
160.345,64.1288,0.026239
160.376,64.1225,0.026239
160.407,64.1164,0.026239
160.438,64.1101,0.026258
160.469,64.1041,0.026258
160.500,64.0977,0.026258
160.532,64.0916,0.026258
160.563,64.0853,0.026258
160.594,64.0791,0.026258
160.625,64.0729,0.026258
160.656,64.0667,0.026258
160.688,64.0602,0.026230
160.719,64.0539,0.026230
160.751,64.0477,0.026230
160.781,64.0415,0.026230
160.813,64.0354,0.026230
160.843,64.0292,0.026230
160.874,64.0230,0.026230
160.905,64.0171,0.026230
160.935,64.0112,0.026249
160.966,64.0061,0.026249
160.997,64.0017,0.026249
161.029,63.9978,0.026249
161.059,63.9950,0.026249
161.090,63.9926,0.026249
161.121,63.9913,0.026249
161.151,63.9904,0.026249
161.182,63.9903,0.025957
161.213,63.9903,0.025957
161.245,63.9903,0.025957
161.276,63.9903,0.025957
161.307,63.9904,0.025957
161.339,63.9913,0.025957
161.371,63.9927,0.025957
161.402,63.9950,0.025957
161.432,63.9980,0.025957
161.462,64.0016,0.025514
161.495,64.0061,0.025514
161.526,64.0113,0.025514
161.556,64.0173,0.025514
161.588,64.0234,0.025514
161.618,64.0296,0.025514
161.649,64.0357,0.025514
161.680,64.0420,0.025514
161.711,64.0479,0.024948
161.742,64.0543,0.024948
161.773,64.0606,0.024948
161.805,64.0669,0.024948
161.835,64.0729,0.024948
161.867,64.0792,0.024948
161.898,64.0854,0.024948
161.929,64.0917,0.024948
161.960,64.0979,0.024374
161.991,64.1040,0.024374
162.021,64.1101,0.024374
162.052,64.1163,0.024374
162.084,64.1227,0.024374
162.116,64.1292,0.024374
162.147,64.1351,0.024374
162.178,64.1414,0.024374
162.209,64.1477,0.024148
162.240,64.1539,0.024148
162.271,64.1601,0.024148
162.302,64.1664,0.024148
162.334,64.1726,0.024148
162.365,64.1789,0.024148
162.396,64.1850,0.024148
162.427,64.1912,0.024148
162.458,64.1975,0.024025
162.489,64.2036,0.024025
162.520,64.2098,0.024025
162.550,64.2160,0.024025
162.581,64.2221,0.024025
162.613,64.2284,0.024025
162.643,64.2345,0.024025
162.675,64.2409,0.024025
162.705,64.2467,0.023827
162.736,64.2529,0.023827
162.767,64.2593,0.023827
162.798,64.2656,0.023827
162.829,64.2717,0.023827
162.861,64.2780,0.023827
162.892,64.2843,0.023827
162.923,64.2905,0.023705
162.955,64.2969,0.023705
162.986,64.3029,0.023705
163.016,64.3091,0.023705
163.048,64.3155,0.023705
163.078,64.3215,0.023705
163.109,64.3276,0.023705
163.140,64.3339,0.023705
163.171,64.3400,0.023705
163.202,64.3462,0.023620
163.233,64.3524,0.023620
163.265,64.3589,0.023620
163.296,64.3649,0.023620
163.328,64.3715,0.023620
163.359,64.3776,0.023620
163.390,64.3839,0.023620
163.422,64.3904,0.023620
163.454,64.3966,0.023479
163.485,64.4028,0.023479
163.516,64.4091,0.023479
163.547,64.4153,0.023479
163.578,64.4215,0.023479
163.609,64.4278,0.023479
163.640,64.4339,0.023479
163.671,64.4401,0.023479
163.702,64.4463,0.023479
163.734,64.4525,0.023356
163.765,64.4588,0.023356
163.796,64.4649,0.023356
163.827,64.4712,0.023356
163.858,64.4773,0.023356
163.889,64.4838,0.023356
163.919,64.4897,0.023356
163.951,64.4962,0.023356
163.982,64.5021,0.023196
164.013,64.5084,0.023196
164.042,64.5144,0.023196
164.074,64.5206,0.023196
164.105,64.5267,0.023196
164.135,64.5329,0.023196
164.166,64.5391,0.023196
164.197,64.5451,0.023196
164.228,64.5515,0.023073
164.259,64.5575,0.023073
164.290,64.5639,0.023073
164.321,64.5701,0.023073
164.352,64.5763,0.023073
164.383,64.5825,0.023073
164.414,64.5887,0.023073
164.446,64.5949,0.023073
164.477,64.6012,0.022913
164.507,64.6074,0.022913
164.539,64.6136,0.022913
164.570,64.6198,0.022913
164.601,64.6260,0.022913
164.632,64.6322,0.022913
164.663,64.6387,0.022913
164.695,64.6450,0.022913
164.726,64.6512,0.022772
164.757,64.6573,0.022772
164.788,64.6636,0.022772
164.820,64.6699,0.022772
164.851,64.6761,0.022772
164.882,64.6822,0.022772
164.914,64.6886,0.022772
164.945,64.6950,0.022772
164.976,64.7012,0.022612
165.008,64.7075,0.022612
165.039,64.7138,0.022612
165.070,64.7199,0.022612
165.102,64.7263,0.022612
165.133,64.7324,0.022612
165.164,64.7385,0.022612
165.195,64.7447,0.022612
165.225,64.7508,0.022612
165.256,64.7570,0.022395
165.286,64.7631,0.022395
165.317,64.7694,0.022395
165.348,64.7755,0.022395
165.380,64.7818,0.022395
165.410,64.7879,0.022395
165.442,64.7943,0.022395
165.473,64.8004,0.022301
165.504,64.8067,0.022301
165.535,64.8129,0.022301
165.566,64.8191,0.022301
165.597,64.8252,0.022301
165.628,64.8315,0.022301
165.660,64.8378,0.022301
165.690,64.8439,0.022301
165.721,64.8501,0.022084
165.752,64.8562,0.022084
165.783,64.8623,0.022084
165.815,64.8687,0.022084
165.846,64.8750,0.022084
165.875,64.8809,0.022084
165.906,64.8871,0.022084
165.937,64.8934,0.022084
165.968,64.8995,0.021877
165.998,64.9056,0.021877
166.031,64.9119,0.021877
166.062,64.9182,0.021877
166.093,64.9245,0.021877
166.123,64.9305,0.021877
166.155,64.9367,0.021877
166.186,64.9430,0.021679
166.216,64.9491,0.021679
166.248,64.9553,0.021679
166.279,64.9617,0.021679
166.310,64.9678,0.021679
166.341,64.9740,0.021679
166.371,64.9801,0.021679
166.402,64.9863,0.021679
166.433,64.9925,0.021349
166.464,64.9986,0.021349
166.495,65.0048,0.021349
166.526,65.0110,0.021349
166.556,65.0169,0.021349
166.588,65.0234,0.021349
166.618,65.0295,0.021349
166.650,65.0357,0.021349
166.680,65.0420,0.021349
166.711,65.0481,0.021086
166.743,65.0544,0.021086
166.774,65.0606,0.021086
166.805,65.0668,0.021086
166.836,65.0730,0.021086
166.866,65.0791,0.021086
166.898,65.0854,0.021086
166.929,65.0915,0.021086
166.960,65.0979,0.020765
166.991,65.1040,0.020765
167.021,65.1102,0.020765
167.053,65.1165,0.020765
167.085,65.1228,0.020765
167.116,65.1290,0.020765
167.148,65.1355,0.020765
167.179,65.1417,0.020765
167.211,65.1481,0.020445
167.242,65.1542,0.020445
167.274,65.1607,0.020445
167.306,65.1670,0.020445
167.337,65.1733,0.020445
167.369,65.1795,0.020445
167.400,65.1857,0.020445
167.432,65.1923,0.020445
167.462,65.1984,0.020162
167.493,65.2045,0.020162
167.524,65.2107,0.020162
167.555,65.2170,0.020162
167.586,65.2231,0.020162
167.617,65.2293,0.020162
167.647,65.2351,0.020162
167.678,65.2414,0.020162
167.709,65.2476,0.019804
167.740,65.2538,0.019804
167.772,65.2603,0.019804
167.803,65.2665,0.019804
167.834,65.2727,0.019804
167.866,65.2789,0.019804
167.897,65.2852,0.019804
167.928,65.2915,0.019804
167.959,65.2976,0.019324
167.990,65.3038,0.019324
168.021,65.3101,0.019324
168.051,65.3161,0.019324
168.084,65.3226,0.019324
168.115,65.3287,0.019324
168.146,65.3349,0.019324
168.177,65.3413,0.019324
168.208,65.3473,0.018843
168.240,65.3538,0.018843
168.270,65.3599,0.018843
168.301,65.3662,0.018843
168.332,65.3721,0.018843
168.362,65.3783,0.018843
168.394,65.3847,0.018843
168.425,65.3907,0.018334
168.455,65.3968,0.018334
168.486,65.4030,0.018334
168.516,65.4091,0.018334
168.547,65.4152,0.018334
168.579,65.4216,0.018334
168.610,65.4278,0.018334
168.641,65.4340,0.018334
168.672,65.4401,0.018334
168.704,65.4465,0.017713
168.735,65.4529,0.017713
168.767,65.4592,0.017713
168.798,65.4653,0.017713
168.829,65.4717,0.017713
168.860,65.4779,0.017713
168.890,65.4839,0.017713
168.922,65.4901,0.017713
168.953,65.4965,0.016978
168.984,65.5025,0.016978
169.014,65.5088,0.016978
169.045,65.5150,0.016978
169.076,65.5211,0.016978
169.108,65.5274,0.016978
169.137,65.5334,0.016978
169.168,65.5393,0.016978
169.198,65.5455,0.016978
169.229,65.5516,0.016139
169.261,65.5580,0.016139
169.292,65.5641,0.016139
169.323,65.5704,0.016139
169.354,65.5765,0.016139
169.385,65.5827,0.016139
169.416,65.5891,0.016139
169.446,65.5951,0.015188
169.477,65.6012,0.015188
169.508,65.6074,0.015188
169.539,65.6136,0.015188
169.570,65.6198,0.015188
169.602,65.6261,0.015188
169.632,65.6322,0.015188
169.664,65.6385,0.015188
169.695,65.6447,0.013982
169.726,65.6511,0.013982
169.757,65.6571,0.013982
169.788,65.6633,0.013982
169.819,65.6695,0.013982
169.849,65.6755,0.013982
169.881,65.6819,0.013982
169.912,65.6881,0.013982
169.942,65.6942,0.012653
169.973,65.7007,0.012653
170.005,65.7069,0.012653
170.036,65.7132,0.012653
170.067,65.7192,0.012653
170.098,65.7255,0.012653
170.129,65.7314,0.012653
170.160,65.7379,0.012653
170.191,65.7442,0.011061
170.223,65.7504,0.011061
170.253,65.7565,0.011061
170.285,65.7629,0.011061
170.317,65.7691,0.011061
170.347,65.7753,0.011061
170.379,65.7815,0.011061
170.410,65.7880,0.011061
170.442,65.7941,0.009158
170.472,65.8004,0.009158
170.504,65.8066,0.009158
170.536,65.8130,0.009158
170.566,65.8190,0.009158
170.597,65.8253,0.009158
170.628,65.8314,0.009158
170.659,65.8376,0.009158
170.690,65.8442,0.006944
170.722,65.8501,0.006944
170.752,65.8562,0.006944
170.782,65.8622,0.006944
170.813,65.8685,0.006944
170.844,65.8746,0.006944
170.875,65.8809,0.006944
170.907,65.8872,0.006944
170.937,65.8934,0.004277
170.969,65.8997,0.004277
171.000,65.9058,0.004277
171.030,65.9119,0.004277
171.061,65.9180,0.004277
171.092,65.9242,0.004277
171.123,65.9304,0.004277
171.154,65.9366,0.004277
171.185,65.9428,0.001187
171.216,65.9491,0.001187
171.248,65.9553,0.001187
171.278,65.9614,0.001187
171.309,65.9676,0.001187
171.340,65.9738,0.001187
171.371,65.9800,0.001187
171.402,65.9862,0.001187
171.434,65.9926,0.001187
171.465,65.9988,0.001187
171.496,66.0050,-0.002544
171.528,66.0114,-0.002544
171.559,66.0176,-0.002544
171.589,66.0236,-0.002544
171.619,66.0298,-0.002544
171.650,66.0359,-0.002544
171.682,66.0421,-0.002544
171.713,66.0484,-0.006915
171.745,66.0549,-0.006915
171.775,66.0610,-0.006915
171.807,66.0672,-0.006915
171.837,66.0731,-0.006915
171.868,66.0793,-0.006915
171.899,66.0856,-0.006915
171.930,66.0917,-0.006915
171.962,66.0983,-0.011984
171.993,66.1042,-0.011984
172.024,66.1107,-0.011984
172.055,66.1168,-0.011984
172.087,66.1232,-0.011984
172.118,66.1295,-0.011984
172.150,66.1357,-0.011984
172.180,66.1418,-0.011984
172.212,66.1480,-0.018033
172.243,66.1543,-0.018033
172.274,66.1606,-0.018033
172.305,66.1669,-0.018033
172.337,66.1731,-0.018033
172.369,66.1795,-0.018033
172.400,66.1857,-0.018033
172.431,66.1921,-0.018033
172.462,66.1981,-0.024986
172.494,66.2045,-0.024986
172.525,66.2107,-0.024986
172.556,66.2171,-0.024986
172.587,66.2232,-0.024986
172.618,66.2295,-0.024986
172.650,66.2357,-0.024986
172.680,66.2419,-0.024986
172.712,66.2481,-0.033183
172.742,66.2542,-0.033183
172.773,66.2603,-0.033183
172.804,66.2666,-0.033183
172.835,66.2729,-0.033183
172.866,66.2791,-0.033183
172.898,66.2852,-0.033183
172.928,66.2915,-0.033183
172.960,66.2977,-0.042727
172.991,66.3040,-0.042727
173.022,66.3101,-0.042727
173.053,66.3164,-0.042727
173.084,66.3225,-0.042727
173.115,66.3289,-0.042727
173.145,66.3348,-0.042727
173.177,66.3413,-0.042727
173.208,66.3472,-0.053769
173.240,66.3538,-0.053769
173.270,66.3597,-0.053769
173.302,66.3663,-0.053769
173.334,66.3725,-0.053769
173.365,66.3788,-0.053769
173.396,66.3850,-0.053769
173.428,66.3917,-0.053769
173.459,66.3976,-0.053769
173.491,66.4040,-0.066469
173.521,66.4100,-0.066469
173.553,66.4164,-0.066469
173.583,66.4224,-0.066469
173.614,66.4286,-0.066469
173.645,66.4346,-0.066469
173.675,66.4407,-0.066469
173.706,66.4470,-0.080913
173.738,66.4534,-0.080913
173.769,66.4596,-0.080913
173.800,66.4659,-0.080913
173.831,66.4718,-0.080913
173.862,66.4782,-0.080913
173.893,66.4844,-0.080913
173.924,66.4907,-0.080913
173.955,66.4968,-0.097617
173.986,66.5031,-0.097617
174.017,66.5094,-0.097617
174.048,66.5154,-0.097617
174.079,66.5215,-0.097617
174.111,66.5280,-0.097617
174.141,66.5339,-0.097617
174.173,66.5403,-0.097617
174.203,66.5464,-0.116639
174.236,66.5530,-0.116639
174.267,66.5590,-0.116639
174.297,66.5652,-0.116639
174.328,66.5713,-0.116639
174.359,66.5776,-0.116639
174.391,66.5840,-0.116639
174.422,66.5902,-0.116639
174.454,66.5965,-0.138121
174.484,66.6027,-0.138121
174.516,66.6089,-0.138121
174.547,66.6152,-0.138121
174.578,66.6212,-0.138121
174.609,66.6276,-0.138121
174.639,66.6335,-0.138121
174.671,66.6399,-0.138121
174.701,66.6460,-0.162381
174.732,66.6522,-0.162381
174.762,66.6583,-0.162381
174.794,66.6647,-0.162381
174.825,66.6708,-0.162381
174.857,66.6772,-0.162381
174.888,66.6833,-0.162381
174.919,66.6896,-0.162381
174.950,66.6957,-0.189384
174.981,66.7019,-0.189384
175.012,66.7084,-0.189384
175.044,66.7146,-0.189384
175.075,66.7208,-0.189384
175.105,66.7267,-0.189384
175.136,66.7328,-0.189384
175.166,66.7391,-0.189384
175.197,66.7452,-0.219457
175.228,66.7514,-0.219457
175.259,66.7575,-0.219457
175.290,66.7637,-0.219457
175.321,66.7699,-0.219457
175.352,66.7763,-0.219457
175.383,66.7823,-0.219457
175.415,66.7887,-0.219457
175.445,66.7948,-0.252782
175.476,66.8010,-0.252782
175.508,66.8072,-0.252782
175.539,66.8137,-0.252782
175.569,66.8197,-0.252782
175.601,66.8258,-0.252782
175.632,66.8323,-0.252782
175.663,66.8383,-0.252782
175.694,66.8444,-0.289582
175.725,66.8507,-0.289582
175.755,66.8567,-0.289582
175.786,66.8630,-0.289582
175.817,66.8691,-0.289582
175.848,66.8754,-0.289582
175.879,66.8815,-0.289582
175.910,66.8877,-0.289582
175.941,66.8939,-0.330001
175.973,66.9004,-0.330001
176.003,66.9063,-0.330001
176.036,66.9130,-0.330001
176.066,66.9191,-0.330001
176.098,66.9255,-0.330001
176.129,66.9316,-0.330001
176.160,66.9378,-0.330001
176.192,66.9440,-0.374066
176.223,66.9502,-0.374066
176.253,66.9564,-0.374066
176.284,66.9627,-0.374066
176.315,66.9686,-0.374066
176.345,66.9736,-0.374066
176.376,66.9782,-0.374066
176.408,66.9821,-0.374066
176.438,66.9852,-0.421683
176.470,66.9875,-0.421683
176.502,66.9893,-0.421683
176.532,66.9900,-0.421683
176.563,66.9903,-0.421683
176.594,66.9903,-0.421683
176.625,66.9903,-0.421683
176.655,66.9903,-0.421683
176.686,66.9903,-0.421683
176.717,66.9903,-0.454931
176.749,66.9903,-0.454931
176.780,66.9903,-0.454931
176.815,66.9903,-0.454931
176.842,66.9903,-0.454931
176.872,66.9903,-0.454931
176.903,66.9903,-0.454931
176.934,66.9903,-0.454931
176.966,66.9903,-0.454931
176.996,66.9903,-0.459548
177.027,66.9903,-0.459548
177.058,66.9903,-0.459548
177.089,66.9903,-0.459548
177.121,66.9903,-0.459548
177.152,66.9903,-0.459548
177.183,66.9903,-0.459548
177.214,66.9903,-0.452435
177.245,66.9903,-0.452435
177.276,66.9903,-0.452435
177.306,66.9903,-0.452435
177.337,66.9903,-0.452435
177.369,66.9903,-0.452435
177.399,66.9903,-0.452435
177.430,66.9903,-0.452435
177.462,66.9903,-0.447111
177.492,66.9903,-0.447111
177.523,66.9903,-0.447111
177.554,66.9903,-0.447111
177.585,66.9903,-0.447111
177.615,66.9903,-0.447111
177.647,66.9903,-0.447111
177.678,66.9903,-0.447111
177.710,66.9903,-0.442834
177.741,66.9903,-0.442834
177.772,66.9903,-0.442834
177.803,66.9903,-0.442834
177.833,66.9903,-0.442834
177.864,66.9903,-0.442834
177.895,66.9903,-0.442834
177.926,66.9903,-0.442834
177.958,66.9903,-0.439141
177.989,66.9903,-0.439141
178.020,66.9903,-0.439141
178.050,66.9903,-0.439141
178.082,66.9903,-0.439141
178.112,66.9903,-0.439141
178.143,66.9903,-0.439141
178.174,66.9903,-0.439141
178.204,66.9903,-0.435966
178.237,66.9903,-0.435966
178.267,66.9903,-0.435966
178.298,66.9903,-0.435966
178.329,66.9903,-0.435966
178.360,66.9903,-0.435966
178.391,66.9903,-0.435966
178.422,66.9903,-0.435966
178.453,66.9903,-0.435966
178.484,66.9903,-0.433111
178.515,66.9903,-0.433111
178.546,66.9903,-0.433111
178.577,66.9903,-0.433111
178.607,66.9903,-0.433111
178.638,66.9903,-0.433111
178.669,66.9903,-0.433111
178.700,66.9903,-0.430501
178.732,66.9903,-0.430501
178.763,66.9903,-0.430501
178.794,66.9903,-0.430501
178.825,66.9903,-0.430501
178.857,66.9903,-0.430501
178.889,66.9903,-0.430501
178.920,66.9903,-0.430501
178.951,66.9903,-0.428099
178.982,66.9903,-0.428099
179.013,66.9903,-0.428099
179.044,66.9903,-0.428099
179.075,66.9903,-0.428099
179.106,66.9903,-0.428099
179.138,66.9903,-0.428099
179.169,66.9903,-0.428099
179.200,66.9903,-0.425903
179.232,66.9903,-0.425903
179.262,66.9903,-0.425903
179.294,66.9903,-0.425903
179.324,66.9903,-0.425903
179.355,66.9903,-0.425903
179.387,66.9903,-0.425903
179.418,66.9903,-0.425903
179.450,66.9903,-0.423897
179.481,66.9903,-0.423897
179.512,66.9903,-0.423897
179.543,66.9903,-0.423897
179.574,66.9903,-0.423897
179.605,66.9903,-0.423897
179.635,66.9903,-0.423897
179.666,66.9903,-0.423897
179.696,66.9903,-0.422059
179.727,66.9903,-0.422059
179.757,66.9903,-0.422059
179.788,66.9903,-0.422059
179.819,66.9903,-0.422059
179.851,66.9903,-0.422059
179.882,66.9903,-0.422059
179.914,66.9903,-0.422059
179.946,66.9903,-0.420354
179.976,66.9903,-0.420354
180.006,66.9903,-0.420354
180.037,66.9903,-0.420354
180.068,66.9903,-0.420354
180.100,66.9903,-0.420354
180.130,66.9903,-0.420354
180.161,66.9903,-0.420354
180.193,66.9903,-0.418686
180.223,66.9903,-0.418686
180.253,66.9903,-0.418686
180.284,66.9903,-0.418686
180.315,66.9903,-0.418686
180.347,66.9903,-0.418686
180.378,66.9903,-0.418686
180.410,66.9903,-0.418686
180.443,66.9903,-0.415973
180.472,66.9903,-0.415973
180.503,66.9903,-0.415973
180.533,66.9903,-0.415973
180.565,66.9903,-0.415973
180.596,66.9903,-0.415973
180.627,66.9903,-0.415973
180.658,66.9903,-0.415973
180.689,66.9903,-0.415973
180.720,66.9903,-0.406796
180.751,66.9903,-0.406796
180.781,66.9903,-0.406796
180.812,66.9903,-0.406796
180.844,66.9903,-0.406796
180.875,66.9903,-0.406796
180.906,66.9903,-0.406796
180.937,66.9903,-0.406796
180.968,66.9903,-0.394727
181.000,66.9903,-0.394727
181.030,66.9903,-0.394727
181.062,66.9899,-0.394727
181.093,66.9889,-0.394727
181.123,66.9872,-0.394727
181.154,66.9848,-0.394727
181.184,66.9816,-0.394727
181.215,66.9776,-0.389385
181.247,66.9729,-0.389385
181.278,66.9676,-0.389385
181.309,66.9616,-0.389385
181.340,66.9553,-0.389385
181.370,66.9492,-0.389385
181.401,66.9430,-0.389385
181.432,66.9369,-0.372530
181.463,66.9307,-0.372530
181.492,66.9248,-0.372530
181.523,66.9187,-0.372530
181.554,66.9126,-0.372530
181.584,66.9064,-0.372530
181.616,66.9001,-0.372530
181.648,66.8938,-0.372530
181.679,66.8876,-0.372530
181.710,66.8814,-0.372530
181.741,66.8752,-0.328333
181.772,66.8690,-0.328333
181.803,66.8626,-0.328333
181.834,66.8566,-0.328333
181.865,66.8502,-0.328333
181.896,66.8442,-0.328333
181.926,66.8381,-0.328333
181.956,66.8321,-0.275299
181.987,66.8259,-0.275299
182.019,66.8195,-0.275299
182.050,66.8133,-0.275299
182.081,66.8072,-0.275299
182.112,66.8009,-0.275299
182.143,66.7948,-0.275299
182.174,66.7885,-0.275299
182.205,66.7823,-0.227456
182.237,66.7760,-0.227456
182.268,66.7698,-0.227456
182.298,66.7636,-0.227456
182.330,66.7572,-0.227456
182.361,66.7509,-0.227456
182.392,66.7449,-0.227456
182.423,66.7386,-0.227456
182.454,66.7325,-0.184258
182.485,66.7263,-0.184258
182.517,66.7200,-0.184258
182.548,66.7137,-0.184258
182.579,66.7075,-0.184258
182.610,66.7013,-0.184258
182.641,66.6952,-0.184258
182.672,66.6888,-0.184258
182.704,66.6826,-0.145385
182.734,66.6764,-0.145385
182.765,66.6703,-0.145385
182.796,66.6641,-0.145385
182.827,66.6576,-0.145385
182.857,66.6519,-0.145385
182.889,66.6456,-0.145385
182.919,66.6395,-0.145385
182.950,66.6332,-0.110647
182.981,66.6271,-0.110647
183.012,66.6208,-0.110647
183.043,66.6147,-0.110647
183.075,66.6083,-0.110647
183.106,66.6021,-0.110647
183.137,66.5960,-0.110647
183.168,66.5898,-0.110647
183.198,66.5837,-0.079509
183.229,66.5774,-0.079509
183.262,66.5711,-0.079509
183.292,66.5650,-0.079509
183.323,66.5588,-0.079509
183.354,66.5525,-0.079509
183.386,66.5463,-0.079509
183.417,66.5399,-0.079509
183.447,66.5339,-0.051612
183.478,66.5277,-0.051612
183.509,66.5216,-0.051612
183.541,66.5151,-0.051612
183.572,66.5091,-0.051612
183.603,66.5027,-0.051612
183.634,66.4965,-0.051612
183.666,66.4902,-0.051612
183.697,66.4840,-0.026738
183.728,66.4778,-0.026738
183.758,66.4716,-0.026738
183.789,66.4655,-0.026738
183.820,66.4593,-0.026738
183.851,66.4532,-0.026738
183.881,66.4472,-0.026738
183.912,66.4408,-0.026738
183.942,66.4349,-0.004334
183.974,66.4284,-0.004334
184.004,66.4224,-0.004334
184.036,66.4162,-0.004334
184.067,66.4100,-0.004334
184.097,66.4038,-0.004334
184.129,66.3976,-0.004334
184.161,66.3910,-0.004334
184.192,66.3849,0.015800
184.224,66.3785,0.015800
184.255,66.3724,0.015800
184.286,66.3661,0.015800
184.316,66.3602,0.015800
184.347,66.3539,0.015800
184.379,66.3477,0.015800
184.410,66.3414,0.015800
184.441,66.3351,0.034116
184.471,66.3290,0.034116
184.503,66.3226,0.034116
184.533,66.3166,0.034116
184.565,66.3104,0.034116
184.596,66.3043,0.034116
184.627,66.2978,0.034116
184.658,66.2918,0.034116
184.690,66.2854,0.034116
184.721,66.2792,0.050877
184.751,66.2732,0.050877
184.781,66.2672,0.050877
184.813,66.2606,0.050877
184.844,66.2544,0.050877
184.875,66.2482,0.050877
184.907,66.2419,0.050877
184.938,66.2357,0.050877
184.969,66.2296,0.066790
185.000,66.2232,0.066790
185.031,66.2171,0.066790
185.062,66.2109,0.066790
185.093,66.2047,0.066790
185.124,66.1985,0.066790
185.156,66.1922,0.066790
185.187,66.1859,0.066790
185.218,66.1798,0.082260
185.249,66.1734,0.082260
185.280,66.1674,0.082260
185.311,66.1610,0.082260
185.342,66.1550,0.082260
185.374,66.1486,0.082260
185.404,66.1426,0.082260
185.434,66.1365,0.082260
185.466,66.1300,0.097542
185.497,66.1241,0.097542
185.528,66.1179,0.097542
185.559,66.1117,0.097542
185.591,66.1052,0.097542
185.622,66.0990,0.097542
185.652,66.0928,0.097542
185.683,66.0868,0.113408
185.715,66.0804,0.113408
185.747,66.0741,0.113408
185.777,66.0679,0.113408
185.808,66.0618,0.113408
185.839,66.0555,0.113408
185.871,66.0493,0.113408
185.902,66.0430,0.113408
185.933,66.0369,0.130056
185.964,66.0306,0.130056
185.994,66.0244,0.130056
186.025,66.0183,0.130056
186.056,66.0122,0.130056
186.087,66.0059,0.130056
186.117,65.9999,0.130056
186.149,65.9935,0.130056
186.180,65.9874,0.130056
186.211,65.9811,0.130056
186.243,65.9748,0.148126
186.273,65.9687,0.148126
186.304,65.9626,0.148126
186.335,65.9564,0.148126
186.366,65.9502,0.148126
186.398,65.9438,0.148126
186.429,65.9376,0.148126
186.460,65.9311,0.148126
186.491,65.9252,0.167987
186.523,65.9188,0.167987
186.553,65.9128,0.167987
186.585,65.9064,0.167987
186.614,65.9005,0.167987
186.645,65.8944,0.167987
186.676,65.8881,0.167987
186.707,65.8820,0.167987
186.738,65.8755,0.189911
186.769,65.8696,0.189911
186.800,65.8633,0.189911
186.831,65.8571,0.189911
186.863,65.8507,0.189911
186.894,65.8444,0.189911
186.925,65.8382,0.189911
186.957,65.8320,0.189911
186.988,65.8257,0.214106
187.020,65.8195,0.214106
187.051,65.8133,0.214106
187.081,65.8072,0.214106
187.113,65.8009,0.214106
187.144,65.7947,0.214106
187.175,65.7885,0.214106
187.206,65.7822,0.240581
187.236,65.7763,0.240581
187.267,65.7701,0.240581
187.298,65.7639,0.240581
187.329,65.7576,0.240581
187.359,65.7515,0.240581
187.391,65.7453,0.240581
187.422,65.7390,0.240581
187.452,65.7328,0.240581
187.484,65.7266,0.269382
187.516,65.7203,0.269382
187.548,65.7138,0.269382
187.578,65.7077,0.269382
187.609,65.7015,0.269382
187.640,65.6953,0.269382
187.671,65.6891,0.269382
187.702,65.6829,0.300031
187.732,65.6770,0.300031
187.764,65.6705,0.300031
187.794,65.6643,0.300031
187.826,65.6581,0.300031
187.857,65.6521,0.300031
187.888,65.6456,0.300031
187.920,65.6393,0.300031
187.951,65.6331,0.332309
187.982,65.6270,0.332309
188.014,65.6206,0.332309
188.044,65.6146,0.332309
188.075,65.6083,0.332309
188.106,65.6021,0.332309
188.137,65.5960,0.332309
188.168,65.5897,0.332309
188.200,65.5833,0.365436
188.231,65.5770,0.365436
188.263,65.5708,0.365436
188.294,65.5646,0.365436
188.325,65.5582,0.365436
188.356,65.5521,0.365436
188.387,65.5458,0.365436
188.418,65.5398,0.365436
188.449,65.5335,0.398948
188.481,65.5272,0.398948
188.512,65.5210,0.398948
188.543,65.5148,0.398948
188.575,65.5082,0.398948
188.607,65.5020,0.398948
188.639,65.4955,0.398948
188.669,65.4895,0.398948
188.701,65.4833,0.432272
188.732,65.4771,0.432272
188.762,65.4710,0.432272
188.794,65.4645,0.432272
188.824,65.4586,0.432272
188.855,65.4524,0.432272
188.886,65.4461,0.432272
188.916,65.4402,0.432272
188.947,65.4339,0.464259
188.978,65.4277,0.464259
189.009,65.4215,0.464259
189.040,65.4152,0.464259
189.071,65.4092,0.464259
189.101,65.4030,0.464259
189.132,65.3968,0.464259
189.164,65.3907,0.464259
189.194,65.3843,0.494511
189.225,65.3782,0.494511
189.257,65.3720,0.494511
189.288,65.3657,0.494511
189.319,65.3595,0.494511
189.350,65.3535,0.494511
189.380,65.3473,0.494511
189.411,65.3409,0.494511
189.442,65.3349,0.494511
189.474,65.3285,0.522578
189.504,65.3225,0.522578
189.536,65.3163,0.522578
189.567,65.3100,0.522578
189.598,65.3037,0.522578
189.629,65.2975,0.522578
189.661,65.2913,0.522578
189.691,65.2849,0.522578
189.722,65.2790,0.547150
189.753,65.2727,0.547150
189.785,65.2665,0.547150
189.816,65.2603,0.547150
189.847,65.2539,0.547150
189.878,65.2477,0.547150
189.908,65.2418,0.547150
189.939,65.2356,0.547150
189.971,65.2291,0.563854
190.001,65.2232,0.563854
190.032,65.2171,0.563854
190.062,65.2109,0.563854
190.092,65.2050,0.563854
190.123,65.1987,0.563854
190.154,65.1925,0.563854
190.185,65.1862,0.572164
190.217,65.1800,0.572164
190.248,65.1739,0.572164
190.279,65.1676,0.572164
190.310,65.1613,0.572164
190.341,65.1550,0.572164
190.372,65.1490,0.572164
190.403,65.1426,0.572164
190.434,65.1366,0.574510
190.465,65.1302,0.574510
190.497,65.1240,0.574510
190.528,65.1176,0.574510
190.560,65.1116,0.574510
190.590,65.1052,0.574510
190.621,65.0992,0.574510
190.652,65.0930,0.574510
190.683,65.0869,0.569262
190.714,65.0806,0.569262
190.745,65.0745,0.569262
190.776,65.0680,0.569262
190.808,65.0618,0.569262
190.839,65.0555,0.569262
190.870,65.0493,0.569262
190.901,65.0432,0.569262
190.932,65.0369,0.569262
190.962,65.0309,0.557533
190.993,65.0247,0.557533
191.024,65.0185,0.557533
191.055,65.0122,0.557533
191.086,65.0063,0.557533
191.117,64.9999,0.557533
191.148,64.9939,0.557533
191.179,64.9875,0.557533
191.209,64.9816,0.541657
191.240,64.9753,0.541657
191.272,64.9691,0.541657
191.302,64.9630,0.541657
191.333,64.9569,0.541657
191.364,64.9506,0.541657
191.395,64.9443,0.541657
191.426,64.9382,0.541657
191.457,64.9321,0.517368
191.487,64.9259,0.517368
191.518,64.9197,0.517368
191.549,64.9134,0.517368
191.580,64.9075,0.517368
191.610,64.9015,0.517368
191.641,64.8953,0.517368
191.671,64.8892,0.517368
191.702,64.8830,0.481350
191.733,64.8768,0.481350
191.764,64.8706,0.481350
191.795,64.8643,0.481350
191.826,64.8583,0.481350
191.857,64.8521,0.481350
191.888,64.8459,0.481350
191.919,64.8396,0.481350
191.951,64.8331,0.396866
191.982,64.8271,0.396866
192.013,64.8208,0.396866
192.044,64.8146,0.396866
192.075,64.8084,0.396866
192.106,64.8022,0.396866
192.137,64.7960,0.396866
192.169,64.7896,0.396866
192.199,64.7836,0.396866
192.230,64.7773,0.197015
192.261,64.7712,0.197015
192.292,64.7650,0.197015
192.323,64.7588,0.197015
192.354,64.7526,0.197015
192.385,64.7463,0.197015
192.417,64.7401,0.197015
192.448,64.7338,0.044517
192.479,64.7276,0.044517
192.510,64.7215,0.044517
192.541,64.7153,0.044517
192.572,64.7090,0.044517
192.604,64.7025,0.044517
192.636,64.6962,0.044517
192.667,64.6901,0.044517
192.697,64.6841,0.027634
192.732,64.6771,0.027634
192.759,64.6715,0.027634
192.789,64.6654,0.027634
192.820,64.6594,0.027634
192.851,64.6532,0.027634
192.882,64.6471,0.027634
192.913,64.6408,0.027634
192.943,64.6347,0.027634
192.974,64.6285,0.027097
193.005,64.6224,0.027097
193.036,64.6162,0.027097
193.067,64.6100,0.027097
193.098,64.6039,0.027097
193.129,64.5976,0.027097
193.161,64.5912,0.027097
193.191,64.5852,0.026870
193.222,64.5791,0.026870
193.253,64.5728,0.026870
193.285,64.5662,0.026870
193.316,64.5603,0.026870
193.346,64.5542,0.026870
193.378,64.5479,0.026870
193.409,64.5417,0.026870
193.440,64.5355,0.026748
193.471,64.5293,0.026748
193.502,64.5229,0.026748
193.534,64.5166,0.026748
193.565,64.5104,0.026748
193.595,64.5043,0.026748
193.626,64.4981,0.026748
193.657,64.4919,0.026748
193.689,64.4857,0.026597
193.719,64.4795,0.026597
193.750,64.4733,0.026597
193.781,64.4671,0.026597
193.812,64.4611,0.026597
193.843,64.4547,0.026597
193.874,64.4485,0.026597
193.904,64.4426,0.026597
193.935,64.4365,0.026484
193.965,64.4304,0.026484
193.997,64.4241,0.026484
194.028,64.4176,0.026484
194.059,64.4117,0.026484
194.089,64.4055,0.026484
194.120,64.3995,0.026484
194.151,64.3932,0.026484
194.182,64.3871,0.026446
194.213,64.3808,0.026446
194.244,64.3746,0.026446
194.274,64.3687,0.026446
194.307,64.3621,0.026446
194.336,64.3561,0.026446
194.368,64.3498,0.026446
194.398,64.3439,0.026446
194.429,64.3375,0.026446
194.460,64.3313,0.026399
194.492,64.3249,0.026399
194.523,64.3188,0.026399
194.554,64.3126,0.026399
194.584,64.3068,0.026399
194.615,64.3002,0.026399
194.647,64.2941,0.026399
194.677,64.2879,0.026399
194.709,64.2816,0.026362
194.740,64.2755,0.026362
194.770,64.2692,0.026362
194.802,64.2630,0.026362
194.833,64.2567,0.026362
194.864,64.2507,0.026362
194.895,64.2444,0.026362
194.925,64.2383,0.026362
194.956,64.2321,0.026305
194.988,64.2259,0.026305
195.019,64.2197,0.026305
195.050,64.2134,0.026305
195.081,64.2073,0.026305
195.112,64.2010,0.026305
195.142,64.1949,0.026305
195.174,64.1887,0.026305
195.205,64.1825,0.026277
195.236,64.1762,0.026277
195.266,64.1702,0.026277
195.297,64.1640,0.026277
195.328,64.1578,0.026277
195.360,64.1515,0.026277
195.391,64.1452,0.026277
195.423,64.1388,0.026277
195.454,64.1326,0.026258
195.485,64.1264,0.026258
195.515,64.1205,0.026258
195.546,64.1142,0.026258
195.578,64.1077,0.026258
195.608,64.1019,0.026258
195.638,64.0958,0.026258
195.669,64.0896,0.026258
195.701,64.0830,0.026315
195.732,64.0770,0.026315
195.763,64.0708,0.026315
195.794,64.0647,0.026315
195.824,64.0586,0.026315
195.856,64.0524,0.026315
195.886,64.0461,0.026315
195.918,64.0399,0.026315
195.948,64.0337,0.026343
195.980,64.0276,0.026343
196.010,64.0213,0.026343
196.042,64.0149,0.026343
196.072,64.0089,0.026343
196.103,64.0028,0.026343
196.135,63.9965,0.026343
196.165,63.9904,0.026343
196.196,63.9843,0.026343
196.227,63.9781,0.026324
196.259,63.9717,0.026324
196.289,63.9655,0.026324
196.321,63.9598,0.026324
196.352,63.9548,0.026324
196.383,63.9506,0.026324
196.413,63.9471,0.026324
196.445,63.9443,0.026324
196.476,63.9423,0.026201
196.507,63.9409,0.026201
196.538,63.9403,0.026201
196.569,63.9403,0.026201
196.601,63.9403,0.026201
196.633,63.9403,0.026201
196.664,63.9403,0.026201
196.696,63.9403,0.026201
196.727,63.9403,0.025777
196.758,63.9403,0.025777
196.789,63.9403,0.025777
196.820,63.9403,0.025777
196.852,63.9403,0.025777
196.882,63.9403,0.025777
196.912,63.9403,0.025777
196.944,63.9403,0.025448
196.975,63.9403,0.025448
197.006,63.9403,0.025448
197.037,63.9403,0.025448
197.069,63.9403,0.025448
197.100,63.9403,0.025448
197.130,63.9409,0.025448
197.163,63.9423,0.025448
197.193,63.9443,0.025401
197.225,63.9471,0.025401
197.256,63.9506,0.025401
197.286,63.9549,0.025401
197.316,63.9596,0.025401
197.348,63.9655,0.025401
197.378,63.9714,0.025401
197.410,63.9777,0.025401
197.440,63.9839,0.024920
197.471,63.9900,0.024920
197.502,63.9962,0.024920
197.532,64.0023,0.024920
197.564,64.0086,0.024920
197.595,64.0149,0.024920
197.626,64.0210,0.024920
197.656,64.0272,0.024920
197.687,64.0332,0.024393
197.718,64.0396,0.024393
197.749,64.0456,0.024393
197.781,64.0520,0.024393
197.811,64.0580,0.024393
197.842,64.0643,0.024393
197.873,64.0703,0.024393
197.904,64.0766,0.024393
197.935,64.0827,0.024393
197.965,64.0889,0.024204
197.997,64.0954,0.024204
198.028,64.1014,0.024204
198.059,64.1076,0.024204
198.090,64.1138,0.024204
198.121,64.1199,0.024204
198.152,64.1262,0.024204
198.182,64.1323,0.024204
198.213,64.1385,0.024053
198.245,64.1447,0.024053
198.276,64.1509,0.024053
198.306,64.1571,0.024053
198.337,64.1632,0.024053
198.369,64.1695,0.024053
198.400,64.1758,0.024053
198.431,64.1820,0.024053
198.462,64.1883,0.023903
198.493,64.1944,0.023903
198.524,64.2006,0.023903
198.556,64.2069,0.023903
198.586,64.2130,0.023903
198.617,64.2192,0.023903
198.648,64.2254,0.023903
198.679,64.2317,0.023903
198.710,64.2377,0.023903
198.742,64.2443,0.023752
198.772,64.2503,0.023752
198.803,64.2564,0.023752
198.834,64.2626,0.023752
198.866,64.2691,0.023752
198.897,64.2751,0.023752
198.928,64.2815,0.023752
198.958,64.2874,0.023695
198.989,64.2937,0.023695
199.021,64.3000,0.023695
199.053,64.3064,0.023695
199.084,64.3126,0.023695
199.116,64.3191,0.023695
199.148,64.3253,0.023695
199.179,64.3317,0.023695
199.210,64.3378,0.023526
199.242,64.3441,0.023526
199.272,64.3503,0.023526
199.303,64.3565,0.023526
199.334,64.3627,0.023526
199.365,64.3688,0.023526
199.396,64.3750,0.023526
199.427,64.3811,0.023526
199.456,64.3873,0.023356
199.488,64.3935,0.023356
199.519,64.3997,0.023356
199.550,64.4057,0.023356
199.580,64.4119,0.023356
199.611,64.4180,0.023356
199.643,64.4242,0.023356
199.673,64.4304,0.023356
199.705,64.4366,0.023224
199.736,64.4432,0.023224
199.768,64.4493,0.023224
199.799,64.4556,0.023224
199.830,64.4618,0.023224
199.861,64.4680,0.023224
199.892,64.4742,0.023224
199.921,64.4800,0.023224
199.953,64.4865,0.023073
199.985,64.4928,0.023073
200.015,64.4989,0.023073
200.046,64.5051,0.023073
200.078,64.5115,0.023073
200.109,64.5176,0.023073
200.141,64.5241,0.023073
200.172,64.5301,0.023073
200.203,64.5362,0.022998
200.233,64.5424,0.022998
200.265,64.5487,0.022998
200.295,64.5551,0.022998
200.326,64.5609,0.022998
200.357,64.5671,0.022998
200.388,64.5733,0.022998
200.418,64.5796,0.022998
200.451,64.5861,0.022800
200.481,64.5920,0.022800
200.512,64.5982,0.022800
200.543,64.6043,0.022800
200.573,64.6104,0.022800
200.605,64.6167,0.022800
200.635,64.6228,0.022800
200.666,64.6291,0.022800
200.698,64.6354,0.022602
200.730,64.6416,0.022602
200.761,64.6480,0.022602
200.793,64.6543,0.022602
200.823,64.6605,0.022602
200.854,64.6667,0.022602
200.885,64.6729,0.022602
200.916,64.6790,0.022602
200.946,64.6852,0.022602
200.978,64.6915,0.022461
201.008,64.6974,0.022461
201.039,64.7036,0.022461
201.070,64.7098,0.022461
201.102,64.7160,0.022461
201.133,64.7224,0.022461
201.165,64.7287,0.022461
201.195,64.7348,0.022461
201.225,64.7409,0.022310
201.257,64.7473,0.022310
201.288,64.7534,0.022310
201.320,64.7597,0.022310
201.351,64.7659,0.022310
201.382,64.7722,0.022310
201.415,64.7788,0.022310
201.444,64.7845,0.022112
201.475,64.7908,0.022112
201.507,64.7970,0.022112
201.537,64.8032,0.022112
201.568,64.8093,0.022112
201.599,64.8155,0.022112
201.630,64.8216,0.022112
201.660,64.8278,0.022112
201.691,64.8340,0.021915
201.722,64.8402,0.021915
201.753,64.8463,0.021915
201.784,64.8526,0.021915
201.815,64.8589,0.021915
201.845,64.8649,0.021915
201.877,64.8711,0.021915
201.909,64.8775,0.021915
201.940,64.8837,0.021689
201.971,64.8901,0.021689
202.001,64.8963,0.021689
202.033,64.9025,0.021689
202.063,64.9084,0.021689
202.094,64.9146,0.021689
202.124,64.9206,0.021689
202.155,64.9269,0.021689
202.186,64.9331,0.021689
202.217,64.9393,0.021396
202.248,64.9454,0.021396
202.279,64.9516,0.021396
202.310,64.9578,0.021396
202.341,64.9638,0.021396
202.372,64.9702,0.021396
202.403,64.9764,0.021396
202.434,64.9826,0.021396
202.466,64.9889,0.021170
202.497,64.9951,0.021170
202.528,65.0013,0.021170
202.560,65.0078,0.021170
202.590,65.0138,0.021170
202.621,65.0199,0.021170
202.652,65.0261,0.021170
202.684,65.0326,0.021170
202.715,65.0388,0.020878
202.747,65.0452,0.020878
202.777,65.0512,0.020878
202.808,65.0574,0.020878
202.839,65.0637,0.020878
202.870,65.0698,0.020878
202.901,65.0760,0.020878
202.932,65.0823,0.020878
202.964,65.0885,0.020539
202.995,65.0948,0.020539
203.025,65.1006,0.020539
203.056,65.1070,0.020539
203.086,65.1132,0.020539
203.117,65.1191,0.020539
203.148,65.1253,0.020539
203.179,65.1317,0.020539
203.210,65.1377,0.020190
203.240,65.1439,0.020190
203.271,65.1500,0.020190
203.303,65.1563,0.020190
203.333,65.1624,0.020190
203.365,65.1687,0.020190
203.397,65.1752,0.020190
203.428,65.1813,0.020190
203.459,65.1876,0.019842
203.491,65.1940,0.019842
203.522,65.2001,0.019842
203.553,65.2066,0.019842
203.585,65.2126,0.019842
203.615,65.2186,0.019842
203.645,65.2248,0.019842
203.676,65.2311,0.019842
203.708,65.2373,0.019465
203.739,65.2435,0.019465
203.770,65.2497,0.019465
203.801,65.2559,0.019465
203.832,65.2621,0.019465
203.863,65.2683,0.019465
203.894,65.2745,0.019465
203.925,65.2809,0.019465
203.956,65.2869,0.019003
203.988,65.2934,0.019003
204.019,65.2996,0.019003
204.050,65.3058,0.019003
204.081,65.3120,0.019003
204.112,65.3181,0.019003
204.143,65.3244,0.019003
204.174,65.3307,0.019003
204.205,65.3369,0.018457
204.236,65.3431,0.018457
204.269,65.3496,0.018457
204.298,65.3555,0.018457
204.329,65.3615,0.018457
204.360,65.3678,0.018457
204.391,65.3740,0.018457
204.421,65.3801,0.018457
204.453,65.3865,0.017769
204.484,65.3926,0.017769
204.515,65.3988,0.017769
204.547,65.4051,0.017769
204.578,65.4116,0.017769
204.608,65.4174,0.017769
204.640,65.4239,0.017769
204.671,65.4299,0.017072
204.702,65.4360,0.017072
204.732,65.4422,0.017072
204.764,65.4487,0.017072
204.794,65.4547,0.017072
204.826,65.4608,0.017072
204.857,65.4670,0.017072
204.887,65.4732,0.017072
204.918,65.4794,0.017072
204.950,65.4857,0.017072
204.982,65.4921,0.016290
205.012,65.4983,0.016290
205.042,65.5043,0.016290
205.074,65.5104,0.016290
205.105,65.5166,0.016290
205.136,65.5228,0.016290
205.167,65.5290,0.016290
205.198,65.5355,0.016290
205.229,65.5414,0.015357
205.260,65.5478,0.015357
205.292,65.5541,0.015357
205.322,65.5603,0.015357
205.354,65.5665,0.015357
205.384,65.5726,0.015357
205.415,65.5786,0.015357
205.445,65.5848,0.015357
205.477,65.5910,0.014217
205.508,65.5974,0.014217
205.539,65.6034,0.014217
205.571,65.6099,0.014217
205.601,65.6160,0.014217
205.632,65.6222,0.014217
205.663,65.6284,0.014217
205.694,65.6346,0.014217
205.726,65.6409,0.012898
205.757,65.6471,0.012898
205.787,65.6530,0.012898
205.819,65.6596,0.012898
205.850,65.6656,0.012898
205.881,65.6720,0.012898
205.912,65.6781,0.012898
205.943,65.6844,0.012898
205.976,65.6910,0.011391
206.006,65.6971,0.011391
206.037,65.7032,0.011391
206.068,65.7095,0.011391
206.100,65.7157,0.011391
206.132,65.7223,0.011391
206.164,65.7287,0.011391
206.195,65.7348,0.011391
206.225,65.7409,0.009506
206.255,65.7468,0.009506
206.287,65.7533,0.009506
206.317,65.7591,0.009506
206.348,65.7655,0.009506
206.379,65.7716,0.009506
206.411,65.7778,0.009506
206.441,65.7840,0.007349
206.473,65.7905,0.007349
206.503,65.7963,0.007349
206.534,65.8025,0.007349
206.566,65.8089,0.007349
206.597,65.8151,0.007349
206.629,65.8216,0.007349
206.659,65.8275,0.007349
206.691,65.8339,0.007349
206.721,65.8400,0.004730
206.752,65.8462,0.004730
206.784,65.8525,0.004730
206.816,65.8589,0.004730
206.847,65.8651,0.004730
206.878,65.8713,0.004730
206.909,65.8775,0.004730
206.940,65.8837,0.001696
206.971,65.8899,0.001696
207.002,65.8963,0.001696
207.032,65.9021,0.001696
207.063,65.9083,0.001696
207.094,65.9146,0.001696
207.126,65.9208,0.001696
207.156,65.9269,0.001696
207.187,65.9333,0.001696
207.218,65.9395,-0.001884
207.249,65.9456,-0.001884
207.281,65.9519,-0.001884
207.312,65.9581,-0.001884
207.344,65.9646,-0.001884
207.375,65.9707,-0.001884
207.406,65.9770,-0.001884
207.437,65.9832,-0.006209
207.468,65.9893,-0.006209
207.499,65.9955,-0.006209
207.530,66.0018,-0.006209
207.560,66.0078,-0.006209
207.591,66.0140,-0.006209
207.622,66.0200,-0.006209
207.652,66.0264,-0.006209
207.683,66.0323,-0.011155
207.715,66.0388,-0.011155
207.745,66.0447,-0.011155
207.776,66.0510,-0.011155
207.807,66.0572,-0.011155
207.838,66.0634,-0.011155
207.869,66.0694,-0.011155
207.900,66.0757,-0.011155
207.932,66.0820,-0.011155
207.962,66.0881,-0.017100
207.994,66.0946,-0.017100
208.025,66.1006,-0.017100
208.056,66.1068,-0.017100
208.086,66.1129,-0.017100
208.118,66.1193,-0.017100
208.148,66.1253,-0.017100
208.180,66.1317,-0.017100
208.210,66.1377,-0.023959
208.242,66.1441,-0.023959
208.273,66.1503,-0.023959
208.304,66.1566,-0.023959
208.334,66.1625,-0.023959
208.365,66.1687,-0.023959
208.396,66.1752,-0.023959
208.427,66.1811,-0.023959
208.458,66.1873,-0.031967
208.490,66.1937,-0.031967
208.521,66.2000,-0.031967
208.553,66.2064,-0.031967
208.584,66.2126,-0.031967
208.615,66.2188,-0.031967
208.647,66.2252,-0.031967
208.677,66.2312,-0.031967
208.708,66.2373,-0.041399
208.739,66.2435,-0.041399
208.769,66.2495,-0.041399
208.801,66.2558,-0.041399
208.832,66.2620,-0.041399
208.864,66.2685,-0.041399
208.895,66.2747,-0.041399
208.927,66.2811,-0.041399
208.958,66.2873,-0.052158
208.988,66.2934,-0.052158
209.019,66.2997,-0.052158
209.050,66.3057,-0.052158
209.080,66.3117,-0.052158
209.112,66.3181,-0.052158
209.142,66.3241,-0.052158
209.173,66.3305,-0.064726
209.205,66.3367,-0.064726
209.235,66.3429,-0.064726
209.267,66.3491,-0.064726
209.297,66.3553,-0.064726
209.331,66.3618,-0.064726
209.360,66.3678,-0.064726
209.391,66.3737,-0.064726
209.422,66.3802,-0.064726
209.453,66.3865,-0.078944
209.485,66.3930,-0.078944
209.515,66.3987,-0.078944
209.546,66.4050,-0.078944
209.577,66.4111,-0.078944
209.609,66.4175,-0.078944
209.642,66.4241,-0.078944
209.672,66.4302,-0.078944
209.705,66.4368,-0.095234
209.735,66.4426,-0.095234
209.766,66.4488,-0.095234
209.797,66.4554,-0.095234
209.831,66.4618,-0.095234
209.861,66.4680,-0.095234
209.892,66.4741,-0.095234
209.923,66.4805,-0.113879
209.954,66.4866,-0.113879
209.986,66.4931,-0.113879
210.016,66.4990,-0.113879
210.047,66.5052,-0.113879
210.078,66.5113,-0.113879
210.109,66.5176,-0.113879
210.140,66.5237,-0.113879
210.171,66.5301,-0.113879
210.202,66.5361,-0.134927
210.233,66.5424,-0.134927
210.264,66.5484,-0.134927
210.295,66.5546,-0.134927
210.326,66.5610,-0.134927
210.358,66.5672,-0.134927
210.389,66.5734,-0.134927
210.419,66.5796,-0.158763
210.450,66.5857,-0.158763
210.481,66.5919,-0.158763
210.511,66.5980,-0.158763
210.542,66.6042,-0.158763
210.573,66.6103,-0.158763
210.604,66.6165,-0.158763
210.635,66.6227,-0.158763
210.666,66.6290,-0.158763
210.697,66.6352,-0.185389
210.728,66.6414,-0.185389
210.760,66.6477,-0.185389
210.791,66.6538,-0.185389
210.822,66.6600,-0.185389
210.853,66.6662,-0.185389
210.884,66.6726,-0.185389
210.915,66.6787,-0.185389
210.947,66.6852,-0.185389
210.978,66.6912,-0.215152
211.010,66.6977,-0.215152
211.040,66.7036,-0.215152
211.071,66.7099,-0.215152
211.102,66.7161,-0.215152
211.132,66.7221,-0.215152
211.164,66.7285,-0.215152
211.194,66.7345,-0.215152
211.224,66.7406,-0.248052
211.254,66.7464,-0.248052
211.285,66.7526,-0.248052
211.316,66.7590,-0.248052
211.348,66.7653,-0.248052
211.379,66.7716,-0.248052
211.410,66.7779,-0.248052
211.442,66.7841,-0.284344
211.473,66.7903,-0.284344
211.505,66.7968,-0.284344
211.536,66.8027,-0.284344
211.567,66.8092,-0.284344
211.598,66.8153,-0.284344
211.629,66.8216,-0.284344
211.660,66.8277,-0.284344
211.692,66.8342,-0.284344
211.724,66.8403,-0.324376
211.754,66.8466,-0.324376
211.785,66.8527,-0.324376
211.817,66.8591,-0.324376
211.848,66.8653,-0.324376
211.879,66.8716,-0.324376
211.909,66.8775,-0.324376
211.941,66.8840,-0.368177
211.972,66.8901,-0.368177
212.002,66.8961,-0.368177
212.034,66.9026,-0.368177
212.065,66.9087,-0.368177
212.097,66.9151,-0.368177
212.128,66.9208,-0.368177
212.160,66.9258,-0.368177
212.190,66.9300,-0.368177
212.221,66.9335,-0.415747
212.252,66.9363,-0.415747
212.283,66.9383,-0.415747
212.314,66.9397,-0.415747
212.345,66.9403,-0.415747
212.376,66.9403,-0.415747
212.407,66.9403,-0.415747
212.439,66.9403,-0.415747
212.469,66.9403,-0.453999
212.500,66.9403,-0.453999
212.532,66.9403,-0.453999
212.563,66.9403,-0.453999
212.594,66.9403,-0.453999
212.625,66.9403,-0.453999
212.656,66.9403,-0.453999
212.686,66.9403,-0.453999
212.717,66.9403,-0.464230
212.749,66.9403,-0.464230
212.779,66.9403,-0.464230
212.811,66.9403,-0.464230
212.844,66.9403,-0.464230
212.873,66.9403,-0.464230
