Elapsed Time (s),Position (mm),Force (N)
-0.021,72.9903,-0.127682
0.011,72.9903,-0.127682
0.041,72.9903,-0.127682
0.072,72.9903,-0.127682
0.103,72.9903,-0.126494
0.134,72.9903,-0.126494
0.164,72.9903,-0.126494
0.196,72.9903,-0.126494
0.227,72.9903,-0.126494
0.259,72.9903,-0.126494
0.289,72.9903,-0.126494
0.321,72.9903,-0.126494
0.353,72.9903,-0.123065
0.384,72.9903,-0.123065
0.415,72.9903,-0.123065
0.447,72.9903,-0.123065
0.478,72.9903,-0.123065
0.509,72.9903,-0.123065
0.540,72.9903,-0.123065
0.571,72.9903,-0.123065
0.603,72.9903,-0.120483
0.634,72.9903,-0.120483
0.665,72.9903,-0.120483
0.697,72.9903,-0.120483
0.727,72.9903,-0.120483
0.757,72.9903,-0.120483
0.789,72.9903,-0.120483
0.820,72.9903,-0.120483
0.851,72.9903,-0.118373
0.883,72.9903,-0.118373
0.914,72.9903,-0.118373
0.944,72.9903,-0.118373
0.976,72.9903,-0.118373
1.007,72.9903,-0.118373
1.039,72.9903,-0.118373
1.071,72.9903,-0.118373
1.102,72.9903,-0.116602
1.133,72.9903,-0.116602
1.163,72.9903,-0.116602
1.196,72.9903,-0.116602
1.226,72.9903,-0.116602
1.256,72.9903,-0.116602
1.288,72.9903,-0.116602
1.319,72.9903,-0.116602
1.351,72.9903,-0.115009
1.381,72.9903,-0.115009
1.413,72.9903,-0.115009
1.445,72.9903,-0.115009
1.477,72.9903,-0.115009
1.509,72.9903,-0.115009
1.539,72.9903,-0.115009
1.570,72.9903,-0.115009
1.601,72.9903,-0.113596
1.633,72.9903,-0.113596
1.664,72.9903,-0.113596
1.694,72.9903,-0.113596
1.725,72.9903,-0.113596
1.756,72.9903,-0.113596
1.787,72.9903,-0.113596
1.818,72.9903,-0.113596
1.849,72.9903,-0.112381
1.880,72.9903,-0.112381
1.912,72.9903,-0.112381
1.943,72.9903,-0.112381
1.973,72.9903,-0.112381
2.004,72.9903,-0.112381
2.035,72.9903,-0.112381
2.068,72.9903,-0.112381
2.097,72.9903,-0.111260
2.130,72.9903,-0.111260
2.160,72.9903,-0.111260
2.190,72.9903,-0.111260
2.221,72.9903,-0.111260
2.252,72.9903,-0.111260
2.283,72.9903,-0.111260
2.313,72.9903,-0.111260
2.346,72.9903,-0.110195
2.376,72.9903,-0.110195
2.407,72.9903,-0.110195
2.439,72.9903,-0.110195
2.470,72.9903,-0.110195
2.500,72.9903,-0.110195
2.531,72.9903,-0.110195
2.562,72.9903,-0.110195
2.593,72.9903,-0.109243
2.624,72.9903,-0.109243
2.655,72.9903,-0.109243
2.686,72.9903,-0.109243
2.717,72.9903,-0.109243
2.748,72.9903,-0.109243
2.779,72.9903,-0.109243
2.810,72.9903,-0.109243
2.841,72.9903,-0.108433
2.872,72.9903,-0.108433
2.903,72.9903,-0.108433
2.934,72.9903,-0.108433
2.965,72.9903,-0.108433
2.996,72.9903,-0.108433
3.027,72.9903,-0.108433
3.058,72.9903,-0.108433
3.090,72.9903,-0.107670
3.121,72.9903,-0.107670
3.153,72.9903,-0.107670
3.184,72.9903,-0.107670
3.215,72.9903,-0.107670
3.246,72.9903,-0.107670
3.278,72.9903,-0.107670
3.309,72.9903,-0.106897
3.340,72.9903,-0.106897
3.372,72.9903,-0.106897
3.402,72.9903,-0.106897
3.432,72.9903,-0.106897
3.464,72.9903,-0.106897
3.494,72.9903,-0.106897
3.526,72.9903,-0.106897
3.558,72.9903,-0.105757
3.589,72.9903,-0.105757
3.620,72.9903,-0.105757
3.651,72.9903,-0.105757
3.682,72.9903,-0.105757
3.713,72.9903,-0.105757
3.745,72.9903,-0.105757
3.776,72.9903,-0.105757
3.808,72.9903,-0.105757
3.840,72.9903,-0.105757
3.870,72.9903,-0.102808
3.901,72.9903,-0.102808
3.932,72.9903,-0.102808
3.963,72.9903,-0.102808
3.994,72.9903,-0.102808
4.024,72.9903,-0.102808
4.055,72.9903,-0.102808
4.087,72.9903,-0.102808
4.117,72.9903,-0.098974
4.148,72.9897,-0.098974
4.179,72.9883,-0.098974
4.210,72.9863,-0.098974
4.241,72.9835,-0.098974
4.272,72.9800,-0.098974
4.303,72.9756,-0.098974
4.335,72.9706,-0.096534
4.366,72.9648,-0.096534
4.398,72.9585,-0.096534
4.429,72.9523,-0.096534
4.460,72.9461,-0.096534
4.491,72.9397,-0.096534
4.522,72.9336,-0.096534
4.554,72.9271,-0.096534
4.585,72.9211,-0.086490
4.615,72.9149,-0.086490
4.647,72.9087,-0.086490
4.679,72.9023,-0.086490
4.710,72.8961,-0.086490
4.741,72.8898,-0.086490
4.771,72.8837,-0.086490
4.803,72.8774,-0.086490
4.834,72.8713,-0.065537
4.865,72.8649,-0.065537
4.896,72.8589,-0.065537
4.927,72.8527,-0.065537
4.958,72.8464,-0.065537
4.990,72.8401,-0.065537
5.021,72.8338,-0.065537
5.052,72.8276,-0.043679
5.083,72.8216,-0.043679
5.115,72.8152,-0.043679
5.146,72.8088,-0.043679
5.176,72.8027,-0.043679
5.207,72.7967,-0.043679
5.239,72.7903,-0.043679
5.272,72.7838,-0.043679
5.301,72.7777,-0.043679
5.331,72.7717,-0.024487
5.363,72.7654,-0.024487
5.395,72.7591,-0.024487
5.425,72.7529,-0.024487
5.456,72.7468,-0.024487
5.487,72.7406,-0.024487
5.517,72.7347,-0.024487
5.549,72.7282,-0.024487
5.581,72.7218,-0.007622
5.613,72.7154,-0.007622
5.643,72.7092,-0.007622
5.675,72.7030,-0.007622
5.707,72.6967,-0.007622
5.738,72.6905,-0.007622
5.770,72.6839,-0.007622
5.800,72.6779,0.007283
5.831,72.6718,0.007283
5.863,72.6655,0.007283
5.893,72.6594,0.007283
5.925,72.6531,0.007283
5.957,72.6466,0.007283
5.987,72.6405,0.007283
6.017,72.6346,0.007283
6.049,72.6282,0.007283
6.080,72.6220,0.020539
6.111,72.6157,0.020539
6.143,72.6094,0.020539
6.173,72.6034,0.020539
6.205,72.5971,0.020539
6.237,72.5907,0.020539
6.268,72.5846,0.020539
6.300,72.5780,0.020539
6.331,72.5719,0.032373
6.362,72.5656,0.032373
6.394,72.5593,0.032373
6.426,72.5528,0.032373
6.456,72.5469,0.032373
6.487,72.5407,0.032373
6.518,72.5345,0.032373
6.549,72.5282,0.043273
6.579,72.5221,0.043273
6.611,72.5159,0.043273
6.642,72.5096,0.043273
6.673,72.5034,0.043273
6.704,72.4972,0.043273
6.735,72.4911,0.043273
6.766,72.4849,0.043273
6.797,72.4787,0.043273
6.828,72.4724,0.053477
6.858,72.4664,0.053477
6.890,72.4599,0.053477
6.921,72.4539,0.053477
6.952,72.4477,0.053477
6.983,72.4413,0.053477
7.014,72.4351,0.053477
7.045,72.4289,0.053477
7.077,72.4227,0.063473
7.108,72.4165,0.063473
7.139,72.4102,0.063473
7.169,72.4043,0.063473
7.200,72.3979,0.063473
7.231,72.3919,0.063473
7.262,72.3857,0.063473
7.292,72.3796,0.063473
7.323,72.3735,0.063473
7.354,72.3673,0.073375
7.386,72.3609,0.073375
7.418,72.3543,0.073375
7.448,72.3483,0.073375
7.482,72.3416,0.073375
7.511,72.3359,0.073375
7.542,72.3296,0.073375
7.572,72.3235,0.083720
7.604,72.3173,0.083720
7.634,72.3112,0.083720
7.665,72.3050,0.083720
7.698,72.2985,0.083720
7.728,72.2925,0.083720
7.759,72.2862,0.083720
7.790,72.2801,0.083720
7.821,72.2738,0.094772
7.852,72.2677,0.094772
7.883,72.2613,0.094772
7.914,72.2552,0.094772
7.946,72.2487,0.094772
7.977,72.2427,0.094772
8.008,72.2363,0.094772
8.040,72.2301,0.094772
8.070,72.2241,0.106794
8.101,72.2179,0.106794
8.131,72.2119,0.106794
8.162,72.2055,0.106794
8.193,72.1994,0.106794
8.224,72.1933,0.106794
8.255,72.1871,0.106794
8.286,72.1809,0.106794
8.316,72.1748,0.120135
8.347,72.1686,0.120135
8.378,72.1625,0.120135
8.409,72.1563,0.120135
8.441,72.1499,0.120135
8.471,72.1438,0.120135
8.504,72.1374,0.120135
8.533,72.1314,0.120135
8.565,72.1250,0.134672
8.596,72.1188,0.134672
8.627,72.1126,0.134672
8.657,72.1065,0.134672
8.689,72.1003,0.134672
8.720,72.0940,0.134672
8.752,72.0876,0.134672
8.782,72.0814,0.134672
8.813,72.0755,0.134672
8.844,72.0692,0.150925
8.875,72.0631,0.150925
8.906,72.0567,0.150925
8.937,72.0505,0.150925
8.968,72.0443,0.150925
8.999,72.0381,0.150925
9.031,72.0318,0.150925
9.062,72.0255,0.150925
9.092,72.0195,0.168675
9.124,72.0132,0.168675
9.155,72.0071,0.168675
9.186,72.0007,0.168675
9.217,71.9947,0.168675
9.248,71.9884,0.168675
9.280,71.9821,0.168675
9.311,71.9756,0.168675
9.342,71.9697,0.168675
9.372,71.9636,0.188065
9.404,71.9573,0.188065
9.434,71.9512,0.188065
9.465,71.9450,0.188065
9.497,71.9386,0.188065
9.528,71.9325,0.188065
9.559,71.9263,0.188065
9.591,71.9198,0.209112
9.621,71.9139,0.209112
9.653,71.9075,0.209112
9.683,71.9013,0.209112
9.714,71.8951,0.209112
9.746,71.8888,0.209112
9.778,71.8824,0.209112
9.807,71.8767,0.231150
9.838,71.8705,0.231150
9.869,71.8643,0.231150
9.900,71.8581,0.231150
9.931,71.8517,0.231150
9.962,71.8457,0.231150
9.992,71.8397,0.231150
10.023,71.8334,0.231150
10.054,71.8272,0.254298
10.086,71.8207,0.254298
10.117,71.8145,0.254298
10.148,71.8082,0.254298
10.180,71.8021,0.254298
10.211,71.7959,0.254298
10.241,71.7899,0.254298
10.273,71.7835,0.254298
10.304,71.7772,0.254298
10.335,71.7710,0.277975
10.367,71.7647,0.277975
10.398,71.7585,0.277975
10.430,71.7520,0.277975
10.460,71.7461,0.277975
10.490,71.7401,0.277975
10.521,71.7337,0.277975
10.552,71.7276,0.277975
10.584,71.7211,0.301519
10.616,71.7149,0.301519
10.647,71.7086,0.301519
10.679,71.7022,0.301519
10.709,71.6961,0.301519
10.740,71.6900,0.301519
10.771,71.6837,0.301519
10.803,71.6775,0.301519
10.833,71.6715,0.324763
10.865,71.6650,0.324763
10.896,71.6589,0.324763
10.927,71.6524,0.324763
10.958,71.6465,0.324763
10.989,71.6402,0.324763
11.020,71.6340,0.324763
11.051,71.6279,0.324763
11.082,71.6217,0.346988
11.113,71.6153,0.346988
11.145,71.6090,0.346988
11.176,71.6027,0.346988
11.207,71.5967,0.346988
11.238,71.5905,0.346988
11.269,71.5843,0.346988
11.301,71.5779,0.346988
11.332,71.5718,0.367207
11.363,71.5655,0.367207
11.394,71.5592,0.367207
11.426,71.5530,0.367207
11.456,71.5466,0.367207
11.487,71.5408,0.367207
11.518,71.5345,0.367207
11.549,71.5284,0.367207
11.579,71.5222,0.384609
11.610,71.5160,0.384609
11.642,71.5097,0.384609
11.673,71.5034,0.384609
11.704,71.4972,0.384609
11.735,71.4910,0.384609
11.766,71.4848,0.384609
11.798,71.4784,0.384609
11.829,71.4722,0.384609
11.860,71.4659,0.398223
11.892,71.4597,0.398223
11.923,71.4535,0.398223
11.954,71.4472,0.398223
11.984,71.4413,0.398223
12.014,71.4353,0.398223
12.044,71.4292,0.398223
12.076,71.4230,0.406759
12.105,71.4170,0.406759
12.136,71.4107,0.406759
12.168,71.4045,0.406759
12.198,71.3984,0.406759
12.228,71.3925,0.406759
12.259,71.3862,0.406759
12.291,71.3798,0.406759
12.323,71.3733,0.406759
12.354,71.3672,0.407258
12.386,71.3609,0.407258
12.418,71.3547,0.407258
12.449,71.3482,0.407258
12.479,71.3422,0.407258
12.510,71.3360,0.407258
12.541,71.3300,0.407258
12.572,71.3235,0.393832
12.604,71.3172,0.393832
12.634,71.3111,0.393832
12.665,71.3052,0.393832
12.696,71.2988,0.393832
12.727,71.2926,0.393832
12.758,71.2864,0.393832
12.789,71.2802,0.393832
12.820,71.2742,0.393832
12.851,71.2680,0.244962
12.882,71.2616,0.244962
12.913,71.2556,0.244962
12.944,71.2494,0.244962
12.975,71.2432,0.244962
13.006,71.2370,0.244962
13.038,71.2305,0.244962
13.068,71.2243,0.064189
13.098,71.2184,0.064189
13.130,71.2121,0.064189
13.162,71.2057,0.064189
13.193,71.1995,0.064189
13.224,71.1933,0.064189
13.255,71.1871,0.064189
13.285,71.1810,0.064189
13.316,71.1748,0.021321
13.347,71.1686,0.021321
13.378,71.1624,0.021321
13.409,71.1562,0.021321
13.440,71.1500,0.021321
13.471,71.1438,0.021321
13.502,71.1377,0.021321
13.534,71.1314,0.021321
13.565,71.1251,0.021321
13.596,71.1188,0.021453
13.627,71.1127,0.021453
13.659,71.1064,0.021453
13.690,71.0999,0.021453
13.720,71.0942,0.021453
13.752,71.0878,0.021453
13.782,71.0816,0.021453
13.814,71.0752,0.021453
13.845,71.0690,0.021453
13.876,71.0631,0.021453
13.907,71.0567,0.021453
13.938,71.0505,0.021453
13.969,71.0443,0.021453
14.000,71.0381,0.021453
14.032,71.0318,0.021453
14.062,71.0257,0.021453
14.093,71.0195,0.021434
14.124,71.0133,0.021434
14.155,71.0071,0.021434
14.185,71.0011,0.021434
14.217,70.9947,0.021434
14.248,70.9884,0.021434
14.279,70.9823,0.021434
14.310,70.9759,0.021406
14.343,70.9694,0.021406
14.373,70.9635,0.021406
14.405,70.9570,0.021406
14.435,70.9512,0.021406
14.466,70.9448,0.021406
14.497,70.9386,0.021406
14.528,70.9325,0.021406
14.559,70.9264,0.021406
14.590,70.9200,0.021387
14.621,70.9139,0.021387
14.652,70.9075,0.021387
14.682,70.9016,0.021387
14.714,70.8951,0.021387
14.746,70.8889,0.021387
14.777,70.8825,0.021387
14.809,70.8763,0.021387
14.841,70.8698,0.021331
14.871,70.8638,0.021331
14.903,70.8577,0.021331
14.934,70.8514,0.021331
14.965,70.8452,0.021331
14.997,70.8387,0.021331
15.027,70.8326,0.021331
15.058,70.8266,0.021302
15.089,70.8202,0.021302
15.120,70.8139,0.021302
15.152,70.8078,0.021302
15.183,70.8015,0.021302
15.215,70.7952,0.021302
15.246,70.7890,0.021302
15.276,70.7829,0.021302
15.307,70.7766,0.021302
15.339,70.7704,0.021255
15.370,70.7642,0.021255
15.400,70.7581,0.021255
15.431,70.7519,0.021255
15.462,70.7457,0.021255
15.493,70.7395,0.021255
15.526,70.7329,0.021255
15.556,70.7268,0.021227
15.587,70.7206,0.021227
15.619,70.7142,0.021227
15.649,70.7082,0.021227
15.680,70.7019,0.021227
15.713,70.6956,0.021227
15.742,70.6895,0.021227
15.774,70.6832,0.021227
15.804,70.6772,0.021265
15.835,70.6712,0.021265
15.866,70.6650,0.021265
15.898,70.6584,0.021265
15.929,70.6524,0.021265
15.960,70.6460,0.021265
15.991,70.6400,0.021265
16.022,70.6337,0.021265
16.054,70.6274,0.021274
16.085,70.6212,0.021274
16.116,70.6147,0.021274
16.146,70.6088,0.021274
16.177,70.6027,0.021274
16.208,70.5965,0.021274
16.239,70.5903,0.021274
16.270,70.5841,0.021274
16.302,70.5775,0.021274
16.333,70.5714,0.021236
16.365,70.5651,0.021236
16.396,70.5590,0.021236
16.427,70.5527,0.021236
16.457,70.5466,0.021236
16.488,70.5406,0.021236
16.519,70.5344,0.021236
16.550,70.5282,0.021236
16.581,70.5221,0.021236
16.612,70.5156,0.021236
16.643,70.5096,0.021236
16.675,70.5031,0.021236
16.706,70.4968,0.021236
16.736,70.4908,0.021236
16.768,70.4846,0.021236
16.799,70.4783,0.021236
16.830,70.4722,0.021246
16.860,70.4659,0.021246
16.891,70.4598,0.021246
16.923,70.4535,0.021246
16.953,70.4475,0.021246
16.985,70.4411,0.021246
17.015,70.4350,0.021246
17.046,70.4287,0.021246
17.078,70.4226,0.021255
17.108,70.4163,0.021255
17.139,70.4103,0.021255
17.171,70.4039,0.021255
17.202,70.3978,0.021255
17.233,70.3914,0.021255
17.265,70.3853,0.021255
17.295,70.3788,0.021255
17.326,70.3730,0.021283
17.357,70.3667,0.021283
17.388,70.3606,0.021283
17.418,70.3545,0.021283
17.449,70.3482,0.021283
17.480,70.3420,0.021283
17.511,70.3359,0.021283
17.542,70.3295,0.021283
17.574,70.3233,0.021227
17.604,70.3173,0.021227
17.636,70.3109,0.021227
17.667,70.3047,0.021227
17.699,70.2985,0.021227
17.729,70.2923,0.021227
17.761,70.2861,0.021227
17.793,70.2795,0.021227
17.824,70.2733,0.021265
17.855,70.2671,0.021265
17.886,70.2609,0.021265
17.916,70.2549,0.021265
17.947,70.2487,0.021265
17.978,70.2423,0.021265
18.010,70.2362,0.021265
18.041,70.2300,0.021265
18.072,70.2238,0.021321
18.103,70.2176,0.021321
18.134,70.2112,0.021321
18.166,70.2050,0.021321
18.196,70.1989,0.021321
18.227,70.1927,0.021321
18.258,70.1865,0.021321
18.289,70.1803,0.021321
18.320,70.1742,0.021293
18.350,70.1681,0.021293
18.382,70.1619,0.021293
18.413,70.1556,0.021293
18.444,70.1493,0.021293
18.476,70.1431,0.021293
18.507,70.1366,0.021293
18.539,70.1302,0.021293
18.570,70.1241,0.021274
18.601,70.1179,0.021274
18.632,70.1116,0.021274
18.663,70.1056,0.021274
18.694,70.0993,0.021274
18.727,70.0927,0.021274
18.756,70.0870,0.021274
18.787,70.0808,0.021274
18.817,70.0749,0.021274
18.847,70.0687,0.021283
18.879,70.0625,0.021283
18.909,70.0563,0.021283
18.941,70.0499,0.021283
18.972,70.0436,0.021283
19.004,70.0373,0.021283
19.036,70.0310,0.021283
19.067,70.0247,0.021283
19.099,70.0183,0.021321
19.129,70.0123,0.021321
19.160,70.0063,0.021321
19.191,69.9998,0.021321
19.222,69.9937,0.021321
19.253,69.9874,0.021321
19.283,69.9815,0.021321
19.314,69.9754,0.021321
19.345,69.9692,0.021387
19.375,69.9632,0.021387
19.406,69.9577,0.021387
19.438,69.9531,0.021387
19.468,69.9492,0.021387
19.499,69.9459,0.021387
19.530,69.9434,0.021387
19.562,69.9417,0.021274
19.594,69.9405,0.021274
19.625,69.9403,0.021274
19.657,69.9403,0.021274
19.688,69.9403,0.021274
19.719,69.9403,0.021274
19.749,69.9403,0.021274
19.781,69.9403,0.021274
19.811,69.9403,0.021095
19.841,69.9403,0.021095
19.873,69.9403,0.021095
19.904,69.9403,0.021095
19.935,69.9403,0.021095
19.967,69.9403,0.021095
19.998,69.9403,0.021095
20.029,69.9403,0.021095
20.061,69.9403,0.021095
20.092,69.9403,0.021038
20.124,69.9403,0.021038
20.155,69.9404,0.021038
20.185,69.9412,0.021038
20.217,69.9428,0.021038
20.246,69.9448,0.021038
20.277,69.9476,0.021038
20.309,69.9513,0.020954
20.340,69.9558,0.020954
20.371,69.9609,0.020954
20.402,69.9666,0.020954
20.434,69.9732,0.020954
20.466,69.9795,0.020954
20.496,69.9856,0.020954
20.527,69.9915,0.020954
20.558,69.9980,0.020954
20.589,70.0042,0.020831
20.621,70.0106,0.020831
20.652,70.0167,0.020831
20.683,70.0231,0.020831
20.714,70.0292,0.020831
20.745,70.0354,0.020831
20.776,70.0415,0.020831
20.807,70.0476,0.020831
20.837,70.0536,0.020737
20.868,70.0600,0.020737
20.900,70.0663,0.020737
20.932,70.0726,0.020737
20.963,70.0788,0.020737
20.994,70.0851,0.020737
21.025,70.0913,0.020737
21.057,70.0977,0.020633
21.088,70.1039,0.020633
21.119,70.1102,0.020633
21.150,70.1163,0.020633
21.180,70.1225,0.020633
21.212,70.1287,0.020633
21.243,70.1351,0.020633
21.275,70.1412,0.020633
21.306,70.1474,0.020633
21.336,70.1535,0.020520
21.367,70.1597,0.020520
21.397,70.1656,0.020520
21.428,70.1718,0.020520
21.459,70.1780,0.020520
21.490,70.1844,0.020520
21.521,70.1906,0.020520
21.552,70.1966,0.020454
21.583,70.2030,0.020454
21.614,70.2089,0.020454
21.645,70.2154,0.020454
21.676,70.2216,0.020454
21.707,70.2278,0.020454
21.738,70.2339,0.020454
21.769,70.2402,0.020454
21.800,70.2463,0.020454
21.832,70.2528,0.020388
21.864,70.2593,0.020388
21.896,70.2656,0.020388
21.927,70.2717,0.020388
21.959,70.2780,0.020388
21.989,70.2842,0.020388
22.020,70.2902,0.020388
22.051,70.2965,0.020388
22.082,70.3027,0.020313
22.114,70.3090,0.020313
22.145,70.3153,0.020313
22.175,70.3213,0.020313
22.206,70.3274,0.020313
22.237,70.3336,0.020313
22.269,70.3400,0.020313
22.300,70.3463,0.020294
22.332,70.3527,0.020294
22.363,70.3589,0.020294
22.394,70.3651,0.020294
22.425,70.3713,0.020294
22.456,70.3775,0.020294
22.488,70.3838,0.020294
22.518,70.3899,0.020294
22.549,70.3960,0.020294
22.580,70.4024,0.020285
22.611,70.4085,0.020285
22.642,70.4147,0.020285
22.673,70.4210,0.020285
22.705,70.4272,0.020285
22.736,70.4334,0.020285
22.766,70.4395,0.020285
22.797,70.4458,0.020285
22.828,70.4519,0.020219
22.859,70.4581,0.020219
22.889,70.4642,0.020219
22.921,70.4704,0.020219
22.951,70.4767,0.020219
22.982,70.4826,0.020219
23.014,70.4891,0.020219
23.044,70.4950,0.020219
23.075,70.5014,0.020219
23.105,70.5073,0.020134
23.137,70.5138,0.020134
23.169,70.5200,0.020134
23.200,70.5263,0.020134
23.231,70.5324,0.020134
23.263,70.5390,0.020134
23.293,70.5449,0.020134
23.324,70.5510,0.020134
23.355,70.5572,0.020125
23.386,70.5634,0.020125
23.417,70.5698,0.020125
23.449,70.5760,0.020125
23.480,70.5821,0.020125
23.511,70.5884,0.020125
23.542,70.5946,0.020125
23.574,70.6011,0.020153
23.606,70.6074,0.020153
23.636,70.6134,0.020153
23.668,70.6197,0.020153
23.698,70.6259,0.020153
23.729,70.6321,0.020153
23.760,70.6383,0.020153
23.791,70.6444,0.020153
23.823,70.6508,0.020153
23.855,70.6571,0.020077
23.886,70.6635,0.020077
23.917,70.6695,0.020077
23.948,70.6759,0.020077
23.979,70.6819,0.020077
24.009,70.6882,0.020077
24.041,70.6944,0.020077
24.071,70.7006,0.020077
24.102,70.7066,0.019964
24.133,70.7130,0.019964
24.163,70.7189,0.019964
24.194,70.7251,0.019964
24.225,70.7313,0.019964
24.257,70.7376,0.019964
24.289,70.7440,0.019964
24.320,70.7503,0.019964
24.351,70.7566,0.019927
24.382,70.7627,0.019927
24.414,70.7693,0.019927
24.444,70.7751,0.019927
24.475,70.7813,0.019927
24.507,70.7876,0.019927
24.538,70.7939,0.019927
24.569,70.8000,0.019917
24.600,70.8062,0.019917
24.632,70.8127,0.019917
24.664,70.8190,0.019917
24.694,70.8252,0.019917
24.725,70.8313,0.019917
24.757,70.8375,0.019917
24.788,70.8438,0.019917
24.820,70.8502,0.019823
24.850,70.8565,0.019823
24.882,70.8627,0.019823
24.913,70.8690,0.019823
24.944,70.8752,0.019823
24.975,70.8815,0.019823
25.007,70.8876,0.019823
25.038,70.8939,0.019823
25.070,70.9002,0.019823
25.100,70.9064,0.019757
25.130,70.9124,0.019757
25.162,70.9188,0.019757
25.194,70.9250,0.019757
25.224,70.9310,0.019757
25.255,70.9372,0.019757
25.286,70.9434,0.019757
25.318,70.9500,0.019767
25.349,70.9559,0.019767
25.379,70.9621,0.019767
25.411,70.9686,0.019767
25.441,70.9745,0.019767
25.472,70.9806,0.019767
25.503,70.9870,0.019767
25.536,70.9936,0.019767
25.566,70.9994,0.019767
25.597,71.0057,0.019691
25.628,71.0120,0.019691
25.660,71.0183,0.019691
25.692,71.0246,0.019691
25.723,71.0308,0.019691
25.754,71.0370,0.019691
25.784,71.0431,0.019691
25.815,71.0492,0.019691
25.846,71.0555,0.019569
25.877,71.0617,0.019569
25.910,71.0682,0.019569
25.940,71.0744,0.019569
25.971,71.0804,0.019569
26.002,71.0868,0.019569
26.033,71.0930,0.019569
26.064,71.0993,0.019474
26.095,71.1052,0.019474
26.126,71.1114,0.019474
26.157,71.1175,0.019474
26.188,71.1238,0.019474
26.219,71.1300,0.019474
26.250,71.1361,0.019474
26.281,71.1426,0.019474
26.312,71.1485,0.019408
26.343,71.1549,0.019408
26.375,71.1611,0.019408
26.405,71.1673,0.019408
26.436,71.1733,0.019408
26.467,71.1797,0.019408
26.497,71.1859,0.019408
26.529,71.1921,0.019408
26.560,71.1983,0.019333
26.591,71.2045,0.019333
26.622,71.2105,0.019333
26.653,71.2170,0.019333
26.684,71.2229,0.019333
26.715,71.2294,0.019333
26.746,71.2353,0.019333
26.777,71.2418,0.019333
26.808,71.2479,0.019333
26.839,71.2542,0.019239
26.870,71.2604,0.019239
26.901,71.2666,0.019239
26.932,71.2727,0.019239
26.963,71.2790,0.019239
26.994,71.2851,0.019239
27.026,71.2915,0.019239
27.058,71.2977,0.019192
27.090,71.3043,0.019192
27.121,71.3104,0.019192
27.153,71.3168,0.019192
27.186,71.3233,0.019192
27.215,71.3295,0.019192
27.246,71.3354,0.019192
27.278,71.3419,0.019192
27.308,71.3478,0.019192
27.339,71.3540,0.019088
27.371,71.3604,0.019088
27.401,71.3664,0.019088
27.432,71.3725,0.019088
27.463,71.3788,0.019088
27.494,71.3850,0.019088
27.525,71.3914,0.019088
27.555,71.3973,0.019088
27.587,71.4038,0.019088
27.618,71.4098,0.018966
27.650,71.4163,0.018966
27.681,71.4226,0.018966
27.712,71.4287,0.018966
27.743,71.4346,0.018966
27.775,71.4412,0.018966
27.806,71.4475,0.018966
27.836,71.4534,0.018881
27.866,71.4593,0.018881
27.897,71.4657,0.018881
27.929,71.4721,0.018881
27.960,71.4781,0.018881
27.990,71.4844,0.018881
28.021,71.4905,0.018881
28.052,71.4965,0.018881
28.083,71.5027,0.018881
28.114,71.5089,0.018806
28.144,71.5150,0.018806
28.176,71.5213,0.018806
28.207,71.5275,0.018806
28.239,71.5340,0.018806
28.269,71.5399,0.018806
28.300,71.5461,0.018806
28.331,71.5523,0.018627
28.362,71.5585,0.018627
28.392,71.5649,0.018627
28.424,71.5709,0.018627
28.455,71.5773,0.018627
28.486,71.5835,0.018627
28.518,71.5898,0.018627
28.549,71.5961,0.018627
28.579,71.6021,0.018429
28.610,71.6082,0.018429
28.641,71.6144,0.018429
28.672,71.6206,0.018429
28.702,71.6266,0.018429
28.733,71.6330,0.018429
28.765,71.6392,0.018429
28.796,71.6454,0.018429
28.827,71.6516,0.018429
28.858,71.6579,0.018250
28.889,71.6640,0.018250
28.920,71.6703,0.018250
28.952,71.6767,0.018250
28.984,71.6832,0.018250
29.015,71.6893,0.018250
29.046,71.6953,0.018250
29.076,71.7014,0.017995
29.108,71.7076,0.017995
29.139,71.7142,0.017995
29.170,71.7204,0.017995
29.202,71.7266,0.017995
29.232,71.7327,0.017995
29.263,71.7389,0.017995
29.294,71.7451,0.017995
29.325,71.7512,0.017995
29.356,71.7574,0.017760
29.387,71.7636,0.017760
29.418,71.7699,0.017760
29.449,71.7761,0.017760
29.480,71.7823,0.017760
29.512,71.7885,0.017760
29.543,71.7948,0.017760
29.573,71.8009,0.017562
29.604,71.8070,0.017562
29.636,71.8133,0.017562
29.666,71.8194,0.017562
29.697,71.8256,0.017562
29.730,71.8321,0.017562
29.760,71.8382,0.017562
29.791,71.8444,0.017562
29.823,71.8507,0.017562
29.854,71.8572,0.017279
29.885,71.8633,0.017279
29.917,71.8697,0.017279
29.947,71.8756,0.017279
29.979,71.8820,0.017279
30.008,71.8877,0.017279
30.039,71.8942,0.017279
30.070,71.9004,0.016836
30.101,71.9066,0.016836
30.132,71.9126,0.016836
30.163,71.9188,0.016836
30.194,71.9252,0.016836
30.226,71.9314,0.016836
30.258,71.9377,0.016836
30.289,71.9439,0.016836
30.319,71.9501,0.016346
30.351,71.9565,0.016346
30.381,71.9625,0.016346
30.413,71.9688,0.016346
30.444,71.9750,0.016346
30.476,71.9815,0.016346
30.507,71.9875,0.016346
30.538,71.9940,0.016346
30.569,71.9999,0.016346
30.601,72.0064,0.015772
30.631,72.0125,0.015772
30.662,72.0187,0.015772
30.694,72.0249,0.015772
30.724,72.0310,0.015772
30.755,72.0372,0.015772
30.787,72.0435,0.015772
30.817,72.0498,0.015084
30.848,72.0559,0.015084
30.879,72.0621,0.015084
30.910,72.0683,0.015084
30.941,72.0744,0.015084
30.971,72.0804,0.015084
31.002,72.0866,0.015084
31.034,72.0931,0.015084
31.064,72.0989,0.015084
31.095,72.1051,0.014217
31.126,72.1116,0.014217
31.158,72.1178,0.014217
31.189,72.1241,0.014217
31.220,72.1303,0.014217
31.252,72.1366,0.014217
31.283,72.1428,0.014217
31.314,72.1490,0.013049
31.345,72.1551,0.013049
31.375,72.1612,0.013049
31.406,72.1674,0.013049
31.437,72.1737,0.013049
31.468,72.1798,0.013049
31.499,72.1861,0.013049
31.530,72.1922,0.013049
31.562,72.1985,0.013049
31.592,72.2046,0.011655
31.624,72.2112,0.011655
31.655,72.2171,0.011655
31.685,72.2234,0.011655
31.717,72.2296,0.011655
31.749,72.2361,0.011655
31.780,72.2422,0.011655
31.813,72.2490,0.009930
31.841,72.2544,0.009930
31.873,72.2608,0.009930
31.904,72.2671,0.009930
31.936,72.2733,0.009930
31.966,72.2794,0.009930
31.997,72.2856,0.009930
32.028,72.2918,0.009930
32.059,72.2980,0.009930
32.090,72.3042,0.007745
32.121,72.3104,0.007745
32.152,72.3166,0.007745
32.184,72.3230,0.007745
32.216,72.3292,0.007745
32.247,72.3357,0.007745
32.279,72.3419,0.007745
32.310,72.3481,0.007745
32.341,72.3544,0.005069
32.372,72.3607,0.005069
32.403,72.3669,0.005069
32.434,72.3731,0.005069
32.467,72.3796,0.005069
32.497,72.3857,0.005069
32.528,72.3919,0.005069
32.560,72.3981,0.001790
32.592,72.4045,0.001790
32.622,72.4106,0.001790
32.652,72.4165,0.001790
32.683,72.4230,0.001790
32.714,72.4289,0.001790
32.745,72.4351,0.001790
32.776,72.4415,0.001790
32.807,72.4475,-0.002195
32.838,72.4540,-0.002195
32.868,72.4598,-0.002195
32.899,72.4662,-0.002195
32.930,72.4722,-0.002195
32.962,72.4786,-0.002195
32.992,72.4845,-0.002195
33.025,72.4911,-0.002195
33.054,72.4970,-0.007094
33.086,72.5035,-0.007094
33.117,72.5096,-0.007094
33.149,72.5161,-0.007094
33.179,72.5221,-0.007094
33.211,72.5284,-0.007094
33.243,72.5346,-0.007094
33.273,72.5408,-0.007094
33.304,72.5471,-0.007094
33.334,72.5531,-0.012898
33.365,72.5592,-0.012898
33.396,72.5652,-0.012898
33.428,72.5718,-0.012898
33.458,72.5778,-0.012898
33.488,72.5838,-0.012898
33.519,72.5900,-0.012898
33.550,72.5961,-0.012898
33.580,72.6023,-0.019908
33.611,72.6083,-0.019908
33.642,72.6145,-0.019908
33.673,72.6208,-0.019908
33.704,72.6270,-0.019908
33.735,72.6333,-0.019908
33.767,72.6395,-0.019908
33.798,72.6457,-0.019908
33.830,72.6521,-0.028274
33.860,72.6583,-0.028274
33.891,72.6643,-0.028274
33.923,72.6708,-0.028274
33.954,72.6770,-0.028274
33.986,72.6833,-0.028274
34.016,72.6894,-0.028274
34.048,72.6957,-0.028274
34.079,72.7019,-0.037969
34.109,72.7080,-0.037969
34.140,72.7142,-0.037969
34.172,72.7206,-0.037969
34.204,72.7270,-0.037969
34.236,72.7333,-0.037969
34.266,72.7392,-0.037969
34.297,72.7456,-0.037969
34.328,72.7518,-0.049426
34.359,72.7581,-0.049426
34.390,72.7643,-0.049426
34.421,72.7703,-0.049426
34.451,72.7763,-0.049426
34.482,72.7827,-0.049426
34.513,72.7887,-0.049426
34.545,72.7952,-0.062625
34.575,72.8013,-0.062625
34.607,72.8076,-0.062625
34.638,72.8138,-0.062625
34.669,72.8200,-0.062625
34.700,72.8261,-0.062625
34.730,72.8324,-0.062625
34.762,72.8385,-0.062625
34.793,72.8449,-0.062625
34.826,72.8514,-0.077907
34.855,72.8572,-0.077907
34.885,72.8630,-0.077907
34.916,72.8694,-0.077907
34.947,72.8758,-0.077907
34.978,72.8818,-0.077907
35.009,72.8880,-0.077907
35.041,72.8943,-0.077907
35.072,72.9005,-0.077907
35.102,72.9064,-0.095507
35.133,72.9128,-0.095507
35.164,72.9187,-0.095507
35.196,72.9240,-0.095507
35.227,72.9285,-0.095507
35.258,72.9324,-0.095507
35.289,72.9353,-0.095507
35.321,72.9377,-0.095507
35.352,72.9393,-0.114887
35.384,72.9402,-0.114887
35.414,72.9403,-0.114887
35.446,72.9403,-0.114887
35.476,72.9403,-0.114887
35.508,72.9403,-0.114887
35.539,72.9403,-0.114887
35.569,72.9403,-0.127418
35.601,72.9403,-0.127418
35.632,72.9403,-0.127418
35.664,72.9403,-0.127418
35.695,72.9403,-0.127418
35.725,72.9403,-0.127418
35.757,72.9403,-0.127418
35.788,72.9403,-0.127418
35.819,72.9403,-0.127823
35.849,72.9403,-0.127823
35.880,72.9403,-0.127823
35.911,72.9403,-0.127823
35.942,72.9403,-0.127823
35.974,72.9403,-0.127823
36.005,72.9403,-0.127823
36.036,72.9403,-0.127823
36.067,72.9403,-0.124271
36.098,72.9403,-0.124271
36.128,72.9403,-0.124271
36.160,72.9403,-0.124271
36.191,72.9403,-0.124271
36.222,72.9403,-0.124271
36.253,72.9403,-0.124271
36.285,72.9403,-0.124271
36.314,72.9403,-0.121642
36.345,72.9403,-0.121642
36.377,72.9403,-0.121642
36.408,72.9403,-0.121642
36.439,72.9403,-0.121642
36.470,72.9403,-0.121642
36.502,72.9403,-0.121642
36.532,72.9403,-0.121642
36.564,72.9403,-0.119541
36.595,72.9403,-0.119541
36.627,72.9403,-0.119541
36.658,72.9403,-0.119541
36.690,72.9403,-0.119541
36.720,72.9403,-0.119541
36.753,72.9403,-0.119541
36.784,72.9403,-0.119541
36.816,72.9403,-0.117676
36.847,72.9403,-0.117676
36.879,72.9403,-0.117676
36.910,72.9403,-0.117676
36.941,72.9403,-0.117676
36.972,72.9403,-0.117676
37.004,72.9403,-0.117676
37.035,72.9403,-0.117676
37.066,72.9403,-0.116027
37.097,72.9403,-0.116027
37.128,72.9403,-0.116027
37.160,72.9403,-0.116027
37.193,72.9403,-0.116027
37.222,72.9403,-0.116027
37.252,72.9403,-0.116027
37.283,72.9403,-0.116027
37.315,72.9403,-0.114614
37.344,72.9403,-0.114614
37.376,72.9403,-0.114614
37.406,72.9403,-0.114614
37.438,72.9403,-0.114614
37.470,72.9403,-0.114614
37.500,72.9403,-0.114614
37.531,72.9403,-0.114614
37.561,72.9403,-0.113351
37.591,72.9403,-0.113351
37.623,72.9403,-0.113351
37.654,72.9403,-0.113351
37.685,72.9403,-0.113351
37.717,72.9403,-0.113351
37.748,72.9403,-0.113351
37.779,72.9403,-0.113351
37.810,72.9403,-0.113351
37.841,72.9403,-0.112192
37.873,72.9403,-0.112192
37.903,72.9403,-0.112192
37.935,72.9403,-0.112192
37.966,72.9403,-0.112192
37.997,72.9403,-0.112192
38.027,72.9403,-0.112192
38.058,72.9403,-0.112192
38.089,72.9403,-0.111156
38.121,72.9403,-0.111156
38.152,72.9403,-0.111156
38.183,72.9403,-0.111156
38.214,72.9403,-0.111156
38.245,72.9403,-0.111156
38.276,72.9403,-0.111156
38.306,72.9403,-0.111156
38.338,72.9403,-0.110195
38.369,72.9403,-0.110195
38.400,72.9403,-0.110195
38.432,72.9403,-0.110195
38.463,72.9403,-0.110195
38.495,72.9403,-0.110195
38.526,72.9403,-0.110195
38.558,72.9403,-0.110195
38.589,72.9403,-0.109338
38.620,72.9403,-0.109338
38.651,72.9403,-0.109338
38.682,72.9403,-0.109338
38.714,72.9403,-0.109338
38.745,72.9403,-0.109338
38.777,72.9403,-0.109338
38.808,72.9403,-0.109338
38.839,72.9403,-0.108546
38.870,72.9403,-0.108546
38.901,72.9403,-0.108546
38.932,72.9403,-0.108546
38.962,72.9403,-0.108546
38.992,72.9403,-0.108546
39.023,72.9403,-0.108546
39.054,72.9403,-0.108546
39.085,72.9403,-0.107811
39.116,72.9403,-0.107811
39.148,72.9403,-0.107811
39.178,72.9403,-0.107811
39.211,72.9403,-0.107811
39.241,72.9403,-0.107811
39.272,72.9403,-0.107811
39.303,72.9403,-0.106945
39.334,72.9403,-0.106945
39.365,72.9403,-0.106945
39.397,72.9403,-0.106945
39.429,72.9403,-0.106945
39.460,72.9403,-0.106945
39.490,72.9403,-0.106945
39.521,72.9403,-0.106945
39.552,72.9403,-0.106945
39.584,72.9403,-0.104938
39.614,72.9403,-0.104938
39.645,72.9403,-0.104938
39.677,72.9403,-0.104938
39.707,72.9403,-0.104938
39.739,72.9403,-0.104938
39.770,72.9403,-0.104938
39.802,72.9403,-0.101216
39.833,72.9403,-0.101216
39.864,72.9403,-0.101216
39.895,72.9403,-0.101216
39.926,72.9403,-0.101216
39.957,72.9403,-0.101216
39.989,72.9403,-0.101216
40.021,72.9403,-0.101216
40.052,72.9397,-0.098277
40.083,72.9384,-0.098277
40.114,72.9364,-0.098277
40.145,72.9336,-0.098277
40.175,72.9301,-0.098277
40.208,72.9259,-0.098277
40.239,72.9208,-0.098277
40.270,72.9151,-0.098277
40.301,72.9088,-0.098277
40.333,72.9026,-0.098277
40.363,72.8964,-0.094866
40.394,72.8903,-0.094866
40.426,72.8839,-0.094866
40.457,72.8777,-0.094866
40.489,72.8712,-0.094866
40.519,72.8654,-0.094866
40.551,72.8591,-0.094866
40.582,72.8527,-0.080404
40.613,72.8467,-0.080404
40.645,72.8403,-0.080404
40.676,72.8340,-0.080404
40.707,72.8277,-0.080404
40.738,72.8216,-0.080404
40.769,72.8153,-0.080404
40.799,72.8093,-0.080404
40.831,72.8031,-0.080404
40.862,72.7969,-0.057462
40.893,72.7906,-0.057462
40.924,72.7844,-0.057462
40.955,72.7782,-0.057462
40.986,72.7720,-0.057462
41.017,72.7657,-0.057462
41.047,72.7596,-0.057462
41.078,72.7535,-0.057462
41.109,72.7474,-0.036622
41.140,72.7412,-0.036622
41.171,72.7350,-0.036622
41.202,72.7287,-0.036622
41.233,72.7225,-0.036622
41.265,72.7163,-0.036622
41.296,72.7100,-0.036622
41.327,72.7038,-0.018287
41.359,72.6975,-0.018287
41.389,72.6913,-0.018287
41.420,72.6853,-0.018287
41.451,72.6790,-0.018287
41.482,72.6729,-0.018287
41.513,72.6664,-0.018287
41.544,72.6605,-0.018287
41.574,72.6542,-0.002092
41.605,72.6481,-0.002092
41.636,72.6419,-0.002092
41.668,72.6357,-0.002092
41.698,72.6296,-0.002092
41.731,72.6230,-0.002092
41.761,72.6170,-0.002092
41.792,72.6106,-0.002092
41.823,72.6046,0.012173
41.853,72.5985,0.012173
41.884,72.5924,0.012173
41.915,72.5861,0.012173
41.947,72.5799,0.012173
41.978,72.5736,0.012173
42.009,72.5674,0.012173
42.040,72.5612,0.012173
42.071,72.5548,0.024920
42.103,72.5487,0.024920
42.134,72.5424,0.024920
42.165,72.5362,0.024920
42.196,72.5301,0.024920
42.226,72.5239,0.024920
42.257,72.5176,0.024920
42.289,72.5114,0.024920
42.321,72.5050,0.024920
42.352,72.4989,0.036405
42.383,72.4927,0.036405
42.414,72.4864,0.036405
42.446,72.4800,0.036405
42.478,72.4736,0.036405
42.508,72.4675,0.036405
42.540,72.4613,0.036405
42.571,72.4551,0.036405
42.601,72.4490,0.047070
42.633,72.4427,0.047070
42.663,72.4365,0.047070
42.694,72.4303,0.047070
42.725,72.4242,0.047070
42.756,72.4180,0.047070
42.787,72.4117,0.047070
42.818,72.4055,0.047070
42.849,72.3993,0.057085
42.880,72.3931,0.057085
42.911,72.3870,0.057085
42.943,72.3807,0.057085
42.973,72.3745,0.057085
43.005,72.3682,0.057085
43.036,72.3620,0.057085
43.068,72.3558,0.057085
43.099,72.3493,0.066978
43.130,72.3432,0.066978
43.161,72.3370,0.066978
43.192,72.3308,0.066978
43.224,72.3245,0.066978
43.255,72.3183,0.066978
43.286,72.3120,0.066978
43.317,72.3059,0.066978
43.349,72.2996,0.076993
43.379,72.2933,0.076993
43.410,72.2871,0.076993
43.441,72.2811,0.076993
43.473,72.2745,0.076993
43.503,72.2686,0.076993
43.535,72.2623,0.076993
43.566,72.2561,0.087574
43.597,72.2496,0.087574
43.628,72.2435,0.087574
43.658,72.2376,0.087574
43.690,72.2311,0.087574
43.720,72.2252,0.087574
43.751,72.2190,0.087574
43.782,72.2129,0.087574
43.813,72.2066,0.087574
43.844,72.2004,0.099059
43.876,72.1940,0.099059
43.908,72.1877,0.099059
43.938,72.1816,0.099059
43.969,72.1756,0.099059
44.001,72.1691,0.099059
44.032,72.1628,0.099059
44.064,72.1565,0.099059
44.095,72.1501,0.111410
44.126,72.1441,0.111410
44.156,72.1377,0.111410
44.188,72.1315,0.111410
44.219,72.1253,0.111410
44.250,72.1191,0.111410
44.282,72.1127,0.111410
44.313,72.1065,0.125213
44.344,72.1004,0.125213
44.375,72.0942,0.125213
44.405,72.0881,0.125213
44.436,72.0820,0.125213
44.467,72.0758,0.125213
44.498,72.0696,0.125213
44.528,72.0636,0.125213
44.559,72.0575,0.125213
44.589,72.0514,0.140344
44.621,72.0451,0.140344
44.651,72.0390,0.140344
44.682,72.0328,0.140344
44.712,72.0267,0.140344
44.744,72.0204,0.140344
44.775,72.0140,0.140344
44.806,72.0080,0.157049
44.837,72.0017,0.157049
44.869,71.9955,0.157049
44.900,71.9893,0.157049
44.931,71.9831,0.157049
44.962,71.9769,0.157049
44.993,71.9706,0.157049
45.024,71.9644,0.157049
45.055,71.9582,0.157049
45.086,71.9519,0.157049
45.117,71.9459,0.175515
45.149,71.9394,0.175515
45.181,71.9328,0.175515
45.212,71.9268,0.175515
45.243,71.9207,0.175515
45.274,71.9145,0.175515
45.305,71.9080,0.175515
45.336,71.9020,0.175515
45.366,71.8960,0.195300
45.397,71.8898,0.195300
45.428,71.8836,0.195300
45.460,71.8772,0.195300
45.490,71.8711,0.195300
45.521,71.8649,0.195300
45.553,71.8587,0.195300
45.584,71.8522,0.195300
45.615,71.8462,0.216565
45.647,71.8398,0.216565
45.678,71.8335,0.216565
45.711,71.8271,0.216565
45.743,71.8207,0.216565
45.775,71.8142,0.216565
45.806,71.8080,0.216565
45.837,71.8018,0.216565
45.867,71.7958,0.238960
45.898,71.7896,0.238960
45.929,71.7834,0.238960
45.959,71.7773,0.238960
45.989,71.7715,0.238960
46.020,71.7650,0.238960
46.052,71.7588,0.238960
46.084,71.7524,0.262024
46.115,71.7463,0.262024
46.145,71.7401,0.262024
46.176,71.7339,0.262024
46.207,71.7278,0.262024
46.238,71.7215,0.262024
46.268,71.7156,0.262024
46.299,71.7092,0.262024
46.330,71.7032,0.262024
46.361,71.6968,0.285503
46.392,71.6908,0.285503
46.423,71.6844,0.285503
46.455,71.6782,0.285503
46.487,71.6718,0.285503
46.517,71.6658,0.285503
46.549,71.6594,0.285503
46.579,71.6534,0.308887
46.610,71.6472,0.308887
46.641,71.6410,0.308887
46.672,71.6347,0.308887
46.703,71.6284,0.308887
46.734,71.6223,0.308887
46.765,71.6162,0.308887
46.796,71.6100,0.308887
46.828,71.6038,0.331735
46.858,71.5976,0.331735
46.889,71.5915,0.331735
46.920,71.5852,0.331735
46.951,71.5791,0.331735
46.982,71.5727,0.331735
47.014,71.5665,0.331735
47.045,71.5602,0.331735
47.076,71.5541,0.353310
47.107,71.5479,0.353310
47.137,71.5419,0.353310
47.168,71.5356,0.353310
47.200,71.5293,0.353310
47.230,71.5232,0.353310
47.261,71.5171,0.353310
47.292,71.5107,0.353310
47.323,71.5047,0.372992
47.356,71.4981,0.372992
47.386,71.4921,0.372992
47.417,71.4859,0.372992
47.448,71.4795,0.372992
47.478,71.4736,0.372992
47.509,71.4674,0.372992
47.540,71.4612,0.372992
47.571,71.4549,0.389781
47.603,71.4485,0.389781
47.633,71.4426,0.389781
47.665,71.4361,0.389781
47.696,71.4301,0.389781
47.728,71.4236,0.389781
47.759,71.4175,0.389781
47.790,71.4112,0.389781
47.822,71.4049,0.402519
47.854,71.3983,0.402519
47.885,71.3922,0.402519
47.916,71.3860,0.402519
47.947,71.3798,0.402519
47.979,71.3735,0.402519
48.010,71.3672,0.402519
48.041,71.3610,0.402519
48.071,71.3550,0.410047
48.103,71.3487,0.410047
48.135,71.3424,0.410047
48.165,71.3362,0.410047
48.196,71.3300,0.410047
48.227,71.3239,0.410047
48.258,71.3176,0.410047
48.289,71.3114,0.410047
48.320,71.3050,0.408417
48.351,71.2988,0.408417
48.383,71.2924,0.408417
48.416,71.2862,0.408417
48.446,71.2800,0.408417
48.479,71.2734,0.408417
48.508,71.2675,0.408417
48.538,71.2615,0.408417
48.569,71.2554,0.388123
48.600,71.2492,0.388123
48.631,71.2432,0.388123
48.661,71.2370,0.388123
48.692,71.2309,0.388123
48.722,71.2248,0.388123
48.754,71.2186,0.388123
48.785,71.2121,0.388123
48.816,71.2061,0.209160
48.847,71.1999,0.209160
48.878,71.1938,0.209160
48.910,71.1873,0.209160
48.940,71.1813,0.209160
48.972,71.1747,0.209160
49.003,71.1687,0.209160
49.033,71.1627,0.209160
49.064,71.1563,0.035001
49.095,71.1504,0.035001
49.126,71.1441,0.035001
49.157,71.1379,0.035001
49.188,71.1315,0.035001
49.219,71.1253,0.035001
49.251,71.1190,0.035001
49.283,71.1126,0.035001
49.314,71.1065,0.022659
49.345,71.1000,0.022659
49.377,71.0940,0.022659
49.408,71.0876,0.022659
49.438,71.0817,0.022659
49.470,71.0752,0.022659
49.500,71.0693,0.022659
49.532,71.0628,0.022659
49.562,71.0567,0.021764
49.593,71.0504,0.021764
49.624,71.0445,0.021764
49.656,71.0380,0.021764
49.687,71.0319,0.021764
49.718,71.0256,0.021764
49.749,71.0194,0.021764
49.781,71.0130,0.021764
49.812,71.0068,0.021566
49.843,71.0007,0.021566
49.874,70.9946,0.021566
49.904,70.9884,0.021566
49.935,70.9822,0.021566
49.966,70.9760,0.021566
49.998,70.9698,0.021566
50.029,70.9635,0.021566
50.060,70.9574,0.021481
50.090,70.9513,0.021481
50.121,70.9450,0.021481
50.152,70.9388,0.021481
50.183,70.9326,0.021481
50.214,70.9263,0.021481
50.245,70.9203,0.021481
50.276,70.9140,0.021481
50.308,70.9078,0.021396
50.339,70.9015,0.021396
50.369,70.8953,0.021396
50.400,70.8893,0.021396
50.432,70.8829,0.021396
50.463,70.8768,0.021396
50.494,70.8703,0.021396
50.525,70.8643,0.021396
50.556,70.8578,0.021396
50.587,70.8519,0.021396
50.618,70.8455,0.021331
50.649,70.8393,0.021331
50.681,70.8330,0.021331
50.712,70.8268,0.021331
50.743,70.8206,0.021331
50.775,70.8142,0.021331
50.806,70.8081,0.021331
50.836,70.8020,0.021349
50.867,70.7957,0.021349
50.899,70.7894,0.021349
50.930,70.7832,0.021349
50.962,70.7768,0.021349
50.993,70.7706,0.021349
51.024,70.7644,0.021349
51.054,70.7583,0.021349
51.085,70.7523,0.021349
51.116,70.7459,0.021312
51.148,70.7396,0.021312
51.179,70.7333,0.021312
51.210,70.7272,0.021312
51.242,70.7208,0.021312
51.273,70.7147,0.021312
51.305,70.7081,0.021312
51.336,70.7019,0.021236
51.368,70.6957,0.021236
51.398,70.6896,0.021236
51.429,70.6833,0.021236
51.461,70.6771,0.021236
51.492,70.6709,0.021236
51.523,70.6646,0.021236
51.554,70.6585,0.021236
51.584,70.6524,0.021283
51.615,70.6464,0.021283
51.646,70.6400,0.021283
51.678,70.6337,0.021283
51.708,70.6276,0.021283
51.739,70.6212,0.021283
51.770,70.6152,0.021283
51.802,70.6089,0.021283
51.832,70.6027,0.021283
51.864,70.5965,0.021265
51.895,70.5903,0.021265
51.926,70.5840,0.021265
51.957,70.5779,0.021265
51.987,70.5717,0.021265
52.018,70.5657,0.021265
52.049,70.5594,0.021265
52.081,70.5531,0.021227
52.112,70.5466,0.021227
52.143,70.5404,0.021227
52.176,70.5342,0.021227
52.207,70.5279,0.021227
52.238,70.5217,0.021227
52.269,70.5155,0.021227
52.299,70.5093,0.021227
52.331,70.5031,0.021255
52.362,70.4969,0.021255
52.393,70.4907,0.021255
52.425,70.4843,0.021255
52.455,70.4783,0.021255
52.487,70.4720,0.021255
52.518,70.4657,0.021255
52.549,70.4595,0.021255
52.580,70.4532,0.021293
52.611,70.4470,0.021293
52.642,70.4410,0.021293
52.674,70.4344,0.021293
52.704,70.4284,0.021293
52.736,70.4221,0.021293
52.767,70.4159,0.021293
52.798,70.4096,0.021293
52.829,70.4035,0.021312
52.860,70.3973,0.021312
52.891,70.3912,0.021312
52.922,70.3848,0.021312
52.953,70.3787,0.021312
52.984,70.3723,0.021312
53.015,70.3663,0.021312
53.046,70.3600,0.021312
53.077,70.3538,0.021255
53.108,70.3475,0.021255
53.140,70.3414,0.021255
53.171,70.3349,0.021255
53.202,70.3289,0.021255
53.233,70.3225,0.021255
53.265,70.3163,0.021255
53.296,70.3100,0.021255
53.327,70.3039,0.021255
53.358,70.2975,0.021255
53.390,70.2913,0.021255
53.421,70.2850,0.021255
53.452,70.2790,0.021255
53.483,70.2727,0.021255
53.515,70.2663,0.021255
53.545,70.2601,0.021283
53.576,70.2541,0.021283
53.607,70.2479,0.021283
53.639,70.2413,0.021283
53.670,70.2353,0.021283
53.701,70.2290,0.021283
53.733,70.2227,0.021283
53.764,70.2165,0.021283
53.795,70.2102,0.021283
53.826,70.2040,0.021340
53.856,70.1979,0.021340
53.887,70.1918,0.021340
53.919,70.1856,0.021340
53.951,70.1790,0.021340
53.982,70.1730,0.021340
54.013,70.1668,0.021340
54.043,70.1608,0.021340
54.073,70.1547,0.021331
54.104,70.1484,0.021331
54.135,70.1423,0.021331
54.166,70.1361,0.021331
54.197,70.1299,0.021331
54.228,70.1237,0.021331
54.260,70.1171,0.021331
54.290,70.1113,0.021331
54.321,70.1050,0.021293
54.351,70.0990,0.021293
54.383,70.0927,0.021293
54.414,70.0864,0.021293
54.445,70.0803,0.021293
54.477,70.0740,0.021293
54.508,70.0677,0.021293
54.539,70.0616,0.021293
54.570,70.0553,0.021293
54.600,70.0493,0.021293
54.631,70.0430,0.021368
54.662,70.0368,0.021368
54.695,70.0303,0.021368
54.725,70.0241,0.021368
54.757,70.0179,0.021368
54.788,70.0115,0.021368
54.819,70.0055,0.021368
54.850,69.9991,0.021359
54.881,69.9930,0.021359
54.912,69.9867,0.021359
54.943,69.9807,0.021359
54.974,69.9744,0.021359
55.005,69.9682,0.021359
55.036,69.9620,0.021359
55.068,69.9557,0.021359
55.098,69.9497,0.021340
55.129,69.9434,0.021340
55.160,69.9373,0.021340
55.192,69.9309,0.021340
55.223,69.9248,0.021340
55.253,69.9186,0.021340
55.284,69.9126,0.021340
55.315,69.9073,0.021340
55.346,69.9027,0.021378
55.378,69.8987,0.021378
55.408,69.8956,0.021378
55.440,69.8932,0.021378
55.471,69.8915,0.021378
55.503,69.8906,0.021378
55.535,69.8903,0.021378
55.565,69.8903,0.021378
55.597,69.8903,0.021255
55.628,69.8907,0.021255
55.658,69.8918,0.021255
55.689,69.8937,0.021255
55.720,69.8963,0.021255
55.752,69.8996,0.021255
55.782,69.9035,0.021255
55.813,69.9083,0.021038
55.844,69.9139,0.021038
55.875,69.9197,0.021038
55.906,69.9262,0.021038
55.937,69.9321,0.021038
55.968,69.9386,0.021038
56.000,69.9448,0.021038
56.031,69.9511,0.021038
56.062,69.9573,0.020878
56.093,69.9636,0.020878
56.125,69.9697,0.020878
56.157,69.9763,0.020878
56.188,69.9825,0.020878
56.219,69.9888,0.020878
56.251,69.9950,0.020878
56.281,70.0011,0.020878
56.313,70.0074,0.020878
56.343,70.0135,0.020878
56.374,70.0197,0.020746
56.406,70.0261,0.020746
56.437,70.0322,0.020746
56.468,70.0384,0.020746
56.499,70.0445,0.020746
56.529,70.0507,0.020746
56.560,70.0569,0.020680
56.591,70.0631,0.020680
56.623,70.0694,0.020680
56.653,70.0754,0.020680
56.683,70.0814,0.020680
56.714,70.0876,0.020680
56.744,70.0937,0.020680
56.776,70.0999,0.020680
56.807,70.1064,0.020680
56.839,70.1124,0.020614
56.870,70.1189,0.020614
56.901,70.1250,0.020614
56.932,70.1313,0.020614
56.963,70.1375,0.020614
56.994,70.1438,0.020614
57.025,70.1498,0.020614
57.056,70.1561,0.020614
57.088,70.1623,0.020539
57.118,70.1686,0.020539
57.150,70.1747,0.020539
57.181,70.1810,0.020539
57.212,70.1871,0.020539
57.242,70.1933,0.020539
57.273,70.1992,0.020539
57.304,70.2057,0.020539
57.335,70.2118,0.020454
57.366,70.2182,0.020454
57.397,70.2243,0.020454
57.428,70.2305,0.020454
57.459,70.2366,0.020454
57.491,70.2432,0.020454
57.522,70.2491,0.020454
57.552,70.2554,0.020454
57.584,70.2616,0.020341
57.615,70.2681,0.020341
57.646,70.2739,0.020341
57.676,70.2800,0.020341
57.707,70.2862,0.020341
57.738,70.2924,0.020341
57.769,70.2987,0.020341
57.800,70.3048,0.020341
57.831,70.3110,0.020332
57.862,70.3173,0.020332
57.893,70.3234,0.020332
57.925,70.3298,0.020332
57.956,70.3360,0.020332
57.987,70.3422,0.020332
58.017,70.3482,0.020332
58.048,70.3544,0.020332
58.079,70.3606,0.020304
58.110,70.3668,0.020304
58.141,70.3730,0.020304
58.172,70.3791,0.020304
58.202,70.3853,0.020304
58.234,70.3916,0.020304
58.264,70.3977,0.020304
58.296,70.4040,0.020304
58.327,70.4102,0.020256
58.359,70.4165,0.020256
58.390,70.4227,0.020256
58.422,70.4291,0.020256
58.452,70.4351,0.020256
58.482,70.4412,0.020256
58.513,70.4473,0.020256
58.544,70.4536,0.020256
58.575,70.4598,0.020228
58.606,70.4660,0.020228
58.638,70.4723,0.020228
58.669,70.4784,0.020228
58.700,70.4848,0.020228
58.731,70.4911,0.020228
58.762,70.4972,0.020228
58.792,70.5035,0.020228
58.824,70.5094,0.020172
58.855,70.5159,0.020172
58.886,70.5221,0.020172
58.917,70.5283,0.020172
58.948,70.5345,0.020172
58.979,70.5407,0.020172
59.010,70.5469,0.020172
59.040,70.5528,0.020172
59.071,70.5592,0.020087
59.103,70.5655,0.020087
59.133,70.5714,0.020087
59.165,70.5776,0.020087
59.196,70.5840,0.020087
59.227,70.5902,0.020087
59.259,70.5966,0.020087
59.291,70.6029,0.020087
59.323,70.6094,0.020087
59.355,70.6157,0.020021
59.386,70.6220,0.020021
59.416,70.6281,0.020021
59.447,70.6342,0.020021
59.478,70.6404,0.020021
59.509,70.6466,0.020021
59.540,70.6528,0.020021
59.571,70.6591,0.020021
59.602,70.6652,0.020040
59.634,70.6718,0.020040
59.665,70.6777,0.020040
59.696,70.6841,0.020040
59.726,70.6900,0.020040
59.757,70.6963,0.020040
59.788,70.7023,0.020040
59.818,70.7086,0.020040
59.850,70.7148,0.019983
59.882,70.7213,0.019983
59.912,70.7272,0.019983
59.944,70.7335,0.019983
59.974,70.7396,0.019983
60.006,70.7459,0.019983
60.037,70.7523,0.019983
60.068,70.7583,0.019917
60.099,70.7645,0.019917
60.130,70.7707,0.019917
60.161,70.7770,0.019917
60.192,70.7832,0.019917
60.223,70.7894,0.019917
60.254,70.7957,0.019917
60.286,70.8020,0.019917
60.317,70.8082,0.019917
60.349,70.8145,0.019861
60.379,70.8206,0.019861
60.410,70.8268,0.019861
60.441,70.8330,0.019861
60.472,70.8391,0.019861
60.502,70.8452,0.019861
60.534,70.8515,0.019861
60.565,70.8579,0.019861
60.596,70.8640,0.019795
60.627,70.8702,0.019795
60.658,70.8764,0.019795
60.689,70.8825,0.019795
60.719,70.8886,0.019795
60.751,70.8950,0.019795
60.782,70.9011,0.019795
60.814,70.9075,0.019795
60.844,70.9136,0.019701
60.876,70.9201,0.019701
60.908,70.9263,0.019701
60.939,70.9327,0.019701
60.970,70.9389,0.019701
61.002,70.9453,0.019701
61.033,70.9513,0.019701
61.064,70.9577,0.019701
61.095,70.9637,0.019606
61.126,70.9701,0.019606
61.157,70.9761,0.019606
61.188,70.9823,0.019606
61.218,70.9884,0.019606
61.249,70.9947,0.019606
61.281,71.0009,0.019606
61.311,71.0070,0.019606
61.343,71.0135,0.019540
61.374,71.0195,0.019540
61.405,71.0257,0.019540
61.436,71.0319,0.019540
61.466,71.0380,0.019540
61.497,71.0442,0.019540
61.527,71.0504,0.019540
61.559,71.0566,0.019493
61.590,71.0628,0.019493
61.622,71.0692,0.019493
61.652,71.0752,0.019493
61.684,71.0816,0.019493
61.715,71.0879,0.019493
61.747,71.0942,0.019493
61.777,71.1003,0.019493
61.808,71.1065,0.019418
61.840,71.1127,0.019418
61.871,71.1190,0.019418
61.902,71.1251,0.019418
61.933,71.1315,0.019418
61.964,71.1376,0.019418
61.994,71.1436,0.019418
62.025,71.1499,0.019418
62.056,71.1561,0.019418
62.087,71.1622,0.019352
62.118,71.1685,0.019352
62.150,71.1748,0.019352
62.182,71.1813,0.019352
62.212,71.1871,0.019352
62.246,71.1939,0.019352
62.275,71.1997,0.019352
62.307,71.2062,0.019352
62.337,71.2124,0.019286
62.368,71.2186,0.019286
62.399,71.2247,0.019286
62.430,71.2308,0.019286
62.460,71.2370,0.019286
62.491,71.2430,0.019286
62.522,71.2492,0.019286
62.553,71.2553,0.019286
62.584,71.2615,0.019192
62.615,71.2677,0.019192
62.645,71.2739,0.019192
62.677,71.2801,0.019192
62.708,71.2864,0.019192
62.741,71.2930,0.019192
62.771,71.2990,0.019192
62.802,71.3052,0.019192
62.833,71.3115,0.019069
62.863,71.3174,0.019069
62.894,71.3235,0.019069
62.925,71.3298,0.019069
62.956,71.3360,0.019069
62.987,71.3422,0.019069
63.018,71.3483,0.019069
63.051,71.3550,0.019069
63.081,71.3609,0.019069
63.113,71.3673,0.018975
63.144,71.3736,0.018975
63.175,71.3797,0.018975
63.206,71.3860,0.018975
63.237,71.3921,0.018975
63.268,71.3984,0.018975
63.299,71.4045,0.018975
63.330,71.4110,0.018909
63.363,71.4173,0.018909
63.393,71.4232,0.018909
63.424,71.4296,0.018909
63.455,71.4358,0.018909
63.485,71.4418,0.018909
63.516,71.4482,0.018909
63.547,71.4541,0.018909
63.578,71.4604,0.018909
63.610,71.4668,0.018768
63.641,71.4731,0.018768
63.673,71.4794,0.018768
63.704,71.4856,0.018768
63.735,71.4918,0.018768
63.766,71.4981,0.018768
63.797,71.5041,0.018768
63.829,71.5105,0.018768
63.861,71.5169,0.018645
63.892,71.5233,0.018645
63.923,71.5294,0.018645
63.956,71.5361,0.018645
63.986,71.5418,0.018645
64.017,71.5481,0.018645
64.049,71.5546,0.018645
64.078,71.5604,0.018485
64.110,71.5669,0.018485
64.141,71.5729,0.018485
64.171,71.5790,0.018485
64.202,71.5852,0.018485
64.234,71.5915,0.018485
64.265,71.5977,0.018485
64.296,71.6039,0.018485
64.327,71.6103,0.018485
64.358,71.6166,0.018316
64.388,71.6223,0.018316
64.421,71.6290,0.018316
64.450,71.6349,0.018316
64.481,71.6409,0.018316
64.512,71.6471,0.018316
64.543,71.6533,0.018316
64.573,71.6594,0.018089
64.604,71.6655,0.018089
64.634,71.6718,0.018089
64.666,71.6779,0.018089
64.696,71.6839,0.018089
64.727,71.6904,0.018089
64.757,71.6963,0.018089
64.788,71.7023,0.018089
64.819,71.7086,0.018089
64.850,71.7148,0.017797
64.881,71.7210,0.017797
64.913,71.7273,0.017797
64.943,71.7334,0.017797
64.974,71.7396,0.017797
65.006,71.7459,0.017797
65.038,71.7524,0.017797
65.069,71.7585,0.017505
65.099,71.7645,0.017505
65.130,71.7709,0.017505
65.161,71.7770,0.017505
65.192,71.7833,0.017505
65.223,71.7894,0.017505
65.254,71.7957,0.017505
65.285,71.8018,0.017505
65.317,71.8082,0.017505
65.348,71.8144,0.017138
65.380,71.8209,0.017138
65.410,71.8268,0.017138
65.442,71.8333,0.017138
65.473,71.8393,0.017138
65.505,71.8457,0.017138
65.536,71.8519,0.017138
65.567,71.8582,0.017138
65.598,71.8643,0.016742
65.629,71.8707,0.016742
65.661,71.8769,0.016742
65.693,71.8834,0.016742
65.724,71.8894,0.016742
65.755,71.8959,0.016742
65.789,71.9025,0.016742
65.817,71.9083,0.016290
65.848,71.9144,0.016290
65.880,71.9207,0.016290
65.910,71.9268,0.016290
65.941,71.9331,0.016290
65.973,71.9393,0.016290
66.003,71.9454,0.016290
66.034,71.9517,0.016290
66.065,71.9577,0.015640
66.097,71.9642,0.015640
66.127,71.9702,0.015640
66.158,71.9765,0.015640
66.190,71.9826,0.015640
66.221,71.9890,0.015640
66.252,71.9950,0.015640
66.283,72.0016,0.015640
66.314,72.0075,0.014839
66.347,72.0142,0.014839
66.377,72.0202,0.014839
66.409,72.0265,0.014839
66.439,72.0326,0.014839
66.471,72.0389,0.014839
66.503,72.0453,0.014839
66.534,72.0515,0.014839
66.565,72.0577,0.014839
66.596,72.0641,0.013906
66.627,72.0703,0.013906
66.658,72.0762,0.013906
66.688,72.0825,0.013906
66.720,72.0887,0.013906
66.751,72.0951,0.013906
66.782,72.1011,0.013906
66.813,72.1076,0.012766
66.845,72.1137,0.012766
66.876,72.1200,0.012766
66.908,72.1263,0.012766
66.939,72.1327,0.012766
66.971,72.1389,0.012766
67.001,72.1451,0.012766
67.031,72.1510,0.012766
67.063,72.1573,0.011344
67.094,72.1635,0.011344
67.125,72.1696,0.011344
67.156,72.1761,0.011344
67.187,72.1821,0.011344
67.218,72.1883,0.011344
67.249,72.1944,0.011344
67.280,72.2007,0.011344
67.311,72.2069,0.009563
67.343,72.2134,0.009563
67.373,72.2193,0.009563
67.405,72.2258,0.009563
67.436,72.2319,0.009563
67.467,72.2382,0.009563
67.498,72.2443,0.009563
67.529,72.2507,0.009563
67.561,72.2569,0.007396
67.592,72.2632,0.007396
67.623,72.2693,0.007396
67.656,72.2760,0.007396
67.686,72.2819,0.007396
67.716,72.2879,0.007396
67.747,72.2944,0.007396
67.778,72.3005,0.007396
67.809,72.3065,0.004626
67.840,72.3129,0.004626
67.871,72.3189,0.004626
67.902,72.3253,0.004626
67.933,72.3313,0.004626
67.964,72.3375,0.004626
67.995,72.3439,0.004626
68.026,72.3499,0.004626
68.056,72.3559,0.001187
68.086,72.3621,0.001187
68.116,72.3680,0.001187
68.148,72.3744,0.001187
68.178,72.3805,0.001187
68.209,72.3865,0.001187
68.240,72.3927,0.001187
68.270,72.3988,0.001187
68.301,72.4050,0.001187
68.331,72.4110,-0.003015
68.363,72.4174,-0.003015
68.393,72.4232,-0.003015
68.424,72.4297,-0.003015
68.455,72.4358,-0.003015
68.487,72.4422,-0.003015
68.518,72.4483,-0.003015
68.549,72.4545,-0.003015
68.581,72.4608,-0.008121
68.612,72.4671,-0.008121
68.643,72.4733,-0.008121
68.673,72.4793,-0.008121
68.704,72.4854,-0.008121
68.735,72.4917,-0.008121
68.766,72.4979,-0.008121
68.797,72.5042,-0.008121
68.828,72.5104,-0.014161
68.859,72.5165,-0.014161
68.889,72.5226,-0.014161
68.920,72.5287,-0.014161
68.952,72.5351,-0.014161
68.984,72.5414,-0.014161
69.015,72.5478,-0.014161
69.046,72.5541,-0.014161
69.078,72.5604,-0.021444
69.109,72.5666,-0.021444
69.140,72.5727,-0.021444
69.170,72.5789,-0.021444
69.201,72.5850,-0.021444
69.232,72.5912,-0.021444
69.264,72.5975,-0.021444
69.295,72.6037,-0.021444
69.325,72.6098,-0.030017
69.357,72.6162,-0.030017
69.387,72.6223,-0.030017
69.419,72.6285,-0.030017
69.450,72.6349,-0.030017
69.482,72.6410,-0.030017
69.512,72.6473,-0.030017
69.544,72.6535,-0.030017
69.575,72.6598,-0.040098
69.606,72.6658,-0.040098
69.638,72.6724,-0.040098
69.667,72.6782,-0.040098
69.699,72.6847,-0.040098
69.730,72.6908,-0.040098
69.762,72.6972,-0.040098
69.794,72.7035,-0.040098
69.823,72.7095,-0.051856
69.854,72.7157,-0.051856
69.886,72.7219,-0.051856
69.917,72.7280,-0.051856
69.947,72.7342,-0.051856
69.978,72.7405,-0.051856
70.009,72.7464,-0.051856
70.039,72.7525,-0.051856
70.071,72.7590,-0.065395
70.102,72.7652,-0.065395
70.133,72.7714,-0.065395
70.164,72.7774,-0.065395
70.196,72.7839,-0.065395
70.226,72.7900,-0.065395
70.258,72.7963,-0.065395
70.289,72.8025,-0.065395
70.320,72.8087,-0.065395
70.351,72.8149,-0.081111
70.382,72.8212,-0.081111
70.413,72.8273,-0.081111
70.444,72.8335,-0.081111
70.476,72.8400,-0.081111
70.507,72.8462,-0.081111
70.538,72.8522,-0.081111
70.569,72.8584,-0.081111
70.600,72.8646,-0.099012
70.631,72.8703,-0.099012
70.662,72.8756,-0.099012
70.693,72.8798,-0.099012
70.725,72.8834,-0.099012
70.755,72.8861,-0.099012
70.787,72.8883,-0.099012
70.818,72.8897,-0.099012
70.848,72.8903,-0.118081
70.879,72.8903,-0.118081
70.910,72.8903,-0.118081
70.942,72.8903,-0.118081
70.972,72.8903,-0.118081
71.003,72.8903,-0.118081
71.034,72.8903,-0.118081
71.065,72.8903,-0.118081
71.096,72.8903,-0.128661
71.126,72.8903,-0.128661
71.157,72.8903,-0.128661
71.188,72.8903,-0.128661
71.220,72.8903,-0.128661
71.251,72.8903,-0.128661
71.281,72.8903,-0.128661
71.313,72.8903,-0.128661
71.344,72.8903,-0.127587
71.375,72.8903,-0.127587
71.407,72.8903,-0.127587
71.438,72.8903,-0.127587
71.470,72.8903,-0.127587
71.501,72.8903,-0.127587
71.532,72.8903,-0.127587
71.563,72.8903,-0.124177
71.594,72.8903,-0.124177
71.625,72.8903,-0.124177
71.657,72.8903,-0.124177
71.688,72.8903,-0.124177
71.717,72.8903,-0.124177
71.748,72.8903,-0.124177
71.780,72.8903,-0.124177
71.811,72.8903,-0.124177
71.843,72.8903,-0.121718
71.873,72.8903,-0.121718
71.904,72.8903,-0.121718
71.936,72.8903,-0.121718
71.967,72.8903,-0.121718
71.999,72.8903,-0.121718
72.031,72.8903,-0.121718
72.061,72.8903,-0.119579
72.093,72.8903,-0.119579
72.123,72.8903,-0.119579
72.154,72.8903,-0.119579
72.185,72.8903,-0.119579
72.216,72.8903,-0.119579
72.247,72.8903,-0.119579
72.278,72.8903,-0.119579
72.309,72.8903,-0.119579
72.340,72.8903,-0.117751
72.371,72.8903,-0.117751
72.402,72.8903,-0.117751
72.433,72.8903,-0.117751
72.464,72.8903,-0.117751
72.496,72.8903,-0.117751
72.527,72.8903,-0.117751
72.559,72.8903,-0.117751
72.589,72.8903,-0.116159
72.620,72.8903,-0.116159
72.653,72.8903,-0.116159
72.683,72.8903,-0.116159
72.715,72.8903,-0.116159
72.745,72.8903,-0.116159
72.777,72.8903,-0.116159
72.808,72.8903,-0.114736
72.840,72.8903,-0.114736
72.870,72.8903,-0.114736
72.901,72.8903,-0.114736
72.931,72.8903,-0.114736
72.961,72.8903,-0.114736
72.992,72.8903,-0.114736
73.024,72.8903,-0.114736
73.054,72.8903,-0.114736
73.085,72.8903,-0.113493
73.116,72.8903,-0.113493
73.147,72.8903,-0.113493
73.179,72.8903,-0.113493
73.210,72.8903,-0.113493
73.241,72.8903,-0.113493
73.273,72.8903,-0.113493
73.304,72.8903,-0.112381
73.335,72.8903,-0.112381
73.366,72.8903,-0.112381
73.398,72.8903,-0.112381
73.428,72.8903,-0.112381
73.459,72.8903,-0.112381
73.490,72.8903,-0.112381
73.521,72.8903,-0.112381
73.552,72.8903,-0.112381
73.583,72.8903,-0.111401
73.614,72.8903,-0.111401
73.646,72.8903,-0.111401
73.678,72.8903,-0.111401
73.708,72.8903,-0.111401
73.739,72.8903,-0.111401
73.770,72.8903,-0.111401
73.801,72.8903,-0.111401
73.833,72.8903,-0.110402
73.863,72.8903,-0.110402
73.894,72.8903,-0.110402
73.925,72.8903,-0.110402
73.956,72.8903,-0.110402
73.987,72.8903,-0.110402
74.019,72.8903,-0.110402
74.050,72.8903,-0.109507
74.081,72.8903,-0.109507
74.112,72.8903,-0.109507
74.143,72.8903,-0.109507
74.174,72.8903,-0.109507
74.204,72.8903,-0.109507
74.236,72.8903,-0.109507
74.267,72.8903,-0.109507
74.300,72.8903,-0.109507
74.329,72.8903,-0.108716
74.360,72.8903,-0.108716
74.392,72.8903,-0.108716
74.422,72.8903,-0.108716
74.453,72.8903,-0.108716
74.483,72.8903,-0.108716
74.515,72.8903,-0.108716
74.546,72.8903,-0.108716
74.577,72.8903,-0.107972
74.608,72.8903,-0.107972
74.639,72.8903,-0.107972
74.670,72.8903,-0.107972
74.702,72.8903,-0.107972
74.733,72.8903,-0.107972
74.763,72.8903,-0.107972
74.794,72.8903,-0.107972
74.825,72.8903,-0.106841
74.857,72.8903,-0.106841
74.886,72.8903,-0.106841
74.917,72.8903,-0.106841
74.949,72.8903,-0.106841
74.980,72.8903,-0.106841
75.011,72.8903,-0.106841
75.043,72.8903,-0.106841
75.075,72.8903,-0.106841
75.106,72.8903,-0.103704
75.139,72.8903,-0.103704
75.168,72.8903,-0.103704
75.199,72.8903,-0.103704
75.231,72.8903,-0.103704
75.263,72.8903,-0.103704
75.294,72.8903,-0.103704
75.324,72.8901,-0.103704
75.355,72.8891,-0.099916
75.387,72.8873,-0.099916
75.419,72.8849,-0.099916
75.448,72.8819,-0.099916
75.479,72.8780,-0.099916
75.510,72.8734,-0.099916
75.541,72.8681,-0.099916
75.572,72.8619,-0.099916
75.603,72.8558,-0.096364
75.635,72.8495,-0.096364
75.665,72.8434,-0.096364
75.697,72.8371,-0.096364
75.728,72.8308,-0.096364
75.759,72.8246,-0.096364
75.790,72.8184,-0.096364
75.821,72.8123,-0.083296
75.852,72.8061,-0.083296
75.884,72.7996,-0.083296
75.916,72.7933,-0.083296
75.946,72.7871,-0.083296
75.977,72.7812,-0.083296
76.008,72.7750,-0.083296
76.039,72.7686,-0.083296
76.069,72.7627,-0.083296
76.100,72.7565,-0.061080
76.132,72.7502,-0.061080
76.163,72.7440,-0.061080
76.194,72.7378,-0.061080
76.227,72.7309,-0.061080
76.256,72.7251,-0.061080
76.287,72.7190,-0.061080
76.318,72.7128,-0.039750
76.349,72.7066,-0.039750
76.381,72.7002,-0.039750
76.412,72.6940,-0.039750
76.443,72.6879,-0.039750
76.474,72.6817,-0.039750
76.505,72.6754,-0.039750
76.536,72.6693,-0.039750
76.567,72.6629,-0.021057
76.598,72.6568,-0.021057
76.629,72.6506,-0.021057
76.660,72.6446,-0.021057
76.691,72.6380,-0.021057
76.723,72.6318,-0.021057
76.754,72.6255,-0.021057
76.785,72.6194,-0.021057
76.816,72.6132,-0.021057
76.848,72.6070,-0.004569
76.880,72.6005,-0.004569
76.911,72.5943,-0.004569
76.943,72.5878,-0.004569
76.974,72.5819,-0.004569
77.005,72.5753,-0.004569
77.036,72.5692,-0.004569
77.067,72.5630,0.010081
77.099,72.5567,0.010081
77.129,72.5506,0.010081
77.160,72.5444,0.010081
77.191,72.5385,0.010081
77.222,72.5321,0.010081
77.253,72.5261,0.010081
77.284,72.5197,0.010081
77.315,72.5135,0.010081
77.346,72.5073,0.023055
77.377,72.5011,0.023055
77.408,72.4949,0.023055
77.439,72.4887,0.023055
77.471,72.4824,0.023055
77.502,72.4762,0.023055
77.534,72.4697,0.023055
77.565,72.4634,0.023055
77.596,72.4572,0.034690
77.627,72.4511,0.034690
77.658,72.4449,0.034690
77.690,72.4386,0.034690
77.721,72.4323,0.034690
77.752,72.4260,0.034690
77.783,72.4196,0.034690
77.813,72.4138,0.034690
77.843,72.4079,0.045318
77.874,72.4017,0.045318
77.906,72.3953,0.045318
77.937,72.3891,0.045318
77.968,72.3828,0.045318
77.999,72.3769,0.045318
78.030,72.3705,0.045318
78.061,72.3643,0.045318
78.092,72.3581,0.055503
78.122,72.3520,0.055503
78.154,72.3457,0.055503
78.184,72.3396,0.055503
78.215,72.3333,0.055503
78.245,72.3275,0.055503
78.276,72.3213,0.055503
78.307,72.3151,0.065405
78.339,72.3088,0.065405
78.371,72.3023,0.065405
78.401,72.2962,0.065405
78.434,72.2898,0.065405
78.463,72.2838,0.065405
78.493,72.2779,0.065405
78.525,72.2716,0.065405
78.556,72.2654,0.065405
78.587,72.2590,0.065405
78.617,72.2530,0.075505
78.648,72.2469,0.075505
78.680,72.2404,0.075505
78.712,72.2342,0.075505
78.743,72.2279,0.075505
78.774,72.2217,0.075505
78.805,72.2156,0.075505
78.835,72.2093,0.085972
78.867,72.2031,0.085972
78.898,72.1970,0.085972
78.929,72.1907,0.085972
78.960,72.1846,0.085972
78.991,72.1782,0.085972
79.022,72.1721,0.085972
79.053,72.1658,0.085972
79.084,72.1597,0.097203
79.116,72.1532,0.097203
79.146,72.1473,0.097203
79.178,72.1407,0.097203
79.209,72.1349,0.097203
79.239,72.1286,0.097203
79.270,72.1226,0.097203
79.301,72.1163,0.097203
79.332,72.1101,0.109498
79.363,72.1039,0.109498
79.394,72.0978,0.109498
79.424,72.0915,0.109498
79.455,72.0855,0.109498
79.486,72.0794,0.109498
79.516,72.0732,0.109498
79.548,72.0669,0.109498
79.579,72.0606,0.122980
79.610,72.0545,0.122980
79.641,72.0483,0.122980
79.672,72.0421,0.122980
79.703,72.0360,0.122980
79.734,72.0296,0.122980
79.766,72.0234,0.122980
79.796,72.0173,0.122980
79.827,72.0111,0.138102
79.859,72.0048,0.138102
79.889,71.9987,0.138102
79.920,71.9925,0.138102
79.952,71.9862,0.138102
79.983,71.9799,0.138102
80.014,71.9738,0.138102
80.046,71.9673,0.138102
80.077,71.9611,0.154590
80.109,71.9548,0.154590
80.140,71.9486,0.154590
80.171,71.9424,0.154590
80.201,71.9363,0.154590
80.233,71.9299,0.154590
80.264,71.9238,0.154590
80.295,71.9175,0.154590
80.326,71.9113,0.172660
80.357,71.9052,0.172660
80.387,71.8990,0.172660
80.418,71.8929,0.172660
80.449,71.8866,0.172660
80.481,71.8801,0.172660
80.512,71.8739,0.172660
80.543,71.8679,0.172660
80.575,71.8614,0.192361
80.606,71.8555,0.192361
80.637,71.8490,0.192361
80.668,71.8428,0.192361
80.700,71.8364,0.192361
80.731,71.8305,0.192361
80.763,71.8236,0.192361
80.793,71.8180,0.192361
80.823,71.8119,0.213324
80.854,71.8056,0.213324
80.885,71.7996,0.213324
80.915,71.7934,0.213324
80.947,71.7870,0.213324
80.977,71.7812,0.213324
81.007,71.7752,0.213324
81.038,71.7689,0.213324
81.068,71.7628,0.235578
81.099,71.7566,0.235578
81.130,71.7504,0.235578
81.162,71.7442,0.235578
81.192,71.7381,0.235578
81.223,71.7319,0.235578
81.255,71.7254,0.235578
81.286,71.7193,0.235578
81.318,71.7131,0.235578
81.349,71.7068,0.258651
81.381,71.7003,0.258651
81.411,71.6944,0.258651
81.441,71.6883,0.258651
81.472,71.6820,0.258651
81.504,71.6757,0.258651
81.535,71.6695,0.258651
81.566,71.6635,0.258651
81.596,71.6571,0.282290
81.627,71.6511,0.282290
81.659,71.6446,0.282290
81.690,71.6385,0.282290
81.721,71.6323,0.282290
81.752,71.6261,0.282290
81.785,71.6194,0.282290
81.815,71.6135,0.306127
81.846,71.6074,0.306127
81.877,71.6011,0.306127
81.909,71.5948,0.306127
81.938,71.5888,0.306127
81.969,71.5827,0.306127
82.000,71.5765,0.306127
82.031,71.5703,0.306127
82.062,71.5641,0.306127
82.093,71.5579,0.329454
82.124,71.5518,0.329454
82.154,71.5455,0.329454
82.186,71.5394,0.329454
82.217,71.5330,0.329454
82.249,71.5267,0.329454
82.279,71.5206,0.329454
82.310,71.5145,0.351765
82.342,71.5083,0.351765
82.372,71.5021,0.351765
82.403,71.4959,0.351765
82.435,71.4895,0.351765
82.464,71.4838,0.351765
82.497,71.4772,0.351765
82.528,71.4709,0.351765
82.558,71.4648,0.372276
82.590,71.4585,0.372276
82.620,71.4525,0.372276
82.651,71.4464,0.372276
82.681,71.4401,0.372276
82.712,71.4342,0.372276
82.743,71.4278,0.372276
82.774,71.4217,0.372276
82.806,71.4154,0.372276
82.836,71.4093,0.390469
82.868,71.4028,0.390469
82.900,71.3966,0.390469
82.932,71.3900,0.390469
82.963,71.3840,0.390469
82.993,71.3778,0.390469
83.025,71.3715,0.390469
83.056,71.3653,0.390469
83.088,71.3589,0.405581
83.118,71.3529,0.405581
83.149,71.3468,0.405581
83.181,71.3403,0.405581
83.213,71.3341,0.405581
83.244,71.3276,0.405581
83.277,71.3210,0.405581
83.308,71.3148,0.416444
83.339,71.3086,0.416444
83.371,71.3024,0.416444
83.401,71.2965,0.416444
83.432,71.2902,0.416444
83.465,71.2836,0.416444
83.494,71.2776,0.416444
83.525,71.2716,0.416444
83.556,71.2654,0.416444
83.587,71.2592,0.421814
83.617,71.2531,0.421814
83.648,71.2470,0.421814
83.679,71.2408,0.421814
83.711,71.2343,0.421814
83.742,71.2281,0.421814
83.773,71.2221,0.421814
83.803,71.2159,0.419497
83.835,71.2097,0.419497
83.867,71.2031,0.419497
83.897,71.1971,0.419497
83.928,71.1909,0.419497
83.959,71.1849,0.419497
83.989,71.1787,0.419497
84.021,71.1723,0.419497
84.051,71.1663,0.419497
84.083,71.1599,0.396602
84.114,71.1537,0.396602
84.144,71.1475,0.396602
84.175,71.1416,0.396602
84.206,71.1353,0.396602
84.237,71.1292,0.396602
84.269,71.1227,0.396602
84.300,71.1167,0.396602
84.332,71.1101,0.204750
84.362,71.1042,0.204750
84.392,71.0982,0.204750
84.424,71.0918,0.204750
84.455,71.0856,0.204750
84.486,71.0792,0.204750
84.517,71.0731,0.204750
84.547,71.0672,0.204750
84.578,71.0608,0.027652
84.609,71.0548,0.027652
84.641,71.0483,0.027652
84.671,71.0424,0.027652
84.702,71.0362,0.027652
84.732,71.0301,0.027652
84.763,71.0239,0.027652
84.795,71.0176,0.027652
84.826,71.0112,0.022405
84.858,71.0050,0.022405
84.888,70.9991,0.022405
84.919,70.9929,0.022405
84.950,70.9864,0.022405
84.981,70.9803,0.022405
85.012,70.9740,0.022405
85.043,70.9679,0.022405
85.074,70.9617,0.022405
85.106,70.9553,0.021717
85.137,70.9492,0.021717
85.167,70.9430,0.021717
85.199,70.9368,0.021717
85.230,70.9306,0.021717
85.260,70.9245,0.021717
85.291,70.9183,0.021717
85.322,70.9121,0.021717
85.353,70.9059,0.021510
85.385,70.8996,0.021510
85.415,70.8937,0.021510
85.446,70.8873,0.021510
85.477,70.8813,0.021510
85.508,70.8749,0.021510
85.539,70.8687,0.021510
85.571,70.8624,0.021510
85.602,70.8562,0.021359
85.633,70.8500,0.021359
85.663,70.8438,0.021359
85.694,70.8377,0.021359
85.725,70.8315,0.021359
85.757,70.8252,0.021359
85.787,70.8192,0.021359
85.818,70.8129,0.021359
85.849,70.8067,0.021340
85.880,70.8006,0.021340
85.911,70.7943,0.021340
85.943,70.7880,0.021340
85.974,70.7819,0.021340
86.005,70.7756,0.021340
86.036,70.7695,0.021340
86.067,70.7631,0.021340
86.098,70.7570,0.021359
86.130,70.7505,0.021359
86.161,70.7443,0.021359
86.191,70.7383,0.021359
86.222,70.7322,0.021359
86.253,70.7260,0.021359
86.284,70.7197,0.021359
86.315,70.7136,0.021359
86.346,70.7074,0.021302
86.377,70.7010,0.021302
86.409,70.6948,0.021302
86.439,70.6888,0.021302
86.472,70.6821,0.021302
86.502,70.6761,0.021302
86.534,70.6699,0.021302
86.565,70.6635,0.021302
86.597,70.6573,0.021302
86.628,70.6511,0.021302
86.659,70.6447,0.021302
86.690,70.6385,0.021302
86.721,70.6325,0.021302
86.751,70.6261,0.021302
86.783,70.6201,0.021302
86.814,70.6137,0.021302
86.847,70.6073,0.021255
86.877,70.6012,0.021255
86.908,70.5949,0.021255
86.939,70.5888,0.021255
86.969,70.5827,0.021255
87.000,70.5765,0.021255
87.032,70.5702,0.021255
87.063,70.5641,0.021255
87.094,70.5579,0.021255
87.125,70.5515,0.021255
87.155,70.5455,0.021255
87.186,70.5393,0.021255
87.218,70.5330,0.021255
87.249,70.5267,0.021255
87.281,70.5205,0.021255
87.312,70.5143,0.021255
87.342,70.5082,0.021255
87.373,70.5020,0.021255
87.405,70.4955,0.021255
87.436,70.4893,0.021255
87.469,70.4829,0.021255
87.498,70.4771,0.021255
87.529,70.4707,0.021255
87.560,70.4645,0.021227
87.592,70.4582,0.021227
87.622,70.4521,0.021227
87.653,70.4459,0.021227
87.685,70.4396,0.021227
87.716,70.4333,0.021227
87.747,70.4272,0.021227
87.778,70.4210,0.021227
87.809,70.4149,0.021227
87.839,70.4087,0.021217
87.870,70.4025,0.021217
87.901,70.3963,0.021217
87.932,70.3900,0.021217
87.961,70.3843,0.021217
87.995,70.3773,0.021217
88.027,70.3713,0.021217
88.058,70.3649,0.021265
88.089,70.3587,0.021265
88.119,70.3528,0.021265
88.151,70.3465,0.021265
88.182,70.3403,0.021265
88.213,70.3339,0.021265
88.244,70.3277,0.021265
88.275,70.3217,0.021265
88.305,70.3153,0.021265
88.336,70.3094,0.021331
88.367,70.3032,0.021331
88.397,70.2971,0.021331
88.429,70.2907,0.021331
88.460,70.2846,0.021331
88.491,70.2784,0.021331
88.523,70.2721,0.021331
88.554,70.2657,0.021331
88.585,70.2596,0.021283
88.615,70.2534,0.021283
88.648,70.2470,0.021283
88.679,70.2408,0.021283
88.710,70.2346,0.021283
88.741,70.2281,0.021283
88.772,70.2223,0.021283
88.803,70.2161,0.021293
88.834,70.2098,0.021293
88.865,70.2035,0.021293
88.897,70.1971,0.021293
88.928,70.1911,0.021293
88.959,70.1849,0.021293
88.990,70.1787,0.021293
89.021,70.1723,0.021293
89.052,70.1661,0.021293
89.083,70.1599,0.021293
89.114,70.1537,0.021293
89.146,70.1475,0.021293
89.177,70.1413,0.021293
89.208,70.1350,0.021293
89.240,70.1287,0.021293
89.271,70.1224,0.021293
89.302,70.1163,0.021293
89.332,70.1102,0.021265
89.362,70.1040,0.021265
89.394,70.0979,0.021265
89.425,70.0916,0.021265
89.456,70.0853,0.021265
89.487,70.0793,0.021265
89.518,70.0730,0.021265
89.549,70.0667,0.021265
89.579,70.0607,0.021283
89.609,70.0548,0.021283
89.640,70.0484,0.021283
89.671,70.0424,0.021283
89.702,70.0360,0.021283
89.733,70.0300,0.021283
89.764,70.0236,0.021283
89.795,70.0176,0.021283
89.826,70.0114,0.021293
89.858,70.0049,0.021293
89.889,69.9987,0.021293
89.920,69.9924,0.021293
89.952,69.9863,0.021293
89.983,69.9801,0.021293
90.014,69.9739,0.021293
90.045,69.9676,0.021293
90.075,69.9616,0.021359
90.107,69.9552,0.021359
90.138,69.9490,0.021359
90.169,69.9428,0.021359
90.201,69.9364,0.021359
90.232,69.9304,0.021359
90.263,69.9240,0.021359
90.293,69.9180,0.021359
90.324,69.9118,0.021378
90.355,69.9054,0.021378
90.386,69.8995,0.021378
90.417,69.8932,0.021378
90.448,69.8871,0.021378
90.479,69.8808,0.021378
90.510,69.8747,0.021378
90.542,69.8684,0.021378
90.571,69.8625,0.021387
90.603,69.8571,0.021387
90.634,69.8526,0.021387
90.664,69.8486,0.021387
90.696,69.8455,0.021387
90.725,69.8432,0.021387
90.756,69.8414,0.021387
90.787,69.8405,0.021387
90.818,69.8402,0.021293
90.849,69.8402,0.021293
90.880,69.8402,0.021293
90.911,69.8402,0.021293
90.942,69.8402,0.021293
90.973,69.8402,0.021293
91.005,69.8402,0.021293
91.036,69.8402,0.021293
91.066,69.8402,0.021189
91.097,69.8402,0.021189
91.127,69.8402,0.021189
91.158,69.8402,0.021189
91.189,69.8402,0.021189
91.220,69.8402,0.021189
91.251,69.8402,0.021189
91.282,69.8402,0.021189
91.312,69.8402,0.021170
91.344,69.8402,0.021170
91.374,69.8402,0.021170
91.405,69.8406,0.021170
91.435,69.8416,0.021170
91.466,69.8434,0.021170
91.497,69.8459,0.021170
91.528,69.8491,0.021170
91.558,69.8530,0.021057
91.589,69.8577,0.021057
91.620,69.8631,0.021057
91.651,69.8691,0.021057
91.682,69.8755,0.021057
91.713,69.8815,0.021057
91.744,69.8877,0.021057
91.775,69.8939,0.021057
91.806,69.9001,0.021057
91.836,69.9062,0.020878
91.868,69.9125,0.020878
91.898,69.9186,0.020878
91.929,69.9247,0.020878
91.960,69.9309,0.020878
91.990,69.9369,0.020878
92.021,69.9433,0.020878
92.052,69.9492,0.020709
92.083,69.9555,0.020709
92.114,69.9616,0.020709
92.145,69.9678,0.020709
92.176,69.9743,0.020709
92.208,69.9805,0.020709
92.239,69.9868,0.020709
92.271,69.9931,0.020709
92.303,69.9994,0.020709
92.333,70.0054,0.020624
92.363,70.0117,0.020624
92.395,70.0178,0.020624
92.427,70.0243,0.020624
92.458,70.0305,0.020624
92.488,70.0367,0.020624
92.519,70.0426,0.020624
92.550,70.0491,0.020624
92.581,70.0551,0.020567
92.612,70.0613,0.020567
92.643,70.0675,0.020567
92.675,70.0740,0.020567
92.707,70.0803,0.020567
92.738,70.0865,0.020567
92.768,70.0925,0.020567
92.800,70.0989,0.020567
92.831,70.1050,0.020549
92.862,70.1112,0.020549
92.892,70.1171,0.020549
92.923,70.1236,0.020549
92.954,70.1297,0.020549
92.985,70.1360,0.020549
93.016,70.1421,0.020549
93.048,70.1486,0.020549
93.079,70.1547,0.020520
93.110,70.1611,0.020520
93.141,70.1671,0.020520
93.173,70.1735,0.020520
93.203,70.1794,0.020520
93.234,70.1857,0.020520
93.265,70.1921,0.020520
93.296,70.1980,0.020454
93.327,70.2045,0.020454
93.359,70.2107,0.020454
93.389,70.2169,0.020454
93.421,70.2232,0.020454
93.451,70.2291,0.020454
93.482,70.2355,0.020454
93.513,70.2417,0.020454
93.544,70.2479,0.020454
93.576,70.2541,0.020454
93.608,70.2605,0.020407
93.639,70.2666,0.020407
93.671,70.2732,0.020407
93.702,70.2792,0.020407
93.733,70.2857,0.020407
93.766,70.2920,0.020407
93.796,70.2981,0.020407
93.828,70.3045,0.020313
93.859,70.3106,0.020313
93.890,70.3168,0.020313
93.921,70.3230,0.020313
93.952,70.3294,0.020313
93.982,70.3352,0.020313
94.013,70.3415,0.020313
94.043,70.3476,0.020313
94.075,70.3539,0.020313
94.106,70.3601,0.020256
94.137,70.3663,0.020256
94.168,70.3726,0.020256
94.199,70.3787,0.020256
94.230,70.3849,0.020256
94.263,70.3915,0.020256
94.293,70.3976,0.020256
94.324,70.4036,0.020256
94.354,70.4100,0.020238
94.386,70.4162,0.020238
94.417,70.4222,0.020238
94.449,70.4286,0.020238
94.480,70.4348,0.020238
94.511,70.4412,0.020238
94.542,70.4474,0.020238
94.573,70.4535,0.020238
94.604,70.4597,0.020162
94.635,70.4658,0.020162
94.666,70.4721,0.020162
94.698,70.4784,0.020162
94.729,70.4846,0.020162
94.759,70.4907,0.020162
94.790,70.4969,0.020162
94.822,70.5032,0.020162
94.853,70.5096,0.020096
94.885,70.5159,0.020096
94.915,70.5218,0.020096
94.947,70.5283,0.020096
94.977,70.5345,0.020096
95.008,70.5406,0.020096
95.040,70.5468,0.020096
95.071,70.5531,0.020096
95.102,70.5593,0.020106
95.133,70.5657,0.020106
95.164,70.5717,0.020106
95.197,70.5781,0.020106
95.227,70.5842,0.020106
95.259,70.5907,0.020106
95.289,70.5966,0.020106
95.320,70.6031,0.020106
95.351,70.6090,0.020068
95.382,70.6153,0.020068
95.413,70.6214,0.020068
95.445,70.6279,0.020068
95.475,70.6338,0.020068
95.506,70.6402,0.020068
95.537,70.6464,0.020068
95.568,70.6524,0.020068
95.598,70.6590,0.020068
95.629,70.6648,0.019955
95.661,70.6710,0.019955
95.691,70.6772,0.019955
95.723,70.6834,0.019955
95.754,70.6898,0.019955
95.786,70.6961,0.019955
95.817,70.7023,0.019955
95.849,70.7086,0.019880
95.881,70.7151,0.019880
95.911,70.7211,0.019880
95.942,70.7272,0.019880
95.972,70.7332,0.019880
96.003,70.7396,0.019880
96.034,70.7457,0.019880
96.065,70.7519,0.019880
96.096,70.7582,0.019823
96.127,70.7643,0.019823
96.158,70.7705,0.019823
96.189,70.7768,0.019823
96.220,70.7829,0.019823
96.251,70.7892,0.019823
96.282,70.7953,0.019823
96.313,70.8014,0.019823
96.344,70.8077,0.019785
96.376,70.8142,0.019785
96.407,70.8204,0.019785
96.438,70.8266,0.019785
96.469,70.8328,0.019785
96.500,70.8388,0.019785
96.530,70.8449,0.019785
96.561,70.8511,0.019785
96.591,70.8571,0.019757
96.622,70.8634,0.019757
96.653,70.8693,0.019757
96.684,70.8758,0.019757
96.715,70.8819,0.019757
96.746,70.8882,0.019757
96.778,70.8944,0.019757
96.808,70.9006,0.019757
96.839,70.9066,0.019682
96.870,70.9129,0.019682
96.901,70.9191,0.019682
96.932,70.9253,0.019682
96.962,70.9314,0.019682
96.994,70.9378,0.019682
97.026,70.9441,0.019682
97.058,70.9506,0.019682
97.089,70.9567,0.019616
97.120,70.9629,0.019616
97.151,70.9692,0.019616
97.182,70.9754,0.019616
97.214,70.9817,0.019616
97.245,70.9880,0.019616
97.276,70.9941,0.019616
97.307,71.0003,0.019484
97.340,71.0068,0.019484
97.369,71.0127,0.019484
97.400,71.0189,0.019484
97.432,71.0252,0.019484
97.462,71.0313,0.019484
97.494,71.0376,0.019484
97.524,71.0437,0.019484
97.555,71.0499,0.019484
97.586,71.0561,0.019437
97.617,71.0623,0.019437
97.647,71.0683,0.019437
97.678,71.0746,0.019437
97.708,71.0804,0.019437
97.738,71.0865,0.019437
97.769,71.0927,0.019437
97.801,71.0990,0.019437
97.832,71.1054,0.019380
97.862,71.1113,0.019380
97.893,71.1175,0.019380
97.923,71.1235,0.019380
97.955,71.1298,0.019380
97.985,71.1359,0.019380
98.016,71.1421,0.019380
98.047,71.1483,0.019380
98.078,71.1546,0.019258
98.109,71.1607,0.019258
98.140,71.1668,0.019258
98.171,71.1731,0.019258
98.202,71.1793,0.019258
98.233,71.1856,0.019258
98.264,71.1917,0.019258
98.295,71.1980,0.019258
98.326,71.2041,0.019258
98.357,71.2102,0.019220
98.387,71.2162,0.019220
98.418,71.2224,0.019220
98.449,71.2288,0.019220
98.480,71.2348,0.019220
98.512,71.2412,0.019220
98.543,71.2474,0.019220
98.573,71.2536,0.019220
98.605,71.2599,0.019126
98.636,71.2661,0.019126
98.668,71.2724,0.019126
98.699,71.2787,0.019126
98.730,71.2847,0.019126
98.760,71.2910,0.019126
98.792,71.2972,0.019126
98.822,71.3033,0.019126
98.854,71.3096,0.018966
98.885,71.3158,0.018966
98.917,71.3222,0.018966
98.948,71.3284,0.018966
98.979,71.3347,0.018966
99.009,71.3408,0.018966
99.039,71.3468,0.018966
99.070,71.3529,0.018966
99.102,71.3594,0.018824
99.134,71.3656,0.018824
99.164,71.3718,0.018824
99.194,71.3777,0.018824
99.225,71.3838,0.018824
99.256,71.3900,0.018824
99.287,71.3962,0.018824
99.318,71.4026,0.018824
99.350,71.4089,0.018758
99.380,71.4149,0.018758
99.411,71.4210,0.018758
99.443,71.4275,0.018758
99.473,71.4334,0.018758
99.504,71.4397,0.018758
99.535,71.4459,0.018758
99.566,71.4520,0.018758
99.597,71.4583,0.018598
99.629,71.4648,0.018598
99.659,71.4706,0.018598
99.690,71.4771,0.018598
99.722,71.4831,0.018598
99.754,71.4896,0.018598
99.784,71.4957,0.018598
99.816,71.5021,0.018598
99.847,71.5082,0.018466
99.879,71.5146,0.018466
99.910,71.5208,0.018466
99.941,71.5270,0.018466
99.971,71.5330,0.018466
100.001,71.5391,0.018466
100.032,71.5452,0.018466
100.062,71.5515,0.018325
100.095,71.5578,0.018325
100.125,71.5639,0.018325
100.154,71.5697,0.018325
100.186,71.5762,0.018325
100.217,71.5822,0.018325
100.248,71.5887,0.018325
100.279,71.5946,0.018325
100.311,71.6012,0.018052
100.342,71.6073,0.018052
100.374,71.6139,0.018052
100.404,71.6196,0.018052
100.434,71.6256,0.018052
100.465,71.6320,0.018052
100.497,71.6383,0.018052
100.527,71.6445,0.018052
100.558,71.6506,0.018052
100.589,71.6568,0.017882
100.620,71.6629,0.017882
100.651,71.6692,0.017882
100.682,71.6753,0.017882
100.713,71.6815,0.017882
100.744,71.6875,0.017882
100.776,71.6941,0.017882
100.807,71.7002,0.017656
100.839,71.7066,0.017656
100.870,71.7128,0.017656
100.900,71.7189,0.017656
100.931,71.7250,0.017656
100.962,71.7313,0.017656
100.993,71.7375,0.017656
101.024,71.7437,0.017656
101.055,71.7499,0.017656
101.086,71.7561,0.017656
101.118,71.7624,0.017251
101.149,71.7686,0.017251
101.180,71.7748,0.017251
101.211,71.7810,0.017251
101.241,71.7872,0.017251
101.273,71.7934,0.017251
101.304,71.7996,0.017251
101.335,71.8058,0.016770
101.367,71.8122,0.016770
101.398,71.8184,0.016770
101.430,71.8248,0.016770
101.460,71.8310,0.016770
101.491,71.8370,0.016770
101.521,71.8431,0.016770
101.552,71.8493,0.016770
101.582,71.8552,0.016281
101.612,71.8614,0.016281
101.643,71.8674,0.016281
101.675,71.8738,0.016281
101.706,71.8800,0.016281
101.736,71.8862,0.016281
101.767,71.8922,0.016281
101.797,71.8984,0.016281
101.829,71.9046,0.015678
101.860,71.9109,0.015678
101.890,71.9167,0.015678
101.920,71.9229,0.015678
101.951,71.9290,0.015678
101.981,71.9351,0.015678
102.012,71.9414,0.015678
102.044,71.9476,0.015678
102.075,71.9538,0.014943
102.107,71.9604,0.014943
102.138,71.9665,0.014943
102.170,71.9728,0.014943
102.201,71.9789,0.014943
102.232,71.9853,0.014943
102.263,71.9914,0.014943
102.293,71.9976,0.014943
102.324,72.0037,0.014038
102.355,72.0099,0.014038
102.386,72.0161,0.014038
102.417,72.0223,0.014038
102.448,72.0285,0.014038
102.479,72.0347,0.014038
102.511,72.0410,0.014038
102.541,72.0472,0.014038
102.572,72.0533,0.012917
102.604,72.0596,0.012917
102.634,72.0657,0.012917
102.666,72.0719,0.012917
102.697,72.0782,0.012917
102.728,72.0843,0.012917
102.758,72.0905,0.012917
102.789,72.0967,0.012917
102.819,72.1028,0.011579
102.850,72.1088,0.011579
102.881,72.1150,0.011579
102.912,72.1212,0.011579
102.943,72.1273,0.011579
102.974,72.1338,0.011579
103.006,72.1401,0.011579
103.037,72.1463,0.011579
103.068,72.1524,0.009770
103.099,72.1588,0.009770
103.131,72.1650,0.009770
103.161,72.1710,0.009770
103.191,72.1772,0.009770
103.223,72.1835,0.009770
103.254,72.1897,0.009770
103.285,72.1957,0.009770
103.316,72.2021,0.009770
103.347,72.2083,0.007566
103.378,72.2145,0.007566
103.409,72.2207,0.007566
103.440,72.2268,0.007566
103.471,72.2330,0.007566
103.502,72.2393,0.007566
103.533,72.2455,0.007566
103.564,72.2516,0.004843
103.596,72.2580,0.004843
103.627,72.2642,0.004843
103.658,72.2703,0.004843
103.688,72.2765,0.004843
103.720,72.2828,0.004843
103.751,72.2890,0.004843
103.783,72.2955,0.004843
103.814,72.3016,0.001489
103.844,72.3076,0.001489
103.875,72.3140,0.001489
103.906,72.3201,0.001489
103.937,72.3264,0.001489
103.968,72.3325,0.001489
103.998,72.3387,0.001489
104.030,72.3447,0.001489
104.061,72.3511,-0.002572
104.092,72.3573,-0.002572
104.123,72.3635,-0.002572
104.154,72.3697,-0.002572
104.186,72.3762,-0.002572
104.217,72.3824,-0.002572
104.248,72.3885,-0.002572
104.280,72.3948,-0.002572
104.309,72.4007,-0.002572
104.341,72.4071,-0.007556
104.371,72.4131,-0.007556
104.402,72.4194,-0.007556
104.438,72.4265,-0.007556
104.465,72.4320,-0.007556
104.496,72.4382,-0.007556
104.526,72.4440,-0.007556
104.558,72.4505,-0.007556
104.589,72.4566,-0.007556
104.620,72.4628,-0.013501
104.651,72.4691,-0.013501
104.682,72.4755,-0.013501
104.714,72.4815,-0.013501
104.746,72.4881,-0.013501
104.777,72.4943,-0.013501
104.808,72.5006,-0.013501
104.839,72.5067,-0.020643
104.870,72.5127,-0.020643
104.901,72.5191,-0.020643
104.932,72.5252,-0.020643
104.963,72.5315,-0.020643
104.995,72.5377,-0.020643
105.025,72.5438,-0.020643
105.056,72.5501,-0.020643
105.087,72.5562,-0.029141
105.118,72.5625,-0.029141
105.150,72.5690,-0.029141
105.181,72.5750,-0.029141
105.212,72.5812,-0.029141
105.243,72.5874,-0.029141
105.274,72.5936,-0.029141
105.305,72.5998,-0.029141
105.336,72.6059,-0.029141
105.366,72.6121,-0.039137
105.397,72.6185,-0.039137
105.430,72.6247,-0.039137
105.461,72.6310,-0.039137
105.491,72.6371,-0.039137
105.522,72.6434,-0.039137
105.553,72.6493,-0.039137
105.584,72.6557,-0.050811
105.615,72.6619,-0.050811
105.646,72.6682,-0.050811
105.677,72.6744,-0.050811
105.709,72.6806,-0.050811
105.741,72.6870,-0.050811
105.772,72.6932,-0.050811
105.803,72.6994,-0.050811
105.834,72.7056,-0.050811
105.866,72.7121,-0.064227
105.897,72.7183,-0.064227
105.928,72.7246,-0.064227
105.959,72.7307,-0.064227
105.991,72.7371,-0.064227
106.022,72.7431,-0.064227
106.052,72.7494,-0.064227
106.084,72.7556,-0.079660
106.115,72.7618,-0.079660
106.146,72.7680,-0.079660
106.176,72.7740,-0.079660
106.207,72.7802,-0.079660
106.239,72.7866,-0.079660
106.270,72.7928,-0.079660
106.301,72.7990,-0.079660
106.332,72.8054,-0.097353
106.363,72.8113,-0.097353
106.393,72.8173,-0.097353
106.424,72.8226,-0.097353
106.455,72.8274,-0.097353
106.487,72.8315,-0.097353
106.517,72.8346,-0.097353
106.549,72.8371,-0.097353
106.579,72.8388,-0.097353
106.611,72.8400,-0.116668
106.642,72.8402,-0.116668
106.672,72.8402,-0.116668
106.704,72.8402,-0.116668
106.735,72.8402,-0.116668
106.765,72.8402,-0.116668
106.797,72.8402,-0.116668
106.827,72.8402,-0.128529
106.858,72.8402,-0.128529
106.889,72.8402,-0.128529
106.920,72.8402,-0.128529
106.951,72.8402,-0.128529
106.982,72.8402,-0.128529
107.013,72.8402,-0.128529
107.044,72.8402,-0.128529
107.076,72.8402,-0.128482
107.107,72.8402,-0.128482
107.138,72.8402,-0.128482
107.169,72.8402,-0.128482
107.200,72.8402,-0.128482
107.232,72.8402,-0.128482
107.262,72.8402,-0.128482
107.294,72.8402,-0.128482
107.325,72.8402,-0.125128
107.355,72.8402,-0.125128
107.386,72.8402,-0.125128
107.418,72.8402,-0.125128
107.447,72.8402,-0.125128
107.479,72.8402,-0.125128
107.510,72.8402,-0.125128
107.541,72.8402,-0.125128
107.572,72.8402,-0.122528
107.602,72.8402,-0.122528
107.633,72.8402,-0.122528
107.663,72.8402,-0.122528
107.694,72.8402,-0.122528
107.725,72.8402,-0.122528
107.754,72.8402,-0.122528
107.786,72.8402,-0.122528
107.817,72.8402,-0.120342
107.849,72.8402,-0.120342
107.880,72.8402,-0.120342
107.910,72.8402,-0.120342
107.942,72.8402,-0.120342
107.972,72.8402,-0.120342
108.003,72.8402,-0.120342
108.035,72.8402,-0.120342
108.066,72.8402,-0.118552
108.097,72.8402,-0.118552
108.128,72.8402,-0.118552
108.159,72.8402,-0.118552
108.191,72.8402,-0.118552
108.222,72.8402,-0.118552
108.253,72.8402,-0.118552
108.284,72.8402,-0.118552
108.314,72.8402,-0.116828
108.345,72.8402,-0.116828
108.376,72.8402,-0.116828
108.407,72.8402,-0.116828
108.437,72.8402,-0.116828
108.467,72.8402,-0.116828
108.500,72.8402,-0.116828
108.530,72.8402,-0.116828
108.562,72.8402,-0.116828
108.593,72.8402,-0.115339
108.624,72.8402,-0.115339
108.655,72.8402,-0.115339
108.687,72.8402,-0.115339
108.717,72.8402,-0.115339
108.749,72.8402,-0.115339
108.780,72.8402,-0.115339
108.811,72.8402,-0.115339
108.842,72.8402,-0.114171
108.873,72.8402,-0.114171
108.903,72.8402,-0.114171
108.934,72.8402,-0.114171
108.965,72.8402,-0.114171
108.996,72.8402,-0.114171
109.027,72.8402,-0.114171
109.058,72.8402,-0.114171
109.089,72.8402,-0.113050
109.120,72.8402,-0.113050
109.151,72.8402,-0.113050
109.182,72.8402,-0.113050
109.214,72.8402,-0.113050
109.245,72.8402,-0.113050
109.277,72.8402,-0.113050
109.308,72.8402,-0.113050
109.338,72.8402,-0.113050
109.369,72.8402,-0.112004
109.400,72.8402,-0.112004
109.431,72.8402,-0.112004
109.463,72.8402,-0.112004
109.494,72.8402,-0.112004
109.526,72.8402,-0.112004
109.557,72.8402,-0.112004
109.587,72.8402,-0.111090
109.619,72.8402,-0.111090
109.649,72.8402,-0.111090
109.681,72.8402,-0.111090
109.712,72.8402,-0.111090
109.743,72.8402,-0.111090
109.774,72.8402,-0.111090
109.805,72.8402,-0.111090
109.836,72.8402,-0.110176
109.867,72.8402,-0.110176
109.898,72.8402,-0.110176
109.929,72.8402,-0.110176
109.960,72.8402,-0.110176
109.990,72.8402,-0.110176
110.022,72.8402,-0.110176
110.053,72.8402,-0.110176
110.085,72.8402,-0.109385
110.115,72.8402,-0.109385
110.146,72.8402,-0.109385
110.178,72.8402,-0.109385
110.209,72.8402,-0.109385
110.240,72.8402,-0.109385
110.270,72.8402,-0.109385
110.302,72.8402,-0.108678
110.332,72.8402,-0.108678
110.363,72.8402,-0.108678
110.394,72.8402,-0.108678
110.425,72.8402,-0.108678
110.456,72.8402,-0.108678
110.486,72.8402,-0.108678
110.517,72.8402,-0.108678
110.548,72.8402,-0.108678
110.579,72.8402,-0.108678
110.610,72.8402,-0.107745
110.641,72.8402,-0.107745
110.672,72.8402,-0.107745
110.704,72.8402,-0.107745
110.736,72.8402,-0.107745
110.767,72.8402,-0.107745
110.799,72.8402,-0.107745
110.829,72.8402,-0.105409
110.860,72.8402,-0.105409
110.891,72.8402,-0.105409
110.923,72.8402,-0.105409
110.953,72.8402,-0.105409
110.986,72.8402,-0.105409
111.016,72.8402,-0.105409
111.046,72.8402,-0.105409
111.078,72.8402,-0.101527
111.108,72.8402,-0.101527
111.140,72.8402,-0.101527
111.171,72.8401,-0.101527
111.202,72.8392,-0.101527
111.233,72.8376,-0.101527
111.265,72.8352,-0.101527
111.296,72.8321,-0.101527
111.327,72.8284,-0.098804
111.358,72.8241,-0.098804
111.390,72.8186,-0.098804
111.418,72.8130,-0.098804
111.450,72.8067,-0.098804
111.480,72.8006,-0.098804
111.512,72.7943,-0.098804
111.542,72.7881,-0.098804
111.574,72.7819,-0.098804
111.605,72.7758,-0.090636
111.636,72.7695,-0.090636
111.666,72.7636,-0.090636
111.698,72.7571,-0.090636
111.729,72.7512,-0.090636
111.760,72.7447,-0.090636
111.791,72.7386,-0.090636
111.822,72.7324,-0.090636
111.852,72.7265,-0.071133
111.884,72.7200,-0.071133
111.916,72.7135,-0.071133
111.946,72.7075,-0.071133
111.978,72.7013,-0.071133
112.009,72.6948,-0.071133
112.040,72.6888,-0.071133
112.071,72.6824,-0.048625
112.102,72.6764,-0.048625
112.133,72.6700,-0.048625
112.164,72.6641,-0.048625
112.196,72.6575,-0.048625
112.227,72.6514,-0.048625
112.258,72.6451,-0.048625
112.289,72.6389,-0.048625
112.320,72.6327,-0.028943
112.351,72.6266,-0.028943
112.382,72.6202,-0.028943
112.413,72.6142,-0.028943
112.445,72.6074,-0.028943
112.476,72.6016,-0.028943
112.507,72.5954,-0.028943
112.538,72.5892,-0.028943
112.569,72.5829,-0.028943
112.602,72.5763,-0.011438
112.631,72.5705,-0.011438
112.662,72.5643,-0.011438
112.693,72.5582,-0.011438
112.723,72.5521,-0.011438
112.755,72.5459,-0.011438
112.786,72.5396,-0.011438
112.817,72.5334,-0.011438
112.848,72.5272,0.004004
112.879,72.5208,0.004004
112.909,72.5149,0.004004
112.940,72.5087,0.004004
112.972,72.5022,0.004004
113.002,72.4962,0.004004
113.033,72.4902,0.004004
113.065,72.4839,0.017628
113.095,72.4778,0.017628
113.126,72.4716,0.017628
113.157,72.4653,0.017628
113.188,72.4592,0.017628
113.220,72.4528,0.017628
113.251,72.4467,0.017628
113.282,72.4404,0.017628
113.312,72.4343,0.029866
113.344,72.4280,0.029866
113.374,72.4219,0.029866
113.406,72.4154,0.029866
113.437,72.4095,0.029866
113.469,72.4029,0.029866
113.500,72.3967,0.029866
113.531,72.3904,0.029866
113.562,72.3843,0.040946
113.593,72.3782,0.040946
113.624,72.3720,0.040946
113.655,72.3658,0.040946
113.686,72.3596,0.040946
113.717,72.3534,0.040946
113.748,72.3472,0.040946
113.779,72.3410,0.040946
113.811,72.3347,0.051282
113.842,72.3284,0.051282
113.873,72.3223,0.051282
113.905,72.3158,0.051282
113.936,72.3096,0.051282
113.967,72.3032,0.051282
113.997,72.2974,0.051282
114.030,72.2909,0.051282
114.061,72.2846,0.061278
114.093,72.2783,0.061278
114.124,72.2721,0.061278
114.155,72.2659,0.061278
114.186,72.2597,0.061278
114.218,72.2531,0.061278
114.248,72.2471,0.061278
114.279,72.2410,0.061278
114.310,72.2347,0.071274
114.340,72.2286,0.071274
114.371,72.2224,0.071274
114.401,72.2166,0.071274
114.432,72.2104,0.071274
114.462,72.2043,0.071274
114.494,72.1979,0.071274
114.525,72.1918,0.071274
114.556,72.1855,0.071274
114.587,72.1793,0.081393
114.620,72.1728,0.081393
114.651,72.1666,0.081393
114.683,72.1602,0.081393
114.714,72.1540,0.081393
114.744,72.1479,0.081393
114.775,72.1418,0.081393
114.806,72.1356,0.092313
114.837,72.1293,0.092313
114.868,72.1233,0.092313
114.898,72.1171,0.092313
114.929,72.1108,0.092313
114.961,72.1047,0.092313
114.991,72.0985,0.092313
115.023,72.0923,0.092313
115.053,72.0861,0.092313
115.084,72.0799,0.104137
115.116,72.0736,0.104137
115.147,72.0674,0.104137
115.178,72.0611,0.104137
115.208,72.0551,0.104137
115.240,72.0488,0.104137
115.270,72.0426,0.104137
115.301,72.0365,0.104137
115.332,72.0305,0.117026
115.363,72.0243,0.117026
115.393,72.0182,0.117026
115.423,72.0121,0.117026
115.455,72.0059,0.117026
115.486,71.9997,0.117026
115.517,71.9934,0.117026
115.549,71.9870,0.117026
115.580,71.9807,0.131497
115.611,71.9746,0.131497
115.641,71.9687,0.131497
115.672,71.9624,0.131497
115.703,71.9563,0.131497
115.734,71.9500,0.131497
115.765,71.9438,0.131497
115.796,71.9376,0.131497
115.826,71.9314,0.147269
115.857,71.9254,0.147269
115.889,71.9190,0.147269
115.920,71.9129,0.147269
115.952,71.9063,0.147269
115.982,71.9004,0.147269
116.013,71.8942,0.147269
116.044,71.8880,0.164624
116.075,71.8819,0.164624
116.106,71.8756,0.164624
116.137,71.8695,0.164624
116.168,71.8631,0.164624
116.199,71.8571,0.164624
116.230,71.8509,0.164624
116.261,71.8445,0.164624
116.293,71.8382,0.164624
116.324,71.8320,0.183457
116.355,71.8258,0.183457
116.386,71.8196,0.183457
116.416,71.8135,0.183457
116.447,71.8072,0.183457
116.478,71.8011,0.183457
116.509,71.7949,0.183457
116.541,71.7886,0.183457
116.572,71.7824,0.183457
116.603,71.7762,0.203620
116.634,71.7700,0.203620
116.666,71.7638,0.203620
116.697,71.7572,0.203620
116.729,71.7510,0.203620
116.759,71.7450,0.203620
116.790,71.7388,0.203620
116.821,71.7326,0.225252
116.852,71.7265,0.225252
116.882,71.7204,0.225252
116.913,71.7141,0.225252
116.944,71.7080,0.225252
116.975,71.7017,0.225252
117.006,71.6957,0.225252
117.036,71.6895,0.225252
117.067,71.6834,0.247788
117.098,71.6772,0.247788
117.129,71.6712,0.247788
117.159,71.6648,0.247788
117.190,71.6588,0.247788
117.222,71.6524,0.247788
117.252,71.6464,0.247788
117.283,71.6403,0.247788
117.314,71.6340,0.271059
117.345,71.6278,0.271059
117.376,71.6216,0.271059
117.407,71.6155,0.271059
117.438,71.6093,0.271059
117.469,71.6031,0.271059
117.500,71.5969,0.271059
117.531,71.5905,0.271059
117.562,71.5845,0.294651
117.593,71.5783,0.294651
117.625,71.5719,0.294651
117.656,71.5656,0.294651
117.687,71.5595,0.294651
117.716,71.5535,0.294651
117.747,71.5474,0.294651
117.779,71.5409,0.294651
117.810,71.5347,0.317800
117.841,71.5284,0.317800
117.872,71.5225,0.317800
117.903,71.5163,0.317800
117.934,71.5099,0.317800
117.966,71.5037,0.317800
117.997,71.4974,0.317800
118.027,71.4913,0.317800
118.058,71.4850,0.317800
118.089,71.4789,0.340026
118.120,71.4728,0.340026
118.150,71.4668,0.340026
118.181,71.4607,0.340026
118.212,71.4545,0.340026
118.243,71.4483,0.340026
118.275,71.4418,0.340026
118.306,71.4356,0.360781
118.337,71.4293,0.360781
118.369,71.4231,0.360781
118.399,71.4168,0.360781
118.431,71.4105,0.360781
118.461,71.4046,0.360781
118.494,71.3979,0.360781
118.524,71.3920,0.360781
118.555,71.3858,0.360781
118.586,71.3796,0.379483
118.617,71.3734,0.379483
118.647,71.3673,0.379483
118.680,71.3607,0.379483
118.710,71.3549,0.379483
118.740,71.3487,0.379483
118.772,71.3425,0.379483
118.802,71.3362,0.379483
118.833,71.3302,0.395227
118.865,71.3238,0.395227
118.895,71.3178,0.395227
118.927,71.3115,0.395227
118.957,71.3054,0.395227
118.989,71.2990,0.395227
119.020,71.2926,0.395227
119.052,71.2864,0.395227
119.083,71.2804,0.407060
119.114,71.2740,0.407060
119.145,71.2680,0.407060
119.175,71.2616,0.407060
119.207,71.2553,0.407060
119.237,71.2495,0.407060
119.268,71.2432,0.407060
119.300,71.2368,0.407060
119.331,71.2306,0.413929
119.363,71.2243,0.413929
119.393,71.2182,0.413929
119.424,71.2120,0.413929
119.455,71.2058,0.413929
119.486,71.1996,0.413929
119.517,71.1933,0.413929
119.548,71.1872,0.413929
119.578,71.1813,0.414013
119.609,71.1751,0.414013
119.639,71.1690,0.414013
119.671,71.1627,0.414013
119.701,71.1566,0.414013
119.732,71.1503,0.414013
119.764,71.1439,0.414013
119.794,71.1380,0.414013
119.825,71.1319,0.400324
119.857,71.1253,0.400324
119.888,71.1193,0.400324
119.919,71.1129,0.400324
119.950,71.1067,0.400324
119.981,71.1005,0.400324
120.013,71.0943,0.400324
120.043,71.0881,0.400324
120.074,71.0818,0.228804
120.105,71.0757,0.228804
120.137,71.0695,0.228804
120.168,71.0632,0.228804
120.199,71.0570,0.228804
120.231,71.0505,0.228804
120.262,71.0445,0.228804
120.293,71.0381,0.228804
120.325,71.0318,0.046326
120.355,71.0257,0.046326
120.386,71.0197,0.046326
120.416,71.0137,0.046326
120.447,71.0075,0.046326
120.478,71.0013,0.046326
120.509,70.9951,0.046326
120.540,70.9888,0.046326
120.571,70.9826,0.022800
120.603,70.9761,0.022800
120.633,70.9702,0.022800
120.664,70.9641,0.022800
120.694,70.9579,0.022800
120.726,70.9516,0.022800
120.757,70.9453,0.022800
120.787,70.9394,0.022800
120.818,70.9332,0.022800
120.849,70.9269,0.021858
120.881,70.9206,0.021858
120.914,70.9140,0.021858
120.943,70.9083,0.021858
120.974,70.9018,0.021858
121.005,70.8959,0.021858
121.036,70.8894,0.021858
121.068,70.8832,0.021858
121.099,70.8769,0.021585
121.129,70.8711,0.021585
121.160,70.8649,0.021585
121.191,70.8586,0.021585
121.223,70.8521,0.021585
121.254,70.8460,0.021585
121.284,70.8400,0.021585
121.316,70.8336,0.021481
121.347,70.8276,0.021481
121.378,70.8212,0.021481
121.409,70.8149,0.021481
121.440,70.8088,0.021481
121.471,70.8026,0.021481
121.502,70.7964,0.021481
121.534,70.7901,0.021481
121.565,70.7839,0.021481
121.597,70.7774,0.021425
121.626,70.7716,0.021425
121.657,70.7654,0.021425
121.689,70.7591,0.021425
121.720,70.7528,0.021425
121.752,70.7464,0.021425
121.782,70.7404,0.021425
121.813,70.7342,0.021349
121.845,70.7280,0.021349
121.876,70.7215,0.021349
121.909,70.7151,0.021349
121.939,70.7091,0.021349
121.971,70.7027,0.021349
122.001,70.6967,0.021349
122.032,70.6905,0.021349
122.063,70.6843,0.021349
122.094,70.6781,0.021340
122.125,70.6719,0.021340
122.156,70.6657,0.021340
122.186,70.6596,0.021340
122.218,70.6534,0.021340
122.248,70.6472,0.021340
122.280,70.6409,0.021340
122.311,70.6346,0.021302
122.343,70.6282,0.021302
122.375,70.6219,0.021302
122.406,70.6157,0.021302
122.438,70.6091,0.021302
122.467,70.6034,0.021302
122.501,70.5967,0.021302
122.531,70.5905,0.021302
122.562,70.5843,0.021283
122.593,70.5781,0.021283
122.624,70.5721,0.021283
122.655,70.5659,0.021283
122.686,70.5594,0.021283
122.719,70.5532,0.021283
122.749,70.5470,0.021283
122.781,70.5407,0.021283
122.812,70.5344,0.021283
122.843,70.5283,0.021302
122.874,70.5220,0.021302
122.906,70.5158,0.021302
122.937,70.5093,0.021302
122.967,70.5034,0.021302
122.999,70.4970,0.021302
123.030,70.4908,0.021302
123.060,70.4848,0.021302
123.091,70.4787,0.021349
123.123,70.4722,0.021349
123.154,70.4659,0.021349
123.185,70.4597,0.021349
123.216,70.4537,0.021349
123.247,70.4475,0.021349
123.278,70.4413,0.021349
123.309,70.4351,0.021302
123.340,70.4287,0.021302
123.371,70.4226,0.021302
123.401,70.4165,0.021302
123.432,70.4103,0.021302
123.464,70.4041,0.021302
123.495,70.3978,0.021302
123.525,70.3917,0.021302
123.557,70.3854,0.021227
123.588,70.3792,0.021227
123.619,70.3731,0.021227
123.650,70.3668,0.021227
123.682,70.3606,0.021227
123.713,70.3543,0.021227
123.744,70.3481,0.021227
123.775,70.3419,0.021227
123.805,70.3357,0.021302
123.837,70.3294,0.021302
123.868,70.3233,0.021302
123.900,70.3168,0.021302
123.930,70.3109,0.021302
123.962,70.3044,0.021302
123.992,70.2985,0.021302
124.024,70.2920,0.021302
124.054,70.2859,0.021302
124.085,70.2799,0.021302
124.116,70.2737,0.021331
124.147,70.2673,0.021331
124.178,70.2611,0.021331
124.209,70.2549,0.021331
124.241,70.2487,0.021331
124.271,70.2424,0.021331
124.304,70.2361,0.021331
124.334,70.2300,0.021331
124.365,70.2241,0.021331
124.395,70.2180,0.021331
124.426,70.2115,0.021331
124.457,70.2056,0.021331
124.488,70.1991,0.021331
124.520,70.1929,0.021331
124.550,70.1867,0.021331
124.580,70.1808,0.021331
124.612,70.1744,0.021378
124.642,70.1685,0.021378
124.673,70.1623,0.021378
124.704,70.1562,0.021378
124.735,70.1499,0.021378
124.765,70.1438,0.021378
124.797,70.1375,0.021378
124.828,70.1312,0.021378
124.859,70.1250,0.021378
124.891,70.1188,0.021378
124.922,70.1126,0.021378
124.953,70.1064,0.021378
124.984,70.0999,0.021378
125.014,70.0941,0.021378
125.045,70.0879,0.021378
125.076,70.0817,0.021387
125.107,70.0755,0.021387
125.138,70.0693,0.021387
125.170,70.0628,0.021387
125.201,70.0566,0.021387
125.231,70.0507,0.021387
125.262,70.0445,0.021387
125.293,70.0383,0.021387
125.324,70.0321,0.021387
125.354,70.0260,0.021387
125.385,70.0198,0.021387
125.416,70.0135,0.021387
125.448,70.0071,0.021387
125.479,70.0011,0.021387
125.510,69.9949,0.021387
125.541,69.9887,0.021387
125.573,69.9825,0.021349
125.604,69.9760,0.021349
125.634,69.9701,0.021349
125.666,69.9637,0.021349
125.696,69.9577,0.021349
125.727,69.9515,0.021349
125.758,69.9451,0.021349
125.789,69.9390,0.021349
125.820,69.9328,0.021406
125.852,69.9265,0.021406
125.882,69.9204,0.021406
125.914,69.9141,0.021406
125.945,69.9079,0.021406
125.977,69.9015,0.021406
126.009,69.8951,0.021406
126.041,69.8886,0.021406
126.071,69.8826,0.021462
126.103,69.8762,0.021462
126.134,69.8701,0.021462
126.165,69.8639,0.021462
126.196,69.8576,0.021462
126.228,69.8514,0.021462
126.258,69.8453,0.021462
126.289,69.8391,0.021462
126.320,69.8330,0.021472
126.351,69.8266,0.021472
126.382,69.8205,0.021472
126.413,69.8143,0.021472
126.444,69.8088,0.021472
126.475,69.8040,0.021472
126.506,69.7999,0.021472
126.537,69.7964,0.021472
126.568,69.7938,0.021378
126.599,69.7918,0.021378
126.630,69.7907,0.021378
126.661,69.7902,0.021378
126.693,69.7902,0.021378
126.723,69.7902,0.021378
126.755,69.7902,0.021378
126.787,69.7902,0.021378
126.817,69.7902,0.021142
126.849,69.7902,0.021142
126.880,69.7902,0.021142
126.910,69.7902,0.021142
126.941,69.7902,0.021142
126.971,69.7902,0.021142
127.002,69.7902,0.021142
127.033,69.7902,0.021142
127.065,69.7902,0.021123
127.097,69.7902,0.021123
127.128,69.7902,0.021123
127.159,69.7902,0.021123
127.191,69.7902,0.021123
127.222,69.7902,0.021123
127.254,69.7902,0.021123
127.286,69.7907,0.021123
127.316,69.7918,0.021161
127.347,69.7937,0.021161
127.378,69.7963,0.021161
127.410,69.7998,0.021161
127.441,69.8040,0.021161
127.471,69.8086,0.021161
127.503,69.8143,0.021161
127.532,69.8200,0.021161
127.564,69.8266,0.021161
127.595,69.8325,0.020897
127.627,69.8390,0.020897
127.657,69.8450,0.020897
127.689,69.8514,0.020897
127.720,69.8576,0.020897
127.751,69.8639,0.020897
127.782,69.8700,0.020897
127.813,69.8763,0.020699
127.845,69.8825,0.020699
127.877,69.8889,0.020699
127.908,69.8954,0.020699
127.938,69.9013,0.020699
127.970,69.9075,0.020699
128.001,69.9137,0.020699
128.031,69.9199,0.020699
128.062,69.9260,0.020699
128.093,69.9322,0.020699
128.125,69.9384,0.020699
128.156,69.9448,0.020699
128.187,69.9510,0.020699
128.218,69.9570,0.020699
128.248,69.9631,0.020699
128.279,69.9693,0.020699
128.310,69.9756,0.020699
128.342,69.9818,0.020652
128.373,69.9882,0.020652
128.406,69.9947,0.020652
128.436,70.0009,0.020652
128.467,70.0070,0.020652
128.498,70.0132,0.020652
128.529,70.0193,0.020652
128.559,70.0255,0.020558
128.590,70.0316,0.020558
128.622,70.0380,0.020558
128.653,70.0441,0.020558
128.684,70.0504,0.020558
128.715,70.0565,0.020558
128.746,70.0628,0.020558
128.777,70.0690,0.020558
128.808,70.0750,0.020558
128.839,70.0813,0.020520
128.869,70.0873,0.020520
128.900,70.0938,0.020520
128.931,70.0997,0.020520
128.962,70.1060,0.020520
128.993,70.1121,0.020520
129.024,70.1184,0.020520
129.055,70.1246,0.020520
129.086,70.1308,0.020483
129.118,70.1371,0.020483
129.149,70.1433,0.020483
129.181,70.1496,0.020483
129.212,70.1560,0.020483
129.244,70.1623,0.020483
129.274,70.1682,0.020483
129.304,70.1744,0.020417
129.336,70.1806,0.020417
129.367,70.1870,0.020417
129.398,70.1932,0.020417
129.429,70.1994,0.020417
129.460,70.2055,0.020417
129.491,70.2118,0.020417
129.522,70.2180,0.020417
129.554,70.2243,0.020417
129.585,70.2305,0.020379
129.615,70.2365,0.020379
129.646,70.2427,0.020379
129.677,70.2489,0.020379
129.708,70.2553,0.020379
129.739,70.2614,0.020379
129.771,70.2677,0.020379
129.802,70.2739,0.020332
129.833,70.2802,0.020332
129.864,70.2866,0.020332
129.896,70.2926,0.020332
129.927,70.2990,0.020332
129.958,70.3053,0.020332
129.988,70.3112,0.020332
130.020,70.3176,0.020332
130.050,70.3236,0.020332
130.081,70.3298,0.020228
130.112,70.3360,0.020228
130.143,70.3424,0.020228
130.175,70.3485,0.020228
130.206,70.3548,0.020228
130.237,70.3609,0.020228
130.269,70.3673,0.020228
130.299,70.3734,0.020228
130.330,70.3797,0.020190
130.362,70.3859,0.020190
130.394,70.3922,0.020190
130.425,70.3986,0.020190
130.456,70.4048,0.020190
130.488,70.4113,0.020190
130.519,70.4174,0.020190
130.550,70.4235,0.020190
130.582,70.4299,0.020172
130.612,70.4359,0.020172
130.643,70.4422,0.020172
130.673,70.4482,0.020172
130.705,70.4545,0.020172
130.735,70.4606,0.020172
130.766,70.4668,0.020172
130.797,70.4730,0.020172
130.829,70.4792,0.020143
130.860,70.4855,0.020143
130.890,70.4917,0.020143
130.921,70.4978,0.020143
130.953,70.5042,0.020143
130.984,70.5103,0.020143
131.015,70.5165,0.020143
131.046,70.5227,0.020143
131.077,70.5289,0.020143
131.108,70.5352,0.020115
131.140,70.5414,0.020115
131.171,70.5478,0.020115
131.202,70.5538,0.020115
131.233,70.5602,0.020115
131.264,70.5662,0.020115
131.295,70.5727,0.020115
131.326,70.5788,0.020030
131.358,70.5852,0.020030
131.389,70.5912,0.020030
131.420,70.5977,0.020030
131.451,70.6038,0.020030
131.483,70.6101,0.020030
131.513,70.6161,0.020030
131.544,70.6223,0.020030
131.575,70.6286,0.019964
131.606,70.6348,0.019964
131.638,70.6410,0.019964
131.669,70.6473,0.019964
131.701,70.6537,0.019964
131.731,70.6597,0.019964
131.763,70.6661,0.019964
131.793,70.6723,0.019964
131.824,70.6784,0.019917
131.856,70.6848,0.019917
131.887,70.6909,0.019917
131.917,70.6972,0.019917
131.948,70.7032,0.019917
131.979,70.7095,0.019917
132.010,70.7156,0.019917
132.041,70.7219,0.019917
132.071,70.7277,0.019870
132.103,70.7342,0.019870
132.134,70.7404,0.019870
132.165,70.7466,0.019870
132.196,70.7528,0.019870
132.227,70.7588,0.019870
132.257,70.7652,0.019870
132.289,70.7712,0.019870
132.320,70.7777,0.019785
132.351,70.7836,0.019785
132.382,70.7900,0.019785
132.412,70.7961,0.019785
132.443,70.8024,0.019785
132.475,70.8085,0.019785
132.506,70.8148,0.019785
132.536,70.8209,0.019785
132.568,70.8271,0.019691
132.599,70.8333,0.019691
132.630,70.8395,0.019691
132.661,70.8458,0.019691
132.692,70.8519,0.019691
132.722,70.8579,0.019691
132.753,70.8641,0.019691
132.784,70.8702,0.019691
132.814,70.8763,0.019625
132.847,70.8829,0.019625
132.877,70.8889,0.019625
132.908,70.8951,0.019625
132.938,70.9012,0.019625
132.970,70.9074,0.019625
133.000,70.9135,0.019625
133.031,70.9196,0.019625
133.060,70.9257,0.019550
133.092,70.9320,0.019550
133.123,70.9381,0.019550
133.155,70.9446,0.019550
133.186,70.9506,0.019550
133.216,70.9569,0.019550
133.247,70.9630,0.019550
133.279,70.9693,0.019550
133.310,70.9754,0.019456
133.341,70.9817,0.019456
133.371,70.9877,0.019456
133.402,70.9941,0.019456
133.433,71.0002,0.019456
133.465,71.0068,0.019456
133.497,71.0128,0.019456
133.529,71.0193,0.019456
133.559,71.0252,0.019390
133.591,71.0317,0.019390
133.622,71.0379,0.019390
133.653,71.0442,0.019390
133.684,71.0504,0.019390
133.715,71.0566,0.019390
133.746,71.0627,0.019390
133.777,71.0689,0.019390
133.808,71.0752,0.019333
133.838,71.0811,0.019333
133.869,71.0874,0.019333
133.900,71.0935,0.019333
133.931,71.0998,0.019333
133.962,71.1060,0.019333
133.994,71.1122,0.019333
134.024,71.1183,0.019333
134.055,71.1246,0.019333
134.087,71.1308,0.019286
134.118,71.1371,0.019286
134.150,71.1434,0.019286
134.181,71.1496,0.019286
134.213,71.1562,0.019286
134.245,71.1624,0.019286
134.275,71.1686,0.019286
134.306,71.1747,0.019286
134.336,71.1808,0.019286
134.367,71.1868,0.019173
134.399,71.1933,0.019173
134.429,71.1994,0.019173
134.460,71.2055,0.019173
134.490,71.2115,0.019173
134.521,71.2177,0.019173
134.552,71.2239,0.019173
134.584,71.2303,0.019173
134.614,71.2362,0.019088
134.645,71.2427,0.019088
134.676,71.2487,0.019088
134.708,71.2551,0.019088
134.738,71.2613,0.019088
134.769,71.2673,0.019088
134.800,71.2735,0.019088
134.832,71.2799,0.018985
134.862,71.2859,0.018985
134.893,71.2923,0.018985
134.925,71.2985,0.018985
134.956,71.3048,0.018985
134.987,71.3109,0.018985
135.018,71.3172,0.018985
135.049,71.3235,0.018985
135.080,71.3296,0.018806
135.111,71.3357,0.018806
135.143,71.3422,0.018806
135.174,71.3482,0.018806
135.204,71.3545,0.018806
135.235,71.3606,0.018806
135.266,71.3667,0.018806
135.297,71.3729,0.018806
135.327,71.3790,0.018730
135.358,71.3853,0.018730
135.389,71.3912,0.018730
135.419,71.3974,0.018730
135.451,71.4036,0.018730
135.482,71.4100,0.018730
135.513,71.4162,0.018730
135.543,71.4221,0.018730
135.574,71.4282,0.018617
135.605,71.4345,0.018617
135.635,71.4405,0.018617
135.667,71.4468,0.018617
135.697,71.4529,0.018617
135.729,71.4593,0.018617
135.760,71.4657,0.018617
135.791,71.4716,0.018617
135.822,71.4778,0.018419
135.854,71.4843,0.018419
135.885,71.4905,0.018419
135.916,71.4969,0.018419
135.947,71.5029,0.018419
135.977,71.5089,0.018419
136.008,71.5153,0.018419
136.039,71.5212,0.018419
136.071,71.5278,0.018212
136.101,71.5339,0.018212
136.132,71.5398,0.018212
136.163,71.5460,0.018212
136.195,71.5525,0.018212
136.224,71.5583,0.018212
136.255,71.5646,0.018212
136.287,71.5709,0.018212
136.318,71.5773,0.017976
136.349,71.5834,0.017976
136.380,71.5896,0.017976
136.410,71.5956,0.017976
136.441,71.6017,0.017976
136.471,71.6079,0.017976
136.502,71.6139,0.017976
136.532,71.6201,0.017976
136.563,71.6260,0.017976
136.594,71.6323,0.017684
136.625,71.6384,0.017684
136.656,71.6447,0.017684
136.687,71.6509,0.017684
136.717,71.6569,0.017684
136.748,71.6631,0.017684
136.780,71.6694,0.017684
136.811,71.6757,0.017684
136.842,71.6820,0.017326
136.873,71.6882,0.017326
136.904,71.6944,0.017326
136.935,71.7006,0.017326
136.967,71.7069,0.017326
136.998,71.7132,0.017326
137.029,71.7195,0.017326
137.059,71.7254,0.017326
137.090,71.7314,0.017326
137.121,71.7378,0.016968
137.152,71.7440,0.016968
137.182,71.7499,0.016968
137.214,71.7562,0.016968
137.245,71.7626,0.016968
137.276,71.7686,0.016968
137.307,71.7750,0.016968
137.339,71.7812,0.016582
137.370,71.7875,0.016582
137.401,71.7937,0.016582
137.432,71.7999,0.016582
137.463,71.8061,0.016582
137.494,71.8123,0.016582
137.525,71.8184,0.016582
137.556,71.8247,0.016582
137.587,71.8308,0.016073
137.619,71.8374,0.016073
137.650,71.8433,0.016073
137.681,71.8498,0.016073
137.711,71.8558,0.016073
137.742,71.8619,0.016073
137.773,71.8680,0.016073
137.804,71.8743,0.016073
137.835,71.8804,0.015423
137.867,71.8870,0.015423
137.897,71.8928,0.015423
137.928,71.8991,0.015423
137.959,71.9052,0.015423
137.990,71.9115,0.015423
138.021,71.9176,0.015423
138.053,71.9240,0.015423
138.084,71.9302,0.014613
138.115,71.9364,0.014613
138.145,71.9425,0.014613
138.176,71.9487,0.014613
138.206,71.9548,0.014613
138.238,71.9610,0.014613
138.268,71.9672,0.014613
138.299,71.9733,0.014613
138.330,71.9795,0.013567
138.362,71.9858,0.013567
138.392,71.9919,0.013567
138.423,71.9981,0.013567
138.455,72.0044,0.013567
138.487,72.0110,0.013567
138.517,72.0169,0.013567
138.548,72.0231,0.013567
138.580,72.0293,0.012295
138.610,72.0355,0.012295
138.641,72.0416,0.012295
138.672,72.0478,0.012295
138.704,72.0541,0.012295
138.735,72.0603,0.012295
138.766,72.0667,0.012295
138.797,72.0727,0.012295
138.827,72.0791,0.010712
138.858,72.0852,0.010712
138.890,72.0915,0.010712
138.921,72.0976,0.010712
138.952,72.1040,0.010712
138.984,72.1102,0.010712
139.014,72.1165,0.010712
139.046,72.1226,0.010712
139.077,72.1291,0.008706
139.109,72.1353,0.008706
139.141,72.1418,0.008706
139.173,72.1482,0.008706
139.204,72.1545,0.008706
139.235,72.1604,0.008706
139.266,72.1666,0.008706
139.297,72.1730,0.008706
139.327,72.1789,0.006284
139.359,72.1854,0.006284
139.390,72.1914,0.006284
139.421,72.1976,0.006284
139.451,72.2036,0.006284
139.482,72.2099,0.006284
139.514,72.2162,0.006284
139.544,72.2223,0.006284
139.575,72.2284,0.003307
139.605,72.2346,0.003307
139.636,72.2407,0.003307
139.667,72.2469,0.003307
139.698,72.2531,0.003307
139.729,72.2593,0.003307
139.761,72.2657,0.003307
139.792,72.2719,0.003307
139.822,72.2778,-0.000415
139.853,72.2841,-0.000415
139.884,72.2903,-0.000415
139.916,72.2966,-0.000415
139.946,72.3026,-0.000415
139.976,72.3088,-0.000415
140.007,72.3147,-0.000415
140.038,72.3212,-0.000415
140.070,72.3275,-0.004909
140.101,72.3338,-0.004909
140.133,72.3401,-0.004909
140.163,72.3462,-0.004909
140.194,72.3523,-0.004909
140.226,72.3587,-0.004909
140.257,72.3649,-0.004909
140.289,72.3711,-0.004909
140.320,72.3773,-0.004909
140.351,72.3836,-0.010354
140.382,72.3899,-0.010354
140.412,72.3958,-0.010354
140.443,72.4022,-0.010354
140.474,72.4082,-0.010354
140.505,72.4146,-0.010354
140.537,72.4209,-0.010354
140.568,72.4271,-0.010354
140.599,72.4333,-0.016912
140.631,72.4396,-0.016912
140.662,72.4458,-0.016912
140.692,72.4519,-0.016912
140.723,72.4580,-0.016912
140.754,72.4643,-0.016912
140.785,72.4704,-0.016912
140.816,72.4767,-0.016912
140.846,72.4829,-0.024694
140.878,72.4890,-0.024694
140.908,72.4950,-0.024694
140.939,72.5012,-0.024694
140.971,72.5076,-0.024694
141.002,72.5139,-0.024694
141.032,72.5199,-0.024694
141.064,72.5264,-0.024694
141.095,72.5325,-0.033993
141.126,72.5388,-0.033993
141.157,72.5449,-0.033993
141.187,72.5511,-0.033993
141.218,72.5571,-0.033993
141.250,72.5636,-0.033993
141.281,72.5696,-0.033993
141.311,72.5757,-0.033993
141.342,72.5819,-0.044800
141.374,72.5882,-0.044800
141.405,72.5945,-0.044800
141.436,72.6006,-0.044800
141.467,72.6069,-0.044800
141.501,72.6137,-0.044800
141.530,72.6194,-0.044800
141.562,72.6259,-0.044800
141.591,72.6317,-0.044800
141.622,72.6379,-0.057378
141.652,72.6440,-0.057378
141.683,72.6502,-0.057378
141.714,72.6564,-0.057378
141.746,72.6627,-0.057378
141.777,72.6689,-0.057378
141.808,72.6753,-0.057378
141.840,72.6815,-0.071915
141.870,72.6877,-0.071915
141.900,72.6935,-0.071915
141.932,72.6997,-0.071915
141.963,72.7061,-0.071915
141.994,72.7122,-0.071915
142.025,72.7187,-0.071915
142.057,72.7249,-0.071915
142.088,72.7311,-0.088412
142.121,72.7376,-0.088412
142.150,72.7435,-0.088412
142.181,72.7498,-0.088412
142.212,72.7559,-0.088412
142.243,72.7621,-0.088412
142.274,72.7680,-0.088412
142.306,72.7736,-0.088412
142.336,72.7779,-0.088412
142.367,72.7818,-0.107331
142.397,72.7849,-0.107331
142.427,72.7872,-0.107331
142.458,72.7890,-0.107331
142.489,72.7900,-0.107331
142.521,72.7902,-0.107331
142.551,72.7902,-0.107331
142.582,72.7902,-0.107331
142.613,72.7902,-0.124403
142.644,72.7902,-0.124403
142.675,72.7902,-0.124403
142.706,72.7902,-0.124403
142.737,72.7902,-0.124403
142.768,72.7902,-0.124403
142.800,72.7902,-0.124403
142.830,72.7902,-0.124403
142.862,72.7902,-0.130103
142.893,72.7902,-0.130103
142.924,72.7902,-0.130103
142.956,72.7902,-0.130103
142.987,72.7902,-0.130103
143.018,72.7902,-0.130103
143.047,72.7902,-0.130103
143.079,72.7902,-0.127154
143.110,72.7902,-0.127154
143.141,72.7902,-0.127154
143.172,72.7902,-0.127154
143.202,72.7902,-0.127154
143.233,72.7902,-0.127154
143.265,72.7902,-0.127154
143.297,72.7902,-0.127154
143.326,72.7902,-0.127154
143.356,72.7902,-0.124092
143.388,72.7902,-0.124092
143.421,72.7902,-0.124092
143.451,72.7902,-0.124092
143.484,72.7902,-0.124092
143.515,72.7902,-0.124092
143.547,72.7902,-0.124092
143.579,72.7902,-0.121699
143.610,72.7902,-0.121699
143.642,72.7902,-0.121699
143.673,72.7902,-0.121699
143.704,72.7902,-0.121699
143.735,72.7902,-0.121699
143.765,72.7902,-0.121699
143.797,72.7902,-0.121699
143.827,72.7902,-0.119739
143.858,72.7902,-0.119739
143.889,72.7902,-0.119739
143.921,72.7902,-0.119739
143.952,72.7902,-0.119739
143.983,72.7902,-0.119739
144.014,72.7902,-0.119739
144.046,72.7902,-0.119739
144.076,72.7902,-0.119739
144.108,72.7902,-0.118090
144.139,72.7902,-0.118090
144.170,72.7902,-0.118090
144.201,72.7902,-0.118090
144.232,72.7902,-0.118090
144.263,72.7902,-0.118090
144.294,72.7902,-0.118090
144.325,72.7902,-0.116630
144.356,72.7902,-0.116630
144.386,72.7902,-0.116630
144.417,72.7902,-0.116630
144.448,72.7902,-0.116630
144.479,72.7902,-0.116630
144.510,72.7902,-0.116630
144.540,72.7902,-0.116630
144.571,72.7902,-0.116630
144.602,72.7902,-0.115226
144.634,72.7902,-0.115226
144.666,72.7902,-0.115226
144.697,72.7902,-0.115226
144.727,72.7902,-0.115226
144.759,72.7902,-0.115226
144.789,72.7902,-0.115226
144.820,72.7902,-0.115226
144.851,72.7902,-0.114030
144.881,72.7902,-0.114030
144.912,72.7902,-0.114030
144.944,72.7902,-0.114030
144.975,72.7902,-0.114030
145.007,72.7902,-0.114030
145.038,72.7902,-0.114030
145.068,72.7902,-0.114030
145.100,72.7902,-0.112984
145.131,72.7902,-0.112984
145.162,72.7902,-0.112984
145.193,72.7902,-0.112984
145.225,72.7902,-0.112984
145.256,72.7902,-0.112984
145.288,72.7902,-0.112984
145.317,72.7902,-0.111957
145.349,72.7902,-0.111957
145.381,72.7902,-0.111957
145.412,72.7902,-0.111957
145.443,72.7902,-0.111957
145.475,72.7902,-0.111957
145.506,72.7902,-0.111957
145.538,72.7902,-0.111957
145.570,72.7902,-0.111024
145.602,72.7902,-0.111024
145.633,72.7902,-0.111024
145.664,72.7902,-0.111024
145.693,72.7902,-0.111024
145.724,72.7902,-0.111024
145.756,72.7902,-0.111024
145.786,72.7902,-0.111024
145.816,72.7902,-0.111024
145.847,72.7902,-0.110233
145.878,72.7902,-0.110233
145.909,72.7902,-0.110233
145.939,72.7902,-0.110233
145.970,72.7902,-0.110233
146.001,72.7902,-0.110233
146.032,72.7902,-0.110233
146.063,72.7902,-0.109422
146.094,72.7902,-0.109422
146.125,72.7902,-0.109422
146.156,72.7902,-0.109422
146.188,72.7902,-0.109422
146.219,72.7902,-0.109422
146.250,72.7902,-0.109422
146.280,72.7902,-0.109422
146.310,72.7902,-0.108612
146.342,72.7902,-0.108612
146.374,72.7902,-0.108612
146.405,72.7902,-0.108612
146.436,72.7902,-0.108612
146.467,72.7902,-0.108612
146.497,72.7902,-0.108612
146.529,72.7902,-0.108612
146.560,72.7902,-0.106897
146.591,72.7902,-0.106897
146.622,72.7902,-0.106897
146.654,72.7902,-0.106897
146.685,72.7902,-0.106897
146.716,72.7902,-0.106897
146.747,72.7902,-0.106897
146.780,72.7902,-0.106897
146.810,72.7902,-0.103242
146.841,72.7902,-0.103242
146.871,72.7902,-0.103242
146.902,72.7902,-0.103242
146.934,72.7902,-0.103242
146.965,72.7902,-0.103242
146.996,72.7902,-0.103242
147.027,72.7900,-0.103242
147.058,72.7890,-0.103242
147.088,72.7874,-0.100001
147.119,72.7850,-0.100001
147.151,72.7818,-0.100001
147.181,72.7781,-0.100001
147.213,72.7732,-0.100001
147.244,72.7680,-0.100001
147.276,72.7616,-0.100001
147.305,72.7560,-0.095799
147.336,72.7498,-0.095799
147.367,72.7433,-0.095799
147.399,72.7373,-0.095799
147.430,72.7308,-0.095799
147.462,72.7246,-0.095799
147.492,72.7185,-0.095799
147.524,72.7122,-0.095799
147.555,72.7060,-0.095799
147.585,72.6998,-0.095799
147.616,72.6936,-0.080630
147.648,72.6874,-0.080630
147.679,72.6811,-0.080630
147.710,72.6749,-0.080630
147.741,72.6688,-0.080630
147.772,72.6625,-0.080630
147.804,72.6560,-0.080630
147.835,72.6500,-0.057670
147.867,72.6436,-0.057670
147.898,72.6373,-0.057670
147.929,72.6311,-0.057670
147.961,72.6248,-0.057670
147.991,72.6187,-0.057670
148.023,72.6124,-0.057670
148.054,72.6062,-0.057670
148.084,72.6002,-0.036801
148.115,72.5939,-0.036801
148.147,72.5877,-0.036801
148.178,72.5815,-0.036801
148.209,72.5752,-0.036801
148.240,72.5688,-0.036801
148.270,72.5629,-0.036801
148.301,72.5566,-0.036801
148.333,72.5504,-0.018278
148.365,72.5439,-0.018278
148.396,72.5378,-0.018278
148.427,72.5315,-0.018278
148.458,72.5254,-0.018278
148.489,72.5192,-0.018278
148.519,72.5129,-0.018278
148.550,72.5070,-0.018278
148.581,72.5008,-0.002082
148.613,72.4944,-0.002082
148.644,72.4882,-0.002082
148.675,72.4818,-0.002082
148.706,72.4758,-0.002082
148.737,72.4695,-0.002082
148.768,72.4633,-0.002082
148.800,72.4568,-0.002082
148.831,72.4508,0.012248
148.862,72.4444,0.012248
148.893,72.4382,0.012248
148.924,72.4320,0.012248
148.955,72.4260,0.012248
148.987,72.4195,0.012248
149.017,72.4136,0.012248
149.047,72.4074,0.012248
149.079,72.4012,0.025043
149.111,72.3946,0.025043
149.141,72.3888,0.025043
149.172,72.3826,0.025043
149.202,72.3766,0.025043
149.233,72.3704,0.025043
149.263,72.3643,0.025043
149.295,72.3580,0.025043
149.325,72.3519,0.036556
149.357,72.3456,0.036556
149.388,72.3395,0.036556
149.419,72.3331,0.036556
149.451,72.3269,0.036556
149.481,72.3208,0.036556
149.512,72.3147,0.036556
149.542,72.3085,0.036556
149.573,72.3024,0.047259
149.604,72.2960,0.047259
149.636,72.2898,0.047259
149.667,72.2835,0.047259
149.698,72.2774,0.047259
149.730,72.2711,0.047259
149.761,72.2649,0.047259
149.792,72.2585,0.047259
149.823,72.2525,0.057415
149.854,72.2460,0.057415
149.885,72.2399,0.057415
149.916,72.2337,0.057415
149.948,72.2273,0.057415
149.978,72.2215,0.057415
150.008,72.2153,0.057415
150.039,72.2090,0.057415
150.070,72.2028,0.067430
150.101,72.1965,0.067430
150.133,72.1902,0.067430
150.164,72.1841,0.067430
150.195,72.1778,0.067430
150.227,72.1715,0.067430
150.258,72.1654,0.067430
150.288,72.1592,0.067430
150.319,72.1531,0.077502
150.350,72.1468,0.077502
150.381,72.1408,0.077502
150.412,72.1346,0.077502
150.442,72.1287,0.077502
150.473,72.1224,0.077502
150.505,72.1160,0.077502
150.535,72.1100,0.077502
150.566,72.1038,0.088158
150.598,72.0974,0.088158
150.629,72.0911,0.088158
150.660,72.0849,0.088158
150.692,72.0786,0.088158
150.721,72.0726,0.088158
150.752,72.0665,0.088158
150.783,72.0603,0.088158
150.814,72.0543,0.099652
150.844,72.0481,0.099652
150.875,72.0420,0.099652
150.907,72.0355,0.099652
150.938,72.0295,0.099652
150.970,72.0229,0.099652
151.000,72.0169,0.099652
151.031,72.0107,0.099652
151.062,72.0047,0.099652
151.093,71.9983,0.112192
151.125,71.9918,0.112192
151.156,71.9857,0.112192
151.188,71.9794,0.112192
151.218,71.9732,0.112192
151.250,71.9670,0.112192
151.280,71.9610,0.112192
151.311,71.9548,0.112192
151.342,71.9486,0.126061
151.373,71.9423,0.126061
151.403,71.9364,0.126061
151.433,71.9304,0.126061
151.465,71.9240,0.126061
151.495,71.9180,0.126061
151.527,71.9116,0.126061
151.557,71.9056,0.126061
151.588,71.8994,0.141362
151.620,71.8930,0.141362
151.650,71.8870,0.141362
151.682,71.8805,0.141362
151.712,71.8746,0.141362
151.744,71.8682,0.141362
151.775,71.8620,0.141362
151.808,71.8555,0.141362
151.838,71.8494,0.158273
151.869,71.8431,0.158273
151.900,71.8370,0.158273
151.930,71.8310,0.158273
151.961,71.8248,0.158273
151.992,71.8185,0.158273
152.021,71.8127,0.158273
152.053,71.8063,0.158273
152.085,71.8001,0.176646
152.114,71.7941,0.176646
152.145,71.7879,0.176646
152.177,71.7815,0.176646
152.207,71.7756,0.176646
152.238,71.7694,0.176646
152.269,71.7632,0.176646
152.301,71.7567,0.176646
152.332,71.7505,0.196601
152.363,71.7443,0.196601
152.394,71.7380,0.196601
152.425,71.7319,0.196601
152.456,71.7257,0.196601
152.487,71.7194,0.196601
152.518,71.7133,0.196601
152.549,71.7071,0.196601
152.579,71.7012,0.218016
152.610,71.6948,0.218016
152.640,71.6889,0.218016
152.671,71.6827,0.218016
152.702,71.6766,0.218016
152.733,71.6704,0.218016
152.764,71.6642,0.218016
152.796,71.6579,0.218016
152.827,71.6517,0.240590
152.857,71.6455,0.240590
152.889,71.6393,0.240590
152.920,71.6330,0.240590
152.951,71.6268,0.240590
152.982,71.6204,0.240590
153.014,71.6142,0.240590
153.044,71.6080,0.240590
153.076,71.6017,0.264125
153.107,71.5956,0.264125
153.138,71.5894,0.264125
153.169,71.5832,0.264125
153.200,71.5768,0.264125
153.231,71.5708,0.264125
153.261,71.5647,0.264125
153.292,71.5585,0.264125
153.323,71.5525,0.288235
153.354,71.5461,0.288235
153.386,71.5398,0.288235
153.416,71.5337,0.288235
153.447,71.5275,0.288235
153.478,71.5213,0.288235
153.510,71.5151,0.288235
153.540,71.5089,0.288235
153.572,71.5027,0.312505
153.602,71.4965,0.312505
153.634,71.4901,0.312505
153.665,71.4841,0.312505
153.695,71.4779,0.312505
153.727,71.4716,0.312505
153.758,71.4655,0.312505
153.789,71.4592,0.312505
153.820,71.4531,0.336172
153.851,71.4469,0.336172
153.882,71.4407,0.336172
153.913,71.4345,0.336172
153.944,71.4283,0.336172
153.974,71.4220,0.336172
154.006,71.4158,0.336172
154.037,71.4095,0.336172
154.069,71.4033,0.358652
154.100,71.3969,0.358652
154.131,71.3909,0.358652
154.163,71.3845,0.358652
154.193,71.3785,0.358652
154.224,71.3721,0.358652
154.255,71.3659,0.358652
154.286,71.3597,0.358652
154.317,71.3534,0.379577
154.347,71.3475,0.379577
154.378,71.3411,0.379577
154.408,71.3353,0.379577
154.439,71.3291,0.379577
154.471,71.3229,0.379577
154.501,71.3166,0.379577
154.533,71.3104,0.379577
154.564,71.3043,0.398091
154.595,71.2981,0.398091
154.626,71.2918,0.398091
154.658,71.2853,0.398091
154.689,71.2792,0.398091
154.720,71.2729,0.398091
154.752,71.2666,0.398091
154.782,71.2606,0.398091
154.813,71.2542,0.413194
154.844,71.2481,0.413194
154.875,71.2418,0.413194
154.907,71.2355,0.413194
154.939,71.2291,0.413194
154.970,71.2231,0.413194
155.000,71.2169,0.413194
155.032,71.2107,0.413194
155.064,71.2041,0.423708
155.095,71.1980,0.423708
155.126,71.1918,0.423708
155.158,71.1855,0.423708
155.189,71.1790,0.423708
155.220,71.1731,0.423708
155.251,71.1669,0.423708
155.282,71.1606,0.423708
155.313,71.1544,0.428485
155.345,71.1479,0.428485
155.375,71.1421,0.428485
155.405,71.1359,0.428485
155.436,71.1298,0.428485
155.468,71.1235,0.428485
155.497,71.1178,0.428485
155.529,71.1112,0.428485
155.560,71.1050,0.425555
155.592,71.0987,0.425555
155.623,71.0925,0.425555
155.655,71.0860,0.425555
155.686,71.0798,0.425555
155.716,71.0739,0.425555
155.746,71.0677,0.425555
155.777,71.0616,0.425555
155.808,71.0554,0.402293
155.839,71.0492,0.402293
155.871,71.0427,0.402293
155.900,71.0368,0.402293
155.931,71.0307,0.402293
155.962,71.0245,0.402293
155.993,71.0184,0.402293
156.024,71.0121,0.402293
156.054,71.0063,0.402293
156.085,70.9998,0.207822
156.117,70.9937,0.207822
156.148,70.9873,0.207822
156.180,70.9811,0.207822
156.211,70.9746,0.207822
156.243,70.9683,0.207822
156.274,70.9622,0.207822
156.306,70.9558,0.207822
156.336,70.9497,0.027897
156.367,70.9434,0.027897
156.399,70.9373,0.027897
156.430,70.9310,0.027897
156.461,70.9249,0.027897
156.492,70.9186,0.027897
156.522,70.9125,0.027897
156.554,70.9063,0.027897
156.584,70.9001,0.022461
156.616,70.8939,0.022461
156.646,70.8877,0.022461
156.678,70.8815,0.022461
156.709,70.8751,0.022461
156.740,70.8690,0.022461
156.771,70.8628,0.022461
156.802,70.8566,0.022461
156.834,70.8501,0.021792
156.866,70.8438,0.021792
156.897,70.8377,0.021792
156.927,70.8315,0.021792
156.959,70.8253,0.021792
156.990,70.8189,0.021792
157.021,70.8129,0.021792
157.053,70.8063,0.021792
157.082,70.8005,0.021792
157.114,70.7943,0.021585
157.144,70.7881,0.021585
157.176,70.7819,0.021585
157.207,70.7756,0.021585
157.239,70.7693,0.021585
157.270,70.7631,0.021585
157.302,70.7567,0.021585
157.331,70.7508,0.021585
157.363,70.7445,0.021462
157.393,70.7384,0.021462
157.425,70.7319,0.021462
157.454,70.7260,0.021462
157.487,70.7198,0.021462
157.517,70.7137,0.021462
157.548,70.7075,0.021462
157.578,70.7013,0.021359
157.610,70.6948,0.021359
157.641,70.6888,0.021359
157.672,70.6826,0.021359
157.703,70.6764,0.021359
157.734,70.6700,0.021359
157.766,70.6638,0.021359
157.797,70.6575,0.021359
157.828,70.6513,0.021359
157.862,70.6447,0.021349
157.891,70.6388,0.021349
157.923,70.6323,0.021349
157.953,70.6263,0.021349
157.984,70.6201,0.021349
158.016,70.6137,0.021349
158.046,70.6078,0.021349
158.077,70.6016,0.021349
158.108,70.5954,0.021349
158.139,70.5891,0.021349
158.170,70.5829,0.021349
158.201,70.5769,0.021349
158.232,70.5707,0.021349
158.263,70.5644,0.021349
158.295,70.5579,0.021349
158.325,70.5522,0.021349
158.355,70.5460,0.021293
158.386,70.5398,0.021293
158.416,70.5337,0.021293
158.447,70.5274,0.021293
158.478,70.5213,0.021293
158.509,70.5151,0.021293
158.540,70.5091,0.021293
158.572,70.5026,0.021359
158.602,70.4965,0.021359
158.633,70.4903,0.021359
158.664,70.4844,0.021359
158.695,70.4779,0.021359
158.725,70.4720,0.021359
158.756,70.4657,0.021359
158.787,70.4597,0.021359
158.817,70.4535,0.021340
158.848,70.4475,0.021340
158.878,70.4413,0.021340
158.909,70.4353,0.021340
158.940,70.4291,0.021340
158.972,70.4226,0.021340
159.002,70.4167,0.021340
159.033,70.4103,0.021340
159.064,70.4044,0.021312
159.095,70.3981,0.021312
159.126,70.3919,0.021312
159.156,70.3859,0.021312
159.187,70.3797,0.021312
159.218,70.3734,0.021312
159.249,70.3672,0.021312
159.281,70.3609,0.021312
159.312,70.3547,0.021359
159.344,70.3483,0.021359
159.375,70.3421,0.021359
159.406,70.3358,0.021359
159.437,70.3296,0.021359
159.469,70.3233,0.021359
159.500,70.3172,0.021359
159.531,70.3107,0.021359
159.562,70.3047,0.021349
159.594,70.2982,0.021349
159.624,70.2920,0.021349
159.656,70.2859,0.021349
159.686,70.2799,0.021349
159.718,70.2734,0.021349
159.749,70.2673,0.021349
159.779,70.2610,0.021349
159.810,70.2551,0.021349
159.842,70.2486,0.021349
159.872,70.2427,0.021349
159.904,70.2362,0.021349
159.935,70.2300,0.021349
159.966,70.2238,0.021349
159.997,70.2177,0.021349
160.028,70.2114,0.021349
160.058,70.2055,0.021340
160.090,70.1990,0.021340
160.121,70.1928,0.021340
160.153,70.1864,0.021340
160.185,70.1800,0.021340
160.216,70.1738,0.021340
160.246,70.1677,0.021340
160.278,70.1614,0.021340
160.308,70.1552,0.021340
160.339,70.1493,0.021387
160.370,70.1432,0.021387
160.400,70.1370,0.021387
160.431,70.1308,0.021387
160.462,70.1247,0.021387
160.492,70.1186,0.021387
160.523,70.1124,0.021387
160.555,70.1061,0.021387
160.585,70.0999,0.021387
160.616,70.0940,0.021340
160.646,70.0878,0.021340
160.678,70.0816,0.021340
160.709,70.0752,0.021340
160.739,70.0691,0.021340
160.771,70.0629,0.021340
160.801,70.0566,0.021340
160.832,70.0507,0.021340
160.863,70.0445,0.021349
160.893,70.0384,0.021349
160.925,70.0319,0.021349
160.956,70.0257,0.021349
160.987,70.0195,0.021349
161.018,70.0135,0.021349
161.049,70.0071,0.021349
161.081,70.0009,0.021378
161.113,69.9944,0.021378
161.144,69.9882,0.021378
161.175,69.9821,0.021378
161.206,69.9759,0.021378
161.237,69.9697,0.021378
161.267,69.9636,0.021378
161.298,69.9574,0.021378
161.329,69.9512,0.021368
161.360,69.9450,0.021368
161.390,69.9389,0.021368
161.421,69.9327,0.021368
161.453,69.9265,0.021368
161.483,69.9204,0.021368
161.514,69.9144,0.021368
161.545,69.9080,0.021368
161.577,69.9017,0.021415
161.608,69.8954,0.021415
161.639,69.8893,0.021415
161.670,69.8831,0.021415
161.701,69.8769,0.021415
161.732,69.8706,0.021415
161.763,69.8645,0.021415
161.794,69.8582,0.021415
161.826,69.8519,0.021434
161.858,69.8455,0.021434
161.888,69.8392,0.021434
161.920,69.8330,0.021434
161.951,69.8268,0.021434
161.982,69.8206,0.021434
162.013,69.8144,0.021434
162.044,69.8082,0.021434
162.074,69.8021,0.021415
162.106,69.7958,0.021415
162.136,69.7898,0.021415
162.168,69.7835,0.021415
162.199,69.7772,0.021415
162.231,69.7709,0.021415
162.263,69.7645,0.021415
162.293,69.7591,0.021415
162.324,69.7541,0.021434
162.356,69.7499,0.021434
162.388,69.7464,0.021434
162.419,69.7438,0.021434
162.450,69.7420,0.021434
162.481,69.7407,0.021434
162.514,69.7402,0.021434
162.541,69.7402,0.021434
162.572,69.7402,0.021302
162.603,69.7402,0.021302
162.635,69.7402,0.021302
162.665,69.7402,0.021302
162.697,69.7402,0.021302
162.728,69.7402,0.021302
162.759,69.7402,0.021302
162.790,69.7402,0.021302
162.821,69.7402,0.021151
162.852,69.7402,0.021151
162.884,69.7402,0.021151
162.914,69.7402,0.021151
162.945,69.7406,0.021151
162.975,69.7416,0.021151
163.006,69.7435,0.021151
163.037,69.7458,0.021151
163.070,69.7493,0.021095
163.100,69.7531,0.021095
163.132,69.7581,0.021095
163.162,69.7632,0.021095
163.192,69.7693,0.021095
163.224,69.7755,0.021095
163.255,69.7818,0.021095
163.287,69.7882,0.021095
163.317,69.7942,0.021095
163.347,69.8003,0.020878
163.379,69.8066,0.020878
163.410,69.8128,0.020878
163.441,69.8190,0.020878
163.472,69.8253,0.020878
163.503,69.8314,0.020878
163.534,69.8376,0.020878
163.566,69.8439,0.020878
163.596,69.8500,0.020775
163.629,69.8566,0.020775
163.659,69.8625,0.020775
163.690,69.8690,0.020775
163.721,69.8749,0.020775
163.753,69.8814,0.020775
163.783,69.8875,0.020775
163.815,69.8939,0.020775
163.846,69.9000,0.020746
163.876,69.9061,0.020746
163.907,69.9121,0.020746
163.938,69.9186,0.020746
163.971,69.9250,0.020746
164.000,69.9309,0.020746
164.031,69.9371,0.020746
164.062,69.9433,0.020690
164.094,69.9496,0.020690
164.125,69.9557,0.020690
164.156,69.9620,0.020690
164.186,69.9682,0.020690
164.217,69.9741,0.020690
164.248,69.9803,0.020690
164.279,69.9864,0.020690
164.309,69.9925,0.020605
164.340,69.9988,0.020605
164.371,70.0050,0.020605
164.403,70.0114,0.020605
164.434,70.0176,0.020605
164.465,70.0239,0.020605
164.496,70.0301,0.020605
164.528,70.0364,0.020605
164.559,70.0425,0.020501
164.590,70.0488,0.020501
164.622,70.0551,0.020501
164.654,70.0616,0.020501
164.684,70.0675,0.020501
164.715,70.0737,0.020501
164.746,70.0798,0.020501
164.776,70.0860,0.020501
164.807,70.0922,0.020501
164.839,70.0987,0.020454
164.870,70.1046,0.020454
164.901,70.1111,0.020454
164.933,70.1174,0.020454
164.964,70.1235,0.020454
164.995,70.1298,0.020454
165.026,70.1360,0.020454
165.057,70.1422,0.020454
165.089,70.1486,0.020454
165.122,70.1551,0.020407
165.152,70.1612,0.020407
165.183,70.1675,0.020407
165.213,70.1735,0.020407
165.244,70.1795,0.020407
165.276,70.1859,0.020407
165.306,70.1918,0.020407
165.336,70.1981,0.020369
165.367,70.2041,0.020369
165.398,70.2105,0.020369
165.429,70.2166,0.020369
165.460,70.2229,0.020369
165.491,70.2289,0.020369
165.521,70.2351,0.020369
165.553,70.2414,0.020369
165.584,70.2477,0.020369
165.615,70.2538,0.020266
165.646,70.2600,0.020266
165.677,70.2661,0.020266
165.708,70.2723,0.020266
165.738,70.2785,0.020266
165.769,70.2846,0.020266
165.801,70.2909,0.020266
165.832,70.2972,0.020256
165.862,70.3032,0.020256
165.892,70.3091,0.020256
165.923,70.3155,0.020256
165.954,70.3217,0.020256
165.986,70.3279,0.020256
166.017,70.3341,0.020256
166.049,70.3405,0.020256
166.080,70.3467,0.020256
166.111,70.3530,0.020256
166.143,70.3592,0.020256
166.174,70.3657,0.020256
166.206,70.3721,0.020256
166.237,70.3781,0.020256
166.268,70.3844,0.020256
166.299,70.3906,0.020256
166.330,70.3967,0.020172
166.361,70.4030,0.020172
166.392,70.4091,0.020172
166.422,70.4154,0.020172
166.454,70.4215,0.020172
166.484,70.4277,0.020172
166.516,70.4339,0.020172
166.547,70.4404,0.020172
166.578,70.4463,0.020181
166.609,70.4526,0.020181
166.640,70.4587,0.020181
166.672,70.4653,0.020181
166.702,70.4712,0.020181
166.735,70.4779,0.020181
166.765,70.4836,0.020181
166.795,70.4898,0.020181
166.827,70.4960,0.020087
166.858,70.5024,0.020087
166.889,70.5087,0.020087
166.921,70.5150,0.020087
166.951,70.5210,0.020087
166.982,70.5272,0.020087
167.013,70.5334,0.020087
167.044,70.5396,0.020087
167.075,70.5458,0.019993
167.107,70.5523,0.019993
167.137,70.5582,0.019993
167.168,70.5644,0.019993
167.200,70.5707,0.019993
167.230,70.5768,0.019993
167.261,70.5829,0.019993
167.292,70.5893,0.019993
167.323,70.5954,0.019964
167.354,70.6016,0.019964
167.385,70.6078,0.019964
167.415,70.6139,0.019964
167.447,70.6203,0.019964
167.477,70.6263,0.019964
167.508,70.6325,0.019964
167.540,70.6388,0.019964
167.571,70.6451,0.019870
167.602,70.6512,0.019870
167.633,70.6575,0.019870
167.666,70.6638,0.019870
167.696,70.6700,0.019870
167.727,70.6762,0.019870
167.758,70.6826,0.019870
167.789,70.6886,0.019870
167.820,70.6947,0.019832
167.851,70.7009,0.019832
167.882,70.7070,0.019832
167.913,70.7135,0.019832
167.944,70.7197,0.019832
167.975,70.7256,0.019832
168.006,70.7321,0.019832
168.037,70.7380,0.019832
168.067,70.7442,0.019832
168.099,70.7505,0.019785
168.130,70.7569,0.019785
168.163,70.7633,0.019785
168.192,70.7693,0.019785
168.224,70.7756,0.019785
168.256,70.7819,0.019785
168.286,70.7880,0.019785
168.317,70.7941,0.019785
168.348,70.8003,0.019719
168.379,70.8066,0.019719
168.409,70.8125,0.019719
168.440,70.8187,0.019719
168.471,70.8249,0.019719
168.501,70.8310,0.019719
168.533,70.8374,0.019719
168.563,70.8436,0.019719
168.594,70.8498,0.019663
168.626,70.8560,0.019663
168.657,70.8622,0.019663
168.687,70.8682,0.019663
168.719,70.8746,0.019663
168.750,70.8809,0.019663
168.782,70.8872,0.019663
168.813,70.8934,0.019588
168.844,70.8997,0.019588
168.876,70.9059,0.019588
168.908,70.9124,0.019588
168.939,70.9186,0.019588
168.971,70.9253,0.019588
169.001,70.9309,0.019588
169.032,70.9371,0.019588
169.063,70.9433,0.019550
169.094,70.9497,0.019550
169.126,70.9560,0.019550
169.158,70.9624,0.019550
169.187,70.9681,0.019550
169.218,70.9744,0.019550
169.249,70.9805,0.019550
169.279,70.9866,0.019550
169.310,70.9929,0.019550
169.341,70.9988,0.019493
169.372,71.0050,0.019493
169.404,71.0116,0.019493
169.434,71.0176,0.019493
169.465,71.0236,0.019493
169.496,71.0298,0.019493
169.527,71.0360,0.019493
169.558,71.0425,0.019371
169.588,71.0484,0.019371
169.620,71.0548,0.019371
169.651,71.0611,0.019371
169.682,71.0673,0.019371
169.714,71.0737,0.019371
169.745,71.0797,0.019371
169.776,71.0861,0.019371
169.807,71.0923,0.019286
169.838,71.0983,0.019286
169.869,71.1046,0.019286
169.899,71.1106,0.019286
169.931,71.1170,0.019286
169.962,71.1230,0.019286
169.993,71.1293,0.019286
170.024,71.1354,0.019286
170.054,71.1417,0.019211
170.086,71.1478,0.019211
170.116,71.1541,0.019211
170.147,71.1602,0.019211
170.178,71.1664,0.019211
170.210,71.1728,0.019211
170.240,71.1788,0.019211
170.271,71.1849,0.019211
170.302,71.1912,0.019211
170.334,71.1974,0.019041
170.365,71.2037,0.019041
170.395,71.2099,0.019041
170.426,71.2160,0.019041
170.458,71.2222,0.019041
170.488,71.2284,0.019041
170.520,71.2347,0.019041
170.551,71.2409,0.019041
170.582,71.2470,0.018956
170.613,71.2534,0.018956
170.645,71.2597,0.018956
170.676,71.2661,0.018956
170.705,71.2717,0.018956
170.738,71.2784,0.018956
170.769,71.2847,0.018956
170.800,71.2908,0.018928
170.831,71.2970,0.018928
170.863,71.3033,0.018928
170.894,71.3095,0.018928
170.925,71.3157,0.018928
170.956,71.3219,0.018928
170.987,71.3281,0.018928
171.018,71.3343,0.018928
171.049,71.3406,0.018928
171.080,71.3467,0.018702
171.111,71.3530,0.018702
171.142,71.3591,0.018702
171.174,71.3657,0.018702
171.205,71.3718,0.018702
171.236,71.3781,0.018702
171.266,71.3842,0.018702
171.297,71.3902,0.018702
171.329,71.3966,0.018513
171.361,71.4029,0.018513
171.392,71.4091,0.018513
171.423,71.4155,0.018513
171.454,71.4216,0.018513
171.486,71.4281,0.018513
171.518,71.4343,0.018513
171.548,71.4402,0.018382
171.579,71.4464,0.018382
171.610,71.4526,0.018382
171.642,71.4591,0.018382
171.672,71.4652,0.018382
171.703,71.4712,0.018382
171.734,71.4774,0.018382
171.765,71.4836,0.018382
171.796,71.4901,0.018382
171.827,71.4960,0.018382
171.858,71.5024,0.018165
171.889,71.5086,0.018165
171.920,71.5146,0.018165
171.951,71.5210,0.018165
171.983,71.5273,0.018165
172.014,71.5335,0.018165
172.045,71.5398,0.018165
172.075,71.5456,0.018165
172.106,71.5518,0.017920
172.137,71.5581,0.017920
172.167,71.5641,0.017920
172.197,71.5703,0.017920
172.228,71.5763,0.017920
172.259,71.5826,0.017920
172.290,71.5887,0.017920
172.321,71.5950,0.017647
172.352,71.6012,0.017647
172.384,71.6075,0.017647
172.414,71.6135,0.017647
172.446,71.6199,0.017647
172.477,71.6261,0.017647
172.507,71.6323,0.017647
172.539,71.6384,0.017647
172.570,71.6449,0.017647
172.601,71.6508,0.017317
172.632,71.6571,0.017317
172.662,71.6632,0.017317
172.694,71.6694,0.017317
172.725,71.6756,0.017317
172.756,71.6820,0.017317
172.787,71.6882,0.017317
172.817,71.6942,0.017317
172.848,71.7003,0.017317
172.881,71.7068,0.016865
172.910,71.7127,0.016865
172.942,71.7190,0.016865
172.973,71.7254,0.016865
173.004,71.7316,0.016865
173.036,71.7379,0.016865
173.067,71.7441,0.016865
173.098,71.7503,0.016365
173.129,71.7565,0.016365
173.160,71.7627,0.016365
173.191,71.7689,0.016365
173.222,71.7751,0.016365
173.254,71.7815,0.016365
173.286,71.7879,0.016365
173.317,71.7941,0.016365
173.348,71.8003,0.015866
173.379,71.8066,0.015866
173.410,71.8127,0.015866
173.442,71.8190,0.015866
173.471,71.8251,0.015866
173.502,71.8313,0.015866
173.533,71.8372,0.015866
173.564,71.8434,0.015866
173.595,71.8496,0.015150
173.626,71.8560,0.015150
173.658,71.8624,0.015150
173.688,71.8684,0.015150
173.720,71.8746,0.015150
173.751,71.8809,0.015150
173.781,71.8870,0.015150
173.812,71.8932,0.015150
173.843,71.8994,0.014180
173.874,71.9056,0.014180
173.905,71.9116,0.014180
173.936,71.9181,0.014180
173.967,71.9240,0.014180
173.998,71.9305,0.014180
174.030,71.9367,0.014180
174.062,71.9431,0.014180
174.092,71.9491,0.013077
174.124,71.9555,0.013077
174.154,71.9615,0.013077
174.185,71.9678,0.013077
174.216,71.9739,0.013077
174.248,71.9804,0.013077
174.279,71.9864,0.013077
174.310,71.9928,0.013077
174.341,71.9988,0.011730
174.371,72.0049,0.011730
174.402,72.0111,0.011730
174.434,72.0174,0.011730
174.465,72.0239,0.011730
174.497,72.0301,0.011730
174.528,72.0362,0.011730
174.558,72.0424,0.010006
174.591,72.0488,0.010006
174.620,72.0549,0.010006
174.652,72.0611,0.010006
174.683,72.0673,0.010006
174.714,72.0735,0.010006
174.745,72.0797,0.010006
174.776,72.0859,0.010006
174.807,72.0922,0.010006
174.840,72.0988,0.007905
174.870,72.1046,0.007905
174.901,72.1108,0.007905
174.933,72.1173,0.007905
174.963,72.1232,0.007905
174.994,72.1296,0.007905
175.025,72.1356,0.007905
175.056,72.1420,0.007905
175.087,72.1480,0.005238
175.118,72.1544,0.005238
175.149,72.1606,0.005238
175.180,72.1666,0.005238
175.211,72.1728,0.005238
175.242,72.1790,0.005238
175.272,72.1850,0.005238
175.303,72.1913,0.005238
175.334,72.1975,0.002035
175.365,72.2037,0.002035
175.396,72.2099,0.002035
175.426,72.2159,0.002035
175.458,72.2223,0.002035
175.489,72.2286,0.002035
175.521,72.2348,0.002035
175.552,72.2410,-0.001903
175.584,72.2475,-0.001903
175.614,72.2537,-0.001903
175.640,72.2587,-0.001903
175.677,72.2661,-0.001903
175.708,72.2723,-0.001903
175.740,72.2786,-0.001903
175.771,72.2851,-0.001903
175.803,72.2913,-0.006765
175.834,72.2975,-0.006765
175.865,72.3037,-0.006765
175.896,72.3100,-0.006765
175.926,72.3158,-0.006765
175.957,72.3223,-0.006765
175.988,72.3284,-0.006765
176.020,72.3347,-0.006765
176.050,72.3409,-0.006765
176.081,72.3470,-0.006765
176.113,72.3533,-0.012663
176.143,72.3594,-0.012663
176.174,72.3657,-0.012663
176.206,72.3720,-0.012663
176.237,72.3782,-0.012663
176.268,72.3843,-0.012663
176.299,72.3906,-0.012663
176.331,72.3968,-0.019682
176.363,72.4034,-0.019682
176.393,72.4093,-0.019682
176.425,72.4155,-0.019682
176.456,72.4219,-0.019682
176.487,72.4281,-0.019682
176.518,72.4344,-0.019682
176.549,72.4406,-0.019682
176.581,72.4468,-0.027888
176.612,72.4530,-0.027888
176.643,72.4592,-0.027888
176.674,72.4657,-0.027888
176.706,72.4719,-0.027888
176.736,72.4781,-0.027888
176.768,72.4844,-0.027888
176.799,72.4905,-0.027888
176.829,72.4967,-0.037734
176.861,72.5029,-0.037734
176.891,72.5089,-0.037734
176.922,72.5153,-0.037734
176.955,72.5217,-0.037734
176.986,72.5280,-0.037734
177.017,72.5340,-0.037734
177.048,72.5404,-0.037734
177.080,72.5466,-0.049209
177.112,72.5530,-0.049209
177.142,72.5590,-0.049209
177.173,72.5652,-0.049209
177.204,72.5717,-0.049209
177.234,72.5775,-0.049209
177.265,72.5837,-0.049209
177.296,72.5898,-0.049209
177.327,72.5961,-0.062541
177.358,72.6022,-0.062541
177.389,72.6085,-0.062541
177.420,72.6145,-0.062541
177.450,72.6207,-0.062541
177.481,72.6269,-0.062541
177.512,72.6332,-0.062541
177.543,72.6393,-0.062541
177.575,72.6456,-0.062541
177.605,72.6519,-0.077879
177.638,72.6583,-0.077879
177.669,72.6645,-0.077879
177.702,72.6709,-0.077879
177.732,72.6770,-0.077879
177.763,72.6834,-0.077879
177.794,72.6895,-0.077879
177.826,72.6957,-0.095234
177.857,72.7019,-0.095234
177.888,72.7081,-0.095234
177.919,72.7146,-0.095234
177.950,72.7203,-0.095234
177.981,72.7252,-0.095234
178.012,72.7296,-0.095234
178.044,72.7333,-0.095234
178.076,72.7361,-0.095234
178.107,72.7383,-0.114717
178.138,72.7396,-0.114717
178.169,72.7402,-0.114717
178.201,72.7402,-0.114717
178.231,72.7402,-0.114717
178.263,72.7402,-0.114717
178.293,72.7402,-0.114717
178.324,72.7402,-0.114717
178.355,72.7402,-0.128454
178.387,72.7402,-0.128454
178.417,72.7402,-0.128454
178.447,72.7402,-0.128454
178.478,72.7402,-0.128454
178.510,72.7402,-0.128454
178.541,72.7402,-0.128454
178.572,72.7402,-0.128454
178.603,72.7402,-0.130046
178.635,72.7402,-0.130046
178.666,72.7402,-0.130046
178.697,72.7402,-0.130046
178.729,72.7402,-0.130046
178.760,72.7402,-0.130046
178.792,72.7402,-0.130046
178.824,72.7402,-0.126626
178.854,72.7402,-0.126626
178.886,72.7402,-0.126626
178.917,72.7402,-0.126626
178.948,72.7402,-0.126626
178.979,72.7402,-0.126626
179.009,72.7402,-0.126626
179.041,72.7402,-0.126626
179.071,72.7402,-0.123913
179.102,72.7402,-0.123913
179.133,72.7402,-0.123913
179.165,72.7402,-0.123913
179.197,72.7402,-0.123913
179.227,72.7402,-0.123913
179.258,72.7402,-0.123913
179.289,72.7402,-0.123913
179.321,72.7402,-0.123913
179.352,72.7402,-0.121661
179.382,72.7402,-0.121661
179.413,72.7402,-0.121661
179.444,72.7402,-0.121661
179.475,72.7402,-0.121661
179.507,72.7402,-0.121661
179.538,72.7402,-0.121661
179.569,72.7402,-0.119749
179.600,72.7402,-0.119749
179.631,72.7402,-0.119749
179.661,72.7402,-0.119749
179.693,72.7402,-0.119749
179.724,72.7402,-0.119749
179.756,72.7402,-0.119749
179.787,72.7402,-0.119749
179.817,72.7402,-0.119749
179.850,72.7402,-0.118090
179.880,72.7402,-0.118090
179.911,72.7402,-0.118090
179.943,72.7402,-0.118090
179.974,72.7402,-0.118090
180.005,72.7402,-0.118090
180.037,72.7402,-0.118090
180.066,72.7402,-0.118090
180.099,72.7402,-0.116658
180.129,72.7402,-0.116658
180.160,72.7402,-0.116658
180.191,72.7402,-0.116658
180.222,72.7402,-0.116658
180.253,72.7402,-0.116658
180.284,72.7402,-0.116658
180.315,72.7402,-0.115396
180.347,72.7402,-0.115396
180.376,72.7402,-0.115396
180.408,72.7402,-0.115396
180.438,72.7402,-0.115396
180.470,72.7402,-0.115396
180.501,72.7402,-0.115396
180.530,72.7402,-0.115396
180.562,72.7402,-0.114209
180.592,72.7402,-0.114209
180.624,72.7402,-0.114209
180.655,72.7402,-0.114209
180.686,72.7402,-0.114209
180.718,72.7402,-0.114209
180.750,72.7402,-0.114209
180.781,72.7402,-0.114209
180.812,72.7402,-0.113135
180.844,72.7402,-0.113135
180.875,72.7402,-0.113135
180.905,72.7402,-0.113135
180.936,72.7402,-0.113135
180.967,72.7402,-0.113135
180.998,72.7402,-0.113135
181.028,72.7402,-0.113135
181.059,72.7402,-0.113135
181.090,72.7402,-0.112126
181.121,72.7402,-0.112126
181.151,72.7402,-0.112126
181.182,72.7402,-0.112126
181.213,72.7402,-0.112126
181.244,72.7402,-0.112126
181.275,72.7402,-0.112126
181.305,72.7402,-0.111288
181.336,72.7402,-0.111288
181.368,72.7402,-0.111288
181.398,72.7402,-0.111288
181.429,72.7402,-0.111288
181.460,72.7402,-0.111288
181.491,72.7402,-0.111288
181.523,72.7402,-0.111288
181.554,72.7402,-0.111288
181.585,72.7402,-0.111288
181.616,72.7402,-0.110506
181.647,72.7402,-0.110506
181.678,72.7402,-0.110506
181.709,72.7402,-0.110506
181.740,72.7402,-0.110506
181.771,72.7402,-0.110506
181.803,72.7402,-0.110506
181.834,72.7402,-0.109762
181.865,72.7402,-0.109762
181.896,72.7402,-0.109762
181.927,72.7402,-0.109762
181.958,72.7402,-0.109762
181.989,72.7402,-0.109762
182.020,72.7402,-0.109762
182.051,72.7402,-0.109762
182.083,72.7402,-0.108857
182.114,72.7402,-0.108857
182.146,72.7402,-0.108857
182.178,72.7402,-0.108857
182.208,72.7402,-0.108857
182.238,72.7402,-0.108857
182.269,72.7402,-0.108857
182.300,72.7402,-0.108857
182.331,72.7402,-0.106426
182.363,72.7402,-0.106426
182.393,72.7402,-0.106426
182.424,72.7402,-0.106426
182.456,72.7402,-0.106426
182.487,72.7402,-0.106426
182.519,72.7402,-0.106426
182.551,72.7402,-0.106426
182.583,72.7402,-0.102516
182.615,72.7402,-0.102516
182.645,72.7402,-0.102516
182.676,72.7400,-0.102516
182.707,72.7390,-0.102516
182.738,72.7373,-0.102516
182.770,72.7348,-0.102516
182.801,72.7316,-0.102516
182.831,72.7278,-0.099812
182.862,72.7231,-0.099812
182.893,72.7178,-0.099812
182.924,72.7118,-0.099812
182.954,72.7059,-0.099812
182.985,72.6997,-0.099812
183.016,72.6936,-0.099812
183.046,72.6874,-0.099812
183.077,72.6811,-0.091465
183.108,72.6750,-0.091465
183.139,72.6687,-0.091465
183.170,72.6626,-0.091465
183.201,72.6564,-0.091465
183.231,72.6506,-0.091465
183.262,72.6442,-0.091465
183.292,72.6382,-0.091465
183.323,72.6320,-0.071821
183.354,72.6259,-0.071821
183.385,72.6197,-0.071821
183.416,72.6134,-0.071821
183.447,72.6073,-0.071821
183.478,72.6010,-0.071821
183.509,72.5949,-0.071821
183.540,72.5887,-0.071821
183.571,72.5824,-0.049209
183.603,72.5760,-0.049209
183.633,72.5700,-0.049209
183.665,72.5636,-0.049209
183.696,72.5576,-0.049209
183.727,72.5512,-0.049209
183.758,72.5448,-0.049209
183.789,72.5388,-0.049209
183.821,72.5326,-0.029377
183.851,72.5264,-0.029377
183.883,72.5201,-0.029377
183.914,72.5138,-0.029377
183.945,72.5077,-0.029377
183.975,72.5016,-0.029377
184.005,72.4955,-0.029377
184.037,72.4892,-0.029377
184.068,72.4830,-0.011871
184.099,72.4768,-0.011871
184.131,72.4704,-0.011871
184.163,72.4640,-0.011871
184.193,72.4580,-0.011871
184.224,72.4519,-0.011871
184.255,72.4457,-0.011871
184.286,72.4396,-0.011871
184.316,72.4333,-0.011871
184.347,72.4273,0.003618
184.379,72.4208,0.003618
184.409,72.4148,0.003618
184.440,72.4085,0.003618
184.472,72.4023,0.003618
184.503,72.3960,0.003618
184.533,72.3901,0.003618
184.564,72.3838,0.003618
184.595,72.3777,0.017317
184.625,72.3715,0.017317
184.655,72.3657,0.017317
184.686,72.3592,0.017317
184.717,72.3533,0.017317
184.748,72.3470,0.017317
184.780,72.3406,0.017317
184.811,72.3346,0.017317
184.842,72.3281,0.029659
184.873,72.3220,0.029659
184.904,72.3160,0.029659
184.934,72.3096,0.029659
184.966,72.3034,0.029659
184.997,72.2971,0.029659
185.028,72.2910,0.029659
185.059,72.2848,0.029659
185.090,72.2786,0.040767
185.122,72.2724,0.040767
185.153,72.2661,0.040767
185.183,72.2600,0.040767
185.214,72.2539,0.040767
185.246,72.2476,0.040767
185.276,72.2415,0.040767
185.306,72.2355,0.040767
185.336,72.2294,0.051216
185.367,72.2232,0.051216
185.398,72.2169,0.051216
185.430,72.2105,0.051216
185.462,72.2043,0.051216
185.493,72.1981,0.051216
185.524,72.1919,0.051216
185.555,72.1855,0.051216
185.586,72.1795,0.061269
185.617,72.1733,0.061269
185.648,72.1671,0.061269
185.679,72.1609,0.061269
185.711,72.1546,0.061269
185.742,72.1483,0.061269
185.773,72.1421,0.061269
185.805,72.1358,0.061269
185.836,72.1296,0.071303
185.867,72.1233,0.071303
185.898,72.1171,0.071303
185.929,72.1108,0.071303
185.959,72.1049,0.071303
185.991,72.0985,0.071303
186.022,72.0922,0.071303
186.053,72.0860,0.071303
186.085,72.0797,0.081619
186.116,72.0735,0.081619
186.146,72.0675,0.081619
186.177,72.0613,0.081619
186.208,72.0550,0.081619
186.239,72.0488,0.081619
186.270,72.0427,0.081619
186.302,72.0364,0.081619
186.332,72.0302,0.092548
186.363,72.0241,0.092548
186.394,72.0179,0.092548
186.425,72.0116,0.092548
186.457,72.0053,0.092548
186.488,71.9990,0.092548
186.520,71.9928,0.092548
186.551,71.9866,0.092548
186.582,71.9802,0.104533
186.613,71.9741,0.104533
186.644,71.9678,0.104533
186.675,71.9616,0.104533
186.706,71.9555,0.104533
186.737,71.9493,0.104533
186.768,71.9433,0.104533
186.798,71.9369,0.104533
186.830,71.9307,0.117516
186.861,71.9245,0.117516
186.892,71.9183,0.117516
186.922,71.9121,0.117516
186.954,71.9059,0.117516
186.985,71.8997,0.117516
187.016,71.8934,0.117516
187.048,71.8870,0.117516
187.079,71.8810,0.131959
187.110,71.8747,0.131959
187.141,71.8685,0.131959
187.172,71.8624,0.131959
187.202,71.8561,0.131959
187.233,71.8500,0.131959
187.264,71.8438,0.131959
187.295,71.8376,0.131959
187.326,71.8314,0.147825
187.358,71.8251,0.147825
187.388,71.8190,0.147825
187.419,71.8128,0.147825
187.451,71.8063,0.147825
187.482,71.8001,0.147825
187.513,71.7939,0.147825
187.544,71.7879,0.147825
187.575,71.7817,0.165114
187.607,71.7755,0.165114
187.637,71.7694,0.165114
187.668,71.7631,0.165114
187.698,71.7571,0.165114
187.729,71.7509,0.165114
187.760,71.7447,0.165114
187.791,71.7385,0.165114
187.821,71.7324,0.184070
187.852,71.7262,0.184070
187.883,71.7200,0.184070
187.914,71.7138,0.184070
187.945,71.7077,0.184070
187.976,71.7015,0.184070
188.008,71.6952,0.184070
188.037,71.6893,0.184070
188.069,71.6828,0.204402
188.099,71.6769,0.204402
188.131,71.6707,0.204402
188.161,71.6642,0.204402
188.193,71.6580,0.204402
188.226,71.6516,0.204402
188.255,71.6457,0.204402
188.286,71.6393,0.204402
188.317,71.6332,0.204402
188.349,71.6269,0.226260
188.379,71.6208,0.226260
188.410,71.6146,0.226260
188.442,71.6084,0.226260
188.473,71.6020,0.226260
188.504,71.5960,0.226260
188.535,71.5896,0.226260
188.567,71.5834,0.226260
188.598,71.5770,0.249117
188.629,71.5709,0.249117
188.660,71.5647,0.249117
188.692,71.5583,0.249117
188.722,71.5522,0.249117
188.753,71.5463,0.249117
188.784,71.5401,0.249117
188.814,71.5339,0.249117
188.845,71.5278,0.272661
188.875,71.5216,0.272661
188.906,71.5154,0.272661
188.938,71.5092,0.272661
188.969,71.5030,0.272661
189.001,71.4965,0.272661
189.031,71.4905,0.272661
189.063,71.4841,0.272661
189.094,71.4779,0.296611
189.126,71.4716,0.296611
189.156,71.4653,0.296611
189.188,71.4590,0.296611
189.219,71.4529,0.296611
189.250,71.4467,0.296611
189.281,71.4405,0.296611
189.312,71.4342,0.296611
189.342,71.4283,0.320202
189.374,71.4217,0.320202
189.405,71.4157,0.320202
189.436,71.4093,0.320202
189.467,71.4033,0.320202
189.499,71.3968,0.320202
189.529,71.3909,0.320202
189.561,71.3844,0.320202
189.591,71.3785,0.343257
189.623,71.3720,0.343257
189.654,71.3659,0.343257
189.686,71.3592,0.343257
189.715,71.3537,0.343257
189.746,71.3475,0.343257
189.777,71.3413,0.343257
189.808,71.3349,0.343257
189.839,71.3289,0.364880
189.870,71.3227,0.364880
189.902,71.3162,0.364880
189.932,71.3103,0.364880
189.963,71.3039,0.364880
189.994,71.2978,0.364880
190.025,71.2915,0.364880
190.057,71.2852,0.364880
190.088,71.2790,0.384345
190.119,71.2729,0.384345
190.150,71.2666,0.384345
190.180,71.2606,0.384345
190.211,71.2546,0.384345
190.242,71.2484,0.384345
190.272,71.2423,0.384345
190.304,71.2358,0.384345
190.335,71.2298,0.400776
190.366,71.2234,0.400776
190.397,71.2174,0.400776
190.428,71.2112,0.400776
190.459,71.2050,0.400776
190.490,71.1989,0.400776
190.520,71.1927,0.400776
190.551,71.1865,0.400776
190.582,71.1803,0.413213
190.614,71.1740,0.413213
190.644,71.1679,0.413213
190.676,71.1615,0.413213
190.707,71.1552,0.413213
190.738,71.1491,0.413213
190.769,71.1429,0.413213
190.799,71.1367,0.420731
190.830,71.1308,0.420731
190.861,71.1245,0.420731
190.892,71.1183,0.420731
190.924,71.1119,0.420731
190.954,71.1059,0.420731
190.985,71.0995,0.420731
191.016,71.0936,0.420731
191.047,71.0871,0.420731
191.078,71.0811,0.421824
191.110,71.0746,0.421824
191.141,71.0684,0.421824
191.173,71.0621,0.421824
191.204,71.0559,0.421824
191.235,71.0497,0.421824
191.267,71.0431,0.421824
191.299,71.0369,0.421824
191.331,71.0306,0.412393
191.361,71.0245,0.412393
191.392,71.0183,0.412393
191.423,71.0121,0.412393
191.454,71.0060,0.412393
191.485,70.9996,0.412393
191.516,70.9935,0.412393
191.547,70.9873,0.412393
191.577,70.9812,0.264106
191.609,70.9749,0.264106
191.641,70.9686,0.264106
191.671,70.9624,0.264106
191.702,70.9563,0.264106
191.733,70.9500,0.264106
191.765,70.9436,0.264106
191.796,70.9373,0.264106
191.828,70.9312,0.264106
191.858,70.9250,0.072527
191.890,70.9188,0.072527
191.922,70.9124,0.072527
191.952,70.9064,0.072527
191.982,70.9004,0.072527
192.013,70.8940,0.072527
192.043,70.8881,0.072527
192.074,70.8819,0.072527
192.105,70.8757,0.021265
192.136,70.8695,0.021265
192.167,70.8633,0.021265
192.199,70.8569,0.021265
192.230,70.8507,0.021265
192.261,70.8444,0.021265
192.292,70.8383,0.021265
192.323,70.8323,0.021265
192.353,70.8261,0.021528
192.385,70.8196,0.021528
192.416,70.8135,0.021528
192.449,70.8071,0.021528
192.479,70.8010,0.021528
192.510,70.7948,0.021528
192.540,70.7889,0.021528
192.570,70.7825,0.021528
192.601,70.7766,0.021557
192.632,70.7701,0.021557
192.664,70.7641,0.021557
192.695,70.7577,0.021557
192.725,70.7518,0.021557
192.756,70.7454,0.021557
192.786,70.7395,0.021557
192.816,70.7335,0.021557
192.846,70.7276,0.021528
192.877,70.7213,0.021528
192.908,70.7149,0.021528
192.940,70.7087,0.021528
192.970,70.7027,0.021528
193.002,70.6965,0.021528
193.032,70.6903,0.021528
193.064,70.6839,0.021528
193.095,70.6777,0.021481
193.125,70.6717,0.021481
193.156,70.6655,0.021481
193.187,70.6593,0.021481
193.219,70.6531,0.021481
193.249,70.6469,0.021481
193.281,70.6406,0.021481
193.312,70.6343,0.021481
193.344,70.6279,0.021378
193.376,70.6217,0.021378
193.406,70.6156,0.021378
193.437,70.6093,0.021378
193.468,70.6032,0.021378
193.499,70.5970,0.021378
193.530,70.5908,0.021378
193.561,70.5846,0.021378
193.591,70.5785,0.021321
193.622,70.5723,0.021321
193.653,70.5660,0.021321
193.684,70.5600,0.021321
193.715,70.5537,0.021321
193.746,70.5476,0.021321
193.776,70.5416,0.021321
193.807,70.5354,0.021321
193.838,70.5292,0.021368
193.870,70.5228,0.021368
193.902,70.5165,0.021368
193.934,70.5098,0.021368
193.965,70.5037,0.021368
193.996,70.4975,0.021368
194.026,70.4916,0.021368
194.057,70.4854,0.021368
194.089,70.4790,0.021387
194.120,70.4728,0.021387
194.151,70.4666,0.021387
194.182,70.4604,0.021387
194.212,70.4542,0.021387
194.243,70.4480,0.021387
194.274,70.4418,0.021387
194.305,70.4358,0.021387
194.336,70.4294,0.021378
194.368,70.4232,0.021378
194.399,70.4169,0.021378
194.430,70.4107,0.021378
194.461,70.4044,0.021378
194.493,70.3982,0.021378
194.523,70.3921,0.021378
194.554,70.3860,0.021359
194.585,70.3797,0.021359
194.617,70.3733,0.021359
194.647,70.3673,0.021359
194.678,70.3611,0.021359
194.711,70.3545,0.021359
194.740,70.3488,0.021359
194.772,70.3422,0.021359
194.803,70.3363,0.021387
194.834,70.3300,0.021387
194.865,70.3238,0.021387
194.896,70.3176,0.021387
194.928,70.3111,0.021387
194.958,70.3053,0.021387
194.988,70.2991,0.021387
195.020,70.2928,0.021387
195.051,70.2866,0.021387
195.083,70.2802,0.021378
195.114,70.2740,0.021378
195.145,70.2677,0.021378
195.176,70.2615,0.021378
195.207,70.2553,0.021378
195.238,70.2491,0.021378
195.267,70.2433,0.021378
195.301,70.2366,0.021359
195.331,70.2304,0.021359
195.362,70.2243,0.021359
195.394,70.2180,0.021359
195.425,70.2118,0.021359
195.456,70.2056,0.021359
195.487,70.1992,0.021359
195.518,70.1932,0.021359
195.549,70.1868,0.021368
195.580,70.1808,0.021368
195.610,70.1746,0.021368
195.642,70.1684,0.021368
195.673,70.1620,0.021368
195.704,70.1561,0.021368
195.736,70.1495,0.021368
195.767,70.1433,0.021368
195.799,70.1370,0.021368
195.829,70.1309,0.021359
195.860,70.1248,0.021359
195.889,70.1189,0.021359
195.921,70.1124,0.021359
195.953,70.1062,0.021359
195.984,70.0997,0.021359
196.016,70.0937,0.021359
196.047,70.0873,0.021359
196.079,70.0811,0.021359
196.110,70.0747,0.021359
196.141,70.0687,0.021359
196.171,70.0625,0.021359
196.203,70.0560,0.021359
196.235,70.0499,0.021359
196.265,70.0437,0.021359
196.296,70.0376,0.021359
196.327,70.0314,0.021368
196.357,70.0254,0.021368
196.389,70.0190,0.021368
196.419,70.0130,0.021368
196.449,70.0069,0.021368
196.481,70.0007,0.021368
196.512,69.9944,0.021368
196.543,69.9880,0.021368
196.574,69.9820,0.021368
196.605,69.9758,0.021396
196.636,69.9697,0.021396
196.667,69.9634,0.021396
196.699,69.9568,0.021396
196.730,69.9508,0.021396
196.761,69.9446,0.021396
196.792,69.9384,0.021396
196.822,69.9322,0.021396
196.853,69.9260,0.021396
196.884,69.9199,0.021378
196.915,69.9136,0.021378
196.947,69.9074,0.021378
196.978,69.9012,0.021378
197.009,69.8949,0.021378
197.040,69.8887,0.021378
197.071,69.8825,0.021378
197.102,69.8764,0.021425
197.134,69.8700,0.021425
197.165,69.8638,0.021425
197.196,69.8576,0.021425
197.227,69.8512,0.021425
197.258,69.8452,0.021425
197.289,69.8390,0.021425
197.320,69.8328,0.021425
197.351,69.8266,0.021500
197.383,69.8201,0.021500
197.414,69.8142,0.021500
197.444,69.8078,0.021500
197.475,69.8018,0.021500
197.506,69.7954,0.021500
197.537,69.7895,0.021500
197.568,69.7830,0.021500
197.600,69.7768,0.021462
197.631,69.7705,0.021462
197.661,69.7645,0.021462
197.693,69.7581,0.021462
197.724,69.7521,0.021462
197.754,69.7459,0.021462
197.785,69.7399,0.021462
197.817,69.7333,0.021462
197.848,69.7271,0.021472
197.878,69.7211,0.021472
197.910,69.7149,0.021472
197.941,69.7091,0.021472
197.973,69.7043,0.021472
198.004,69.6999,0.021472
198.035,69.6967,0.021472
198.066,69.6939,0.021472
198.097,69.6920,0.021491
198.129,69.6908,0.021491
198.160,69.6903,0.021491
198.191,69.6903,0.021491
198.221,69.6903,0.021491
198.252,69.6903,0.021491
198.283,69.6903,0.021491
198.315,69.6903,0.021321
198.346,69.6903,0.021321
198.379,69.6903,0.021321
198.410,69.6903,0.021321
198.442,69.6903,0.021321
198.473,69.6903,0.021321
198.504,69.6903,0.021321
198.536,69.6903,0.021321
198.566,69.6903,0.021151
198.597,69.6903,0.021151
198.628,69.6903,0.021151
198.659,69.6903,0.021151
198.690,69.6903,0.021151
198.721,69.6904,0.021151
198.752,69.6910,0.021151
198.783,69.6925,0.021151
198.814,69.6946,0.021151
198.845,69.6975,0.021142
198.876,69.7012,0.021142
198.908,69.7056,0.021142
198.940,69.7107,0.021142
198.971,69.7168,0.021142
199.003,69.7231,0.021142
199.035,69.7296,0.021142
199.067,69.7358,0.021142
199.096,69.7416,0.020982
199.126,69.7477,0.020982
199.158,69.7539,0.020982
199.189,69.7602,0.020982
199.220,69.7664,0.020982
199.252,69.7729,0.020982
199.282,69.7788,0.020982
199.313,69.7851,0.020822
199.344,69.7912,0.020822
199.375,69.7975,0.020822
199.407,69.8040,0.020822
199.437,69.8098,0.020822
199.468,69.8163,0.020822
199.499,69.8223,0.020822
199.530,69.8285,0.020822
199.561,69.8347,0.020822
199.593,69.8411,0.020728
199.624,69.8473,0.020728
199.656,69.8536,0.020728
199.686,69.8597,0.020728
199.717,69.8659,0.020728
199.749,69.8722,0.020728
199.781,69.8786,0.020728
199.811,69.8846,0.020680
199.843,69.8911,0.020680
199.874,69.8971,0.020680
199.905,69.9035,0.020680
199.935,69.9094,0.020680
199.966,69.9155,0.020680
199.996,69.9217,0.020680
200.028,69.9279,0.020680
200.058,69.9342,0.020662
200.089,69.9404,0.020662
200.120,69.9466,0.020662
200.151,69.9528,0.020662
200.183,69.9590,0.020662
200.214,69.9651,0.020662
200.245,69.9713,0.020662
200.275,69.9775,0.020662
200.306,69.9836,0.020558
200.336,69.9897,0.020558
200.367,69.9959,0.020558
200.399,70.0022,0.020558
200.430,70.0083,0.020558
200.460,70.0145,0.020558
200.491,70.0207,0.020558
200.523,70.0270,0.020558
200.554,70.0332,0.020558
200.585,70.0394,0.020520
200.616,70.0455,0.020520
200.647,70.0519,0.020520
200.679,70.0582,0.020520
200.709,70.0643,0.020520
200.741,70.0706,0.020520
200.771,70.0766,0.020520
200.802,70.0829,0.020520
200.833,70.0890,0.020445
200.864,70.0954,0.020445
200.896,70.1015,0.020445
200.928,70.1081,0.020445
200.958,70.1140,0.020445
200.991,70.1206,0.020445
201.022,70.1267,0.020445
201.052,70.1329,0.020445
201.083,70.1390,0.020351
201.114,70.1452,0.020351
201.145,70.1515,0.020351
201.176,70.1577,0.020351
201.208,70.1639,0.020351
201.239,70.1701,0.020351
201.269,70.1762,0.020351
201.300,70.1824,0.020351
201.330,70.1883,0.020313
201.361,70.1947,0.020313
201.392,70.2007,0.020313
201.423,70.2071,0.020313
201.453,70.2131,0.020313
201.484,70.2192,0.020313
201.516,70.2257,0.020313
201.548,70.2320,0.020313
201.578,70.2381,0.020313
201.610,70.2444,0.020313
201.641,70.2506,0.020313
201.672,70.2568,0.020313
201.703,70.2631,0.020313
201.734,70.2692,0.020313
201.764,70.2754,0.020313
201.795,70.2815,0.020313
201.826,70.2877,0.020313
201.858,70.2939,0.020322
201.889,70.3003,0.020322
201.920,70.3064,0.020322
201.951,70.3126,0.020322
201.982,70.3188,0.020322
202.012,70.3249,0.020322
202.042,70.3310,0.020322
202.073,70.3370,0.020322
202.105,70.3434,0.020247
202.136,70.3496,0.020247
202.167,70.3556,0.020247
202.198,70.3622,0.020247
202.229,70.3682,0.020247
202.261,70.3746,0.020247
202.292,70.3807,0.020247
202.323,70.3871,0.020219
202.355,70.3935,0.020219
202.385,70.3994,0.020219
202.415,70.4055,0.020219
202.446,70.4117,0.020219
202.477,70.4178,0.020219
202.509,70.4241,0.020219
202.539,70.4303,0.020219
202.571,70.4365,0.020219
202.602,70.4428,0.020153
202.633,70.4489,0.020153
202.664,70.4551,0.020153
202.696,70.4616,0.020153
202.727,70.4678,0.020153
202.758,70.4742,0.020153
202.789,70.4802,0.020153
202.820,70.4864,0.020153
202.850,70.4924,0.020115
202.880,70.4985,0.020115
202.912,70.5048,0.020115
202.942,70.5108,0.020115
202.973,70.5170,0.020115
203.004,70.5232,0.020115
203.035,70.5293,0.020115
203.066,70.5356,0.020115
203.097,70.5418,0.020021
203.126,70.5476,0.020021
203.158,70.5540,0.020021
203.189,70.5602,0.020021
203.219,70.5662,0.020021
203.250,70.5726,0.020021
203.283,70.5789,0.020021
203.312,70.5850,0.020021
203.344,70.5912,0.019889
203.375,70.5975,0.019889
203.406,70.6036,0.019889
203.438,70.6100,0.019889
203.469,70.6161,0.019889
203.500,70.6225,0.019889
203.532,70.6289,0.019889
203.563,70.6351,0.019880
203.594,70.6413,0.019880
203.626,70.6477,0.019880
203.657,70.6539,0.019880
203.689,70.6604,0.019880
203.721,70.6666,0.019880
203.752,70.6729,0.019880
203.783,70.6790,0.019880
203.814,70.6850,0.019814
203.845,70.6914,0.019814
203.876,70.6975,0.019814
203.906,70.7037,0.019814
203.937,70.7096,0.019814
203.968,70.7161,0.019814
203.997,70.7220,0.019814
204.028,70.7281,0.019814
204.059,70.7343,0.019776
204.091,70.7406,0.019776
204.122,70.7467,0.019776
204.153,70.7531,0.019776
204.186,70.7595,0.019776
204.215,70.7655,0.019776
204.246,70.7717,0.019776
204.277,70.7777,0.019776
204.308,70.7840,0.019776
204.339,70.7901,0.019767
204.370,70.7963,0.019767
204.400,70.8026,0.019767
204.431,70.8086,0.019767
204.462,70.8149,0.019767
204.493,70.8211,0.019767
204.524,70.8273,0.019767
204.556,70.8335,0.019767
204.586,70.8397,0.019635
204.617,70.8458,0.019635
204.649,70.8522,0.019635
204.680,70.8583,0.019635
204.711,70.8646,0.019635
204.743,70.8708,0.019635
204.772,70.8768,0.019635
204.804,70.8831,0.019635
204.834,70.8892,0.019531
204.865,70.8955,0.019531
204.896,70.9015,0.019531
204.927,70.9077,0.019531
204.958,70.9139,0.019531
204.989,70.9202,0.019531
205.019,70.9262,0.019531
205.051,70.9327,0.019531
205.083,70.9389,0.019465
205.113,70.9451,0.019465
205.143,70.9511,0.019465
205.176,70.9575,0.019465
205.206,70.9636,0.019465
205.238,70.9701,0.019465
205.269,70.9763,0.019465
205.301,70.9827,0.019465
205.333,70.9889,0.019399
205.364,70.9951,0.019399
205.395,71.0013,0.019399
205.426,71.0076,0.019399
205.456,71.0137,0.019399
205.487,71.0197,0.019399
205.518,71.0259,0.019399
205.549,71.0321,0.019399
205.580,71.0383,0.019314
205.612,71.0448,0.019314
205.642,71.0507,0.019314
205.673,71.0571,0.019314
205.704,71.0631,0.019314
205.735,71.0693,0.019314
205.765,71.0752,0.019314
205.796,71.0817,0.019314
205.827,71.0878,0.019192
205.858,71.0940,0.019192
205.888,71.1000,0.019192
205.919,71.1062,0.019192
205.951,71.1124,0.019192
205.981,71.1188,0.019192
206.012,71.1250,0.019192
206.044,71.1312,0.019126
206.075,71.1374,0.019126
206.106,71.1436,0.019126
206.137,71.1498,0.019126
206.168,71.1561,0.019126
206.200,71.1623,0.019126
206.230,71.1684,0.019126
206.261,71.1746,0.019126
206.292,71.1806,0.019126
206.323,71.1871,0.019126
206.354,71.1932,0.019060
206.386,71.1996,0.019060
206.418,71.2059,0.019060
206.449,71.2121,0.019060
206.480,71.2185,0.019060
206.511,71.2246,0.019060
206.542,71.2306,0.019060
206.573,71.2371,0.019060
206.604,71.2430,0.018890
206.635,71.2495,0.018890
206.666,71.2557,0.018890
206.697,71.2620,0.018890
206.728,71.2680,0.018890
206.760,71.2744,0.018890
206.791,71.2806,0.018890
206.823,71.2871,0.018890
206.854,71.2931,0.018702
206.886,71.2997,0.018702
206.917,71.3057,0.018702
206.947,71.3120,0.018702
206.979,71.3181,0.018702
207.011,71.3246,0.018702
207.041,71.3306,0.018702
207.072,71.3368,0.018702
207.103,71.3431,0.018495
207.134,71.3491,0.018495
207.164,71.3554,0.018495
207.196,71.3615,0.018495
207.227,71.3677,0.018495
207.257,71.3738,0.018495
207.288,71.3800,0.018495
207.318,71.3860,0.018495
207.350,71.3922,0.018306
207.381,71.3984,0.018306
207.412,71.4048,0.018306
207.443,71.4110,0.018306
207.474,71.4172,0.018306
207.505,71.4234,0.018306
207.537,71.4297,0.018306
207.568,71.4360,0.018231
207.599,71.4422,0.018231
207.630,71.4485,0.018231
207.661,71.4545,0.018231
207.693,71.4609,0.018231
207.723,71.4670,0.018231
207.755,71.4733,0.018231
207.787,71.4798,0.018231
207.817,71.4859,0.017995
207.849,71.4921,0.017995
207.879,71.4981,0.017995
207.911,71.5047,0.017995
207.941,71.5107,0.017995
207.971,71.5166,0.017995
208.003,71.5231,0.017995
208.034,71.5292,0.017995
208.066,71.5356,0.017995
208.097,71.5418,0.017675
208.128,71.5481,0.017675
208.159,71.5542,0.017675
208.190,71.5604,0.017675
208.221,71.5666,0.017675
208.253,71.5731,0.017675
208.285,71.5793,0.017675
208.316,71.5857,0.017345
208.346,71.5915,0.017345
208.376,71.5976,0.017345
208.408,71.6041,0.017345
208.439,71.6101,0.017345
208.471,71.6166,0.017345
208.501,71.6225,0.017345
208.532,71.6287,0.017345
208.563,71.6349,0.017345
208.594,71.6411,0.016978
208.625,71.6473,0.016978
208.656,71.6535,0.016978
208.686,71.6596,0.016978
208.718,71.6660,0.016978
208.749,71.6722,0.016978
208.780,71.6782,0.016978
208.811,71.6847,0.016525
208.842,71.6908,0.016525
208.873,71.6970,0.016525
208.904,71.7032,0.016525
208.935,71.7094,0.016525
208.965,71.7156,0.016525
208.997,71.7218,0.016525
209.028,71.7281,0.016525
209.059,71.7342,0.016525
209.090,71.7405,0.015913
209.121,71.7466,0.015913
209.152,71.7528,0.015913
209.182,71.7588,0.015913
209.214,71.7652,0.015913
209.244,71.7711,0.015913
209.275,71.7776,0.015913
209.307,71.7838,0.015235
209.338,71.7899,0.015235
209.369,71.7961,0.015235
209.399,71.8021,0.015235
209.431,71.8086,0.015235
209.461,71.8144,0.015235
209.494,71.8211,0.015235
209.525,71.8276,0.015235
209.556,71.8335,0.014359
209.587,71.8397,0.014359
209.618,71.8458,0.014359
209.648,71.8520,0.014359
209.679,71.8583,0.014359
209.710,71.8644,0.014359
209.741,71.8707,0.014359
209.773,71.8770,0.014359
209.803,71.8831,0.014359
209.835,71.8893,0.013275
209.866,71.8956,0.013275
209.897,71.9017,0.013275
209.928,71.9080,0.013275
209.960,71.9142,0.013275
209.992,71.9207,0.013275
210.021,71.9265,0.013275
210.051,71.9327,0.013275
210.082,71.9388,0.011975
210.115,71.9454,0.011975
210.146,71.9516,0.011975
210.178,71.9580,0.011975
210.208,71.9640,0.011975
210.239,71.9701,0.011975
210.270,71.9764,0.011975
210.301,71.9826,0.010288
210.331,71.9888,0.010288
210.362,71.9949,0.010288
210.394,72.0011,0.010288
210.425,72.0073,0.010288
210.456,72.0135,0.010288
210.487,72.0197,0.010288
210.517,72.0259,0.010288
210.548,72.0319,0.010288
210.578,72.0380,0.008225
210.610,72.0442,0.008225
210.641,72.0507,0.008225
210.672,72.0566,0.008225
210.704,72.0631,0.008225
210.734,72.0693,0.008225
210.765,72.0754,0.008225
210.797,72.0817,0.008225
210.827,72.0879,0.005681
210.858,72.0940,0.005681
210.889,72.1002,0.005681
210.919,72.1062,0.005681
210.951,72.1126,0.005681
210.982,72.1186,0.005681
211.013,72.1251,0.005681
211.044,72.1310,0.005681
211.076,72.1376,0.002610
211.106,72.1436,0.002610
211.138,72.1500,0.002610
211.169,72.1561,0.002610
211.200,72.1624,0.002610
211.230,72.1682,0.002610
211.260,72.1744,0.002610
211.291,72.1805,0.002610
211.322,72.1870,0.002610
211.353,72.1929,-0.001281
211.385,72.1993,-0.001281
211.416,72.2055,-0.001281
211.447,72.2117,-0.001281
211.478,72.2181,-0.001281
211.509,72.2241,-0.001281
211.539,72.2301,-0.001281
211.570,72.2363,-0.001281
211.601,72.2427,-0.006011
211.632,72.2487,-0.006011
211.663,72.2549,-0.006011
211.694,72.2610,-0.006011
211.724,72.2672,-0.006011
211.756,72.2735,-0.006011
211.787,72.2800,-0.006011
211.819,72.2861,-0.011636
211.850,72.2924,-0.011636
211.881,72.2986,-0.011636
211.913,72.3049,-0.011636
211.944,72.3112,-0.011636
211.975,72.3173,-0.011636
212.006,72.3235,-0.011636
212.037,72.3297,-0.011636
212.068,72.3359,-0.018504
212.099,72.3423,-0.018504
212.130,72.3483,-0.018504
212.161,72.3547,-0.018504
212.192,72.3606,-0.018504
212.223,72.3669,-0.018504
212.253,72.3729,-0.018504
212.284,72.3792,-0.018504
212.316,72.3855,-0.026569
212.347,72.3919,-0.026569
212.379,72.3981,-0.026569
212.411,72.4045,-0.026569
212.442,72.4106,-0.026569
212.472,72.4169,-0.026569
212.504,72.4231,-0.026569
212.536,72.4297,-0.026569
212.567,72.4356,-0.036179
212.597,72.4418,-0.036179
212.629,72.4480,-0.036179
212.661,72.4545,-0.036179
212.691,72.4606,-0.036179
212.722,72.4668,-0.036179
212.753,72.4728,-0.036179
212.783,72.4789,-0.036179
212.814,72.4851,-0.047334
212.845,72.4913,-0.047334
212.876,72.4975,-0.047334
212.907,72.5037,-0.047334
212.938,72.5099,-0.047334
212.969,72.5161,-0.047334
213.001,72.5225,-0.047334
213.032,72.5288,-0.047334
213.063,72.5350,-0.060279
213.095,72.5413,-0.060279
213.126,72.5475,-0.060279
213.156,72.5537,-0.060279
213.187,72.5598,-0.060279
213.218,72.5659,-0.060279
213.249,72.5721,-0.060279
213.281,72.5785,-0.060279
213.311,72.5847,-0.075363
213.342,72.5907,-0.075363
213.373,72.5971,-0.075363
213.406,72.6036,-0.075363
213.436,72.6095,-0.075363
213.466,72.6156,-0.075363
213.498,72.6220,-0.075363
213.530,72.6282,-0.075363
213.561,72.6347,-0.092454
213.592,72.6407,-0.092454
213.622,72.6466,-0.092454
213.653,72.6529,-0.092454
213.683,72.6590,-0.092454
213.715,72.6653,-0.092454
213.745,72.6708,-0.092454
213.776,72.6757,-0.092454
213.807,72.6800,-0.111919
213.838,72.6834,-0.111919
213.869,72.6863,-0.111919
213.900,72.6883,-0.111919
213.931,72.6896,-0.111919
213.962,72.6903,-0.111919
213.993,72.6903,-0.111919
214.023,72.6903,-0.111919
214.053,72.6903,-0.111919
214.085,72.6903,-0.127493
214.116,72.6903,-0.127493
214.148,72.6903,-0.127493
214.180,72.6903,-0.127493
214.209,72.6903,-0.127493
214.241,72.6903,-0.127493
214.273,72.6903,-0.127493
214.305,72.6903,-0.127493
214.334,72.6903,-0.130913
214.365,72.6903,-0.130913
214.396,72.6903,-0.130913
214.426,72.6903,-0.130913
214.458,72.6903,-0.130913
214.489,72.6903,-0.130913
