Elapsed Time (s),Position (mm),Force (N)
-0.020,82.4902,-0.005041
0.010,82.4902,-0.005041
0.042,82.4902,-0.005041
0.073,82.4902,-0.003203
0.105,82.4902,-0.003203
0.135,82.4902,-0.003203
0.167,82.4902,-0.003203
0.198,82.4902,-0.003203
0.228,82.4902,-0.003203
0.260,82.4902,-0.003203
0.292,82.4902,-0.001790
0.322,82.4902,-0.001790
0.353,82.4902,-0.001790
0.385,82.4902,-0.001790
0.415,82.4902,-0.001790
0.447,82.4902,-0.001790
0.478,82.4902,-0.001790
0.509,82.4902,-0.001790
0.540,82.4902,-0.000622
0.571,82.4902,-0.000622
0.602,82.4902,-0.000622
0.634,82.4902,-0.000622
0.663,82.4902,-0.000622
0.694,82.4902,-0.000622
0.726,82.4902,-0.000622
0.757,82.4902,-0.000622
0.789,82.4902,0.000217
0.820,82.4902,0.000217
0.851,82.4902,0.000217
0.882,82.4902,0.000217
0.914,82.4902,0.000217
0.945,82.4902,0.000217
0.977,82.4902,0.000217
1.008,82.4902,0.000848
1.041,82.4902,0.000848
1.071,82.4902,0.000848
1.102,82.4902,0.000848
1.133,82.4902,0.000848
1.163,82.4902,0.000848
1.194,82.4902,0.000848
1.225,82.4902,0.000848
1.256,82.4902,0.000848
1.286,82.4902,0.000848
1.318,82.4902,0.001404
1.349,82.4902,0.001404
1.379,82.4902,0.001404
1.410,82.4902,0.001404
1.443,82.4902,0.001404
1.473,82.4902,0.001404
1.504,82.4902,0.001404
1.535,82.4902,0.001894
1.566,82.4902,0.001894
1.598,82.4902,0.001894
1.629,82.4902,0.001894
1.660,82.4902,0.001894
1.690,82.4902,0.001894
1.721,82.4902,0.001894
1.752,82.4902,0.001894
1.783,82.4902,0.002346
1.815,82.4902,0.002346
1.845,82.4902,0.002346
1.877,82.4902,0.002346
1.907,82.4902,0.002346
1.939,82.4902,0.002346
1.970,82.4902,0.002346
2.002,82.4902,0.002346
2.032,82.4902,0.002704
2.063,82.4902,0.002704
2.094,82.4902,0.002704
2.126,82.4902,0.002704
2.157,82.4902,0.002704
2.189,82.4902,0.002704
2.220,82.4902,0.002704
2.251,82.4902,0.002704
2.282,82.4902,0.003090
2.313,82.4902,0.003090
2.344,82.4902,0.003090
2.374,82.4902,0.003090
2.405,82.4902,0.003090
2.436,82.4902,0.003090
2.466,82.4902,0.003090
2.498,82.4902,0.003090
2.528,82.4902,0.003090
2.559,82.4902,0.003429
2.591,82.4902,0.003429
2.623,82.4902,0.003429
2.653,82.4902,0.003429
2.685,82.4902,0.003429
2.715,82.4902,0.003429
2.747,82.4902,0.003429
2.778,82.4902,0.003665
2.810,82.4902,0.003665
2.842,82.4902,0.003665
2.873,82.4902,0.003665
2.904,82.4902,0.003665
2.935,82.4902,0.003665
2.967,82.4902,0.003665
2.999,82.4902,0.003665
3.030,82.4902,0.003901
3.060,82.4902,0.003901
3.091,82.4902,0.003901
3.124,82.4902,0.003901
3.154,82.4902,0.003901
3.184,82.4902,0.003901
3.215,82.4902,0.003901
3.246,82.4902,0.003901
3.276,82.4902,0.004089
3.308,82.4902,0.004089
3.339,82.4902,0.004089
3.370,82.4902,0.004089
3.401,82.4902,0.004089
3.432,82.4902,0.004089
3.463,82.4902,0.004089
3.495,82.4902,0.004089
3.526,82.4902,0.004343
3.557,82.4902,0.004343
3.589,82.4902,0.004343
3.620,82.4902,0.004343
3.651,82.4902,0.004343
3.682,82.4902,0.004343
3.713,82.4902,0.004343
3.744,82.4902,0.004343
3.774,82.4902,0.004748
3.805,82.4902,0.004748
3.837,82.4902,0.004748
3.869,82.4902,0.004748
3.899,82.4902,0.004748
3.931,82.4902,0.004748
3.962,82.4902,0.004748
3.994,82.4902,0.004748
4.024,82.4902,0.005144
4.056,82.4902,0.005144
4.085,82.4902,0.005144
4.117,82.4902,0.005144
4.148,82.4900,0.005144
4.179,82.4891,0.005144
4.209,82.4875,0.005144
4.239,82.4853,0.005144
4.269,82.4822,0.005144
4.300,82.4786,0.005521
4.332,82.4738,0.005521
4.363,82.4685,0.005521
4.394,82.4624,0.005521
4.426,82.4564,0.005521
4.456,82.4500,0.005521
4.487,82.4440,0.005521
4.518,82.4376,0.008329
4.550,82.4314,0.008329
4.580,82.4255,0.008329
4.610,82.4194,0.008329
4.642,82.4131,0.008329
4.673,82.4068,0.008329
4.705,82.4006,0.008329
4.737,82.3941,0.008329
4.767,82.3880,0.015621
4.798,82.3818,0.015621
4.830,82.3754,0.015621
4.861,82.3693,0.015621
4.892,82.3630,0.015621
4.923,82.3569,0.015621
4.954,82.3506,0.015621
4.986,82.3442,0.015621
5.016,82.3382,0.024430
5.048,82.3318,0.024430
5.079,82.3255,0.024430
5.109,82.3196,0.024430
5.141,82.3132,0.024430
5.172,82.3070,0.024430
5.205,82.3005,0.024430
5.235,82.2944,0.024430
5.266,82.2883,0.032486
5.296,82.2822,0.032486
5.327,82.2762,0.032486
5.357,82.2698,0.032486
5.389,82.2638,0.032486
5.420,82.2574,0.032486
5.450,82.2515,0.032486
5.482,82.2452,0.032486
5.512,82.2392,0.040051
5.543,82.2327,0.040051
5.575,82.2265,0.040051
5.606,82.2201,0.040051
5.637,82.2140,0.040051
5.668,82.2077,0.040051
5.699,82.2016,0.040051
5.731,82.1952,0.040051
5.761,82.1893,0.047513
5.793,82.1828,0.047513
5.826,82.1762,0.047513
5.855,82.1704,0.047513
5.887,82.1642,0.047513
5.918,82.1580,0.047513
5.948,82.1516,0.047513
5.980,82.1456,0.047513
6.011,82.1394,0.047513
6.042,82.1332,0.055229
6.073,82.1270,0.055229
6.104,82.1206,0.055229
6.135,82.1146,0.055229
6.166,82.1084,0.055229
6.196,82.1022,0.055229
6.227,82.0960,0.055229
6.259,82.0897,0.055229
6.290,82.0835,0.055229
6.320,82.0773,0.063323
6.351,82.0713,0.063323
6.383,82.0649,0.063323
6.415,82.0584,0.063323
6.446,82.0523,0.063323
6.477,82.0460,0.063323
6.509,82.0398,0.063323
6.539,82.0336,0.063323
6.570,82.0274,0.072103
6.601,82.0213,0.072103
6.631,82.0152,0.072103
6.662,82.0090,0.072103
6.693,82.0029,0.072103
6.724,81.9965,0.072103
6.755,81.9905,0.072103
6.786,81.9842,0.072103
6.816,81.9781,0.081770
6.847,81.9721,0.081770
6.878,81.9658,0.081770
6.911,81.9593,0.081770
6.941,81.9534,0.081770
6.972,81.9470,0.081770
7.003,81.9408,0.081770
7.035,81.9343,0.092492
7.065,81.9284,0.092492
7.097,81.9222,0.092492
7.128,81.9159,0.092492
7.159,81.9095,0.092492
7.190,81.9033,0.092492
7.222,81.8969,0.092492
7.253,81.8908,0.092492
7.285,81.8845,0.104420
7.315,81.8784,0.104420
7.346,81.8722,0.104420
7.377,81.8659,0.104420
7.407,81.8601,0.104420
7.438,81.8540,0.104420
7.469,81.8477,0.104420
7.500,81.8415,0.104420
7.531,81.8353,0.117695
7.563,81.8289,0.117695
7.593,81.8227,0.117695
7.624,81.8168,0.117695
7.655,81.8104,0.117695
7.687,81.8041,0.117695
7.719,81.7977,0.117695
7.749,81.7915,0.117695
7.781,81.7854,0.132675
7.811,81.7793,0.132675
7.843,81.7730,0.132675
7.874,81.7667,0.132675
7.906,81.7605,0.132675
7.936,81.7543,0.132675
7.967,81.7481,0.132675
7.998,81.7420,0.132675
8.028,81.7358,0.132675
8.060,81.7296,0.149219
8.091,81.7234,0.149219
8.123,81.7169,0.149219
8.153,81.7109,0.149219
8.185,81.7045,0.149219
8.215,81.6985,0.149219
8.246,81.6924,0.149219
8.278,81.6857,0.167620
8.309,81.6796,0.167620
8.341,81.6733,0.167620
8.372,81.6671,0.167620
8.403,81.6609,0.167620
8.434,81.6547,0.167620
8.465,81.6485,0.167620
8.496,81.6421,0.167620
8.527,81.6362,0.167620
8.559,81.6296,0.188036
8.589,81.6237,0.188036
8.621,81.6172,0.188036
8.652,81.6110,0.188036
8.683,81.6048,0.188036
8.714,81.5987,0.188036
8.746,81.5923,0.188036
8.777,81.5860,0.210243
8.808,81.5799,0.210243
8.839,81.5736,0.210243
8.870,81.5675,0.210243
8.901,81.5613,0.210243
8.932,81.5551,0.210243
8.963,81.5488,0.210243
8.995,81.5426,0.210243
9.026,81.5364,0.234522
9.056,81.5303,0.234522
9.087,81.5238,0.234522
9.118,81.5179,0.234522
9.149,81.5116,0.234522
9.180,81.5056,0.234522
9.211,81.4994,0.234522
9.242,81.4931,0.234522
9.274,81.4867,0.234522
9.304,81.4805,0.260592
9.336,81.4743,0.260592
9.366,81.4681,0.260592
9.397,81.4621,0.260592
9.428,81.4557,0.260592
9.459,81.4497,0.260592
9.490,81.4435,0.260592
9.521,81.4373,0.288273
9.553,81.4308,0.288273
9.584,81.4246,0.288273
9.616,81.4183,0.288273
9.647,81.4122,0.288273
9.677,81.4060,0.288273
9.708,81.3997,0.288273
9.740,81.3936,0.288273
9.770,81.3874,0.317159
9.802,81.3812,0.317159
9.833,81.3750,0.317159
9.864,81.3687,0.317159
9.894,81.3627,0.317159
9.925,81.3565,0.317159
9.956,81.3503,0.317159
9.987,81.3441,0.317159
10.018,81.3379,0.346451
10.048,81.3317,0.346451
10.080,81.3255,0.346451
10.111,81.3193,0.346451
10.143,81.3130,0.346451
10.173,81.3068,0.346451
10.203,81.3008,0.346451
10.234,81.2948,0.346451
10.264,81.2887,0.375460
10.295,81.2825,0.375460
10.326,81.2763,0.375460
10.357,81.2701,0.375460
10.387,81.2640,0.375460
10.418,81.2578,0.375460
10.449,81.2518,0.375460
10.481,81.2453,0.375460
10.511,81.2394,0.402679
10.542,81.2331,0.402679
10.572,81.2270,0.402679
10.603,81.2210,0.402679
10.634,81.2149,0.402679
10.665,81.2086,0.402679
10.696,81.2024,0.402679
10.727,81.1960,0.402679
10.758,81.1898,0.402679
10.790,81.1835,0.425093
10.821,81.1773,0.425093
10.852,81.1711,0.425093
10.883,81.1649,0.425093
10.914,81.1588,0.425093
10.944,81.1525,0.425093
10.976,81.1464,0.425093
11.007,81.1401,0.425093
11.038,81.1340,0.434100
11.069,81.1277,0.434100
11.100,81.1216,0.434100
11.130,81.1154,0.434100
11.161,81.1093,0.434100
11.192,81.1031,0.434100
11.222,81.0969,0.434100
11.253,81.0909,0.434100
11.285,81.0845,0.238291
11.317,81.0782,0.238291
11.348,81.0719,0.238291
11.379,81.0656,0.238291
11.410,81.0595,0.238291
11.441,81.0533,0.238291
11.472,81.0472,0.238291
11.503,81.0409,0.238291
11.534,81.0348,0.035322
11.565,81.0285,0.035322
11.596,81.0223,0.035322
11.628,81.0160,0.035322
11.658,81.0099,0.035322
11.690,81.0034,0.035322
11.721,80.9975,0.035322
11.754,80.9908,0.035322
11.784,80.9848,0.025985
11.815,80.9785,0.025985
11.845,80.9724,0.025985
11.877,80.9661,0.025985
11.908,80.9599,0.025985
11.939,80.9537,0.025985
11.969,80.9477,0.025985
12.000,80.9415,0.025985
12.031,80.9353,0.023837
12.062,80.9290,0.023837
12.093,80.9229,0.023837
12.125,80.9165,0.023837
12.156,80.9104,0.023837
12.187,80.9040,0.023837
12.219,80.8978,0.023837
12.250,80.8914,0.023837
12.281,80.8854,0.023205
12.312,80.8790,0.023205
12.344,80.8726,0.023205
12.376,80.8663,0.023205
12.407,80.8601,0.023205
12.439,80.8535,0.023205
12.471,80.8473,0.023205
12.502,80.8410,0.023205
12.533,80.8349,0.023045
12.564,80.8283,0.023045
12.595,80.8226,0.023045
12.626,80.8163,0.023045
12.657,80.8101,0.023045
12.688,80.8039,0.023045
12.720,80.7974,0.023045
12.750,80.7915,0.023026
12.781,80.7853,0.023026
12.812,80.7791,0.023026
12.842,80.7731,0.023026
12.873,80.7669,0.023026
12.905,80.7606,0.023026
12.935,80.7543,0.023026
12.967,80.7481,0.023026
12.998,80.7419,0.023026
13.029,80.7358,0.023026
13.060,80.7296,0.023026
13.092,80.7233,0.023026
13.122,80.7171,0.023026
13.153,80.7110,0.023026
13.184,80.7048,0.023026
13.214,80.6987,0.023026
13.245,80.6925,0.023026
13.276,80.6863,0.023092
13.307,80.6801,0.023092
13.339,80.6736,0.023092
13.370,80.6676,0.023092
13.401,80.6612,0.023092
13.431,80.6553,0.023092
13.462,80.6491,0.023092
13.493,80.6429,0.023092
13.524,80.6366,0.023092
13.555,80.6305,0.023177
13.587,80.6239,0.023177
13.619,80.6178,0.023177
13.650,80.6114,0.023177
13.681,80.6053,0.023177
13.713,80.5989,0.023177
13.743,80.5928,0.023177
13.774,80.5867,0.023177
13.805,80.5806,0.023224
13.836,80.5742,0.023224
13.868,80.5680,0.023224
13.898,80.5618,0.023224
13.929,80.5557,0.023224
13.960,80.5496,0.023224
13.991,80.5433,0.023224
14.023,80.5370,0.023224
14.055,80.5307,0.023224
14.085,80.5244,0.023224
14.116,80.5184,0.023224
14.147,80.5120,0.023224
14.179,80.5058,0.023224
14.211,80.4994,0.023224
14.242,80.4929,0.023224
14.274,80.4867,0.023271
14.304,80.4808,0.023271
14.335,80.4743,0.023271
14.366,80.4683,0.023271
14.397,80.4622,0.023271
14.429,80.4557,0.023271
14.460,80.4495,0.023271
14.491,80.4433,0.023271
14.521,80.4373,0.023271
14.553,80.4311,0.023309
14.583,80.4249,0.023309
14.615,80.4187,0.023309
14.645,80.4125,0.023309
14.676,80.4063,0.023309
14.707,80.4001,0.023309
14.739,80.3937,0.023309
14.771,80.3874,0.023309
14.801,80.3813,0.023356
14.832,80.3750,0.023356
14.864,80.3688,0.023356
14.895,80.3625,0.023356
14.926,80.3564,0.023356
14.957,80.3502,0.023356
14.988,80.3439,0.023356
15.019,80.3377,0.023356
15.050,80.3316,0.023497
15.082,80.3251,0.023497
15.113,80.3189,0.023497
15.143,80.3127,0.023497
15.175,80.3067,0.023497
15.206,80.3005,0.023497
15.237,80.2941,0.023497
15.268,80.2879,0.023497
15.299,80.2819,0.023497
15.331,80.2753,0.023582
15.361,80.2695,0.023582
15.392,80.2631,0.023582
15.423,80.2571,0.023582
15.453,80.2509,0.023582
15.484,80.2447,0.023582
15.515,80.2383,0.023582
15.546,80.2322,0.023658
15.578,80.2259,0.023658
15.608,80.2198,0.023658
15.641,80.2134,0.023658
15.671,80.2073,0.023658
15.702,80.2011,0.023658
15.733,80.1950,0.023658
15.763,80.1888,0.023658
15.793,80.1829,0.023724
15.825,80.1766,0.023724
15.854,80.1707,0.023724
15.885,80.1644,0.023724
15.917,80.1582,0.023724
15.948,80.1519,0.023724
15.979,80.1458,0.023724
16.009,80.1397,0.023724
16.040,80.1335,0.023771
16.071,80.1275,0.023771
16.102,80.1211,0.023771
16.135,80.1146,0.023771
16.165,80.1085,0.023771
16.196,80.1023,0.023771
16.227,80.0962,0.023771
16.257,80.0901,0.023771
16.288,80.0839,0.023855
16.320,80.0775,0.023855
16.351,80.0713,0.023855
16.382,80.0651,0.023855
16.413,80.0590,0.023855
16.444,80.0527,0.023855
16.475,80.0466,0.023855
16.505,80.0405,0.023855
16.536,80.0343,0.023893
16.568,80.0280,0.023893
16.599,80.0218,0.023893
16.630,80.0155,0.023893
16.660,80.0095,0.023893
16.691,80.0033,0.023893
16.721,79.9971,0.023893
16.753,79.9910,0.023893
16.784,79.9848,0.023959
16.816,79.9784,0.023959
16.847,79.9722,0.023959
16.880,79.9656,0.023959
16.909,79.9598,0.023959
16.941,79.9534,0.023959
16.971,79.9475,0.023959
17.002,79.9412,0.023959
17.033,79.9351,0.024016
17.064,79.9288,0.024016
17.094,79.9228,0.024016
17.125,79.9166,0.024016
17.156,79.9103,0.024016
17.186,79.9043,0.024016
17.218,79.8980,0.024016
17.250,79.8916,0.024016
17.281,79.8854,0.024082
17.312,79.8792,0.024082
17.343,79.8730,0.024082
17.374,79.8666,0.024082
17.405,79.8606,0.024082
17.436,79.8542,0.024082
17.467,79.8483,0.024082
17.498,79.8418,0.024082
17.530,79.8356,0.024072
17.561,79.8292,0.024072
17.593,79.8228,0.024072
17.623,79.8168,0.024072
17.654,79.8107,0.024072
17.686,79.8044,0.024072
17.718,79.7980,0.024072
17.749,79.7917,0.024072
17.780,79.7856,0.024082
17.811,79.7793,0.024082
17.843,79.7731,0.024082
17.874,79.7665,0.024082
17.906,79.7602,0.024082
17.938,79.7539,0.024082
17.969,79.7478,0.024082
18.001,79.7412,0.024082
18.032,79.7353,0.024223
18.063,79.7290,0.024223
18.092,79.7231,0.024223
18.125,79.7166,0.024223
18.155,79.7105,0.024223
18.185,79.7045,0.024223
18.216,79.6985,0.024223
18.247,79.6921,0.024261
18.278,79.6859,0.024261
18.308,79.6800,0.024261
18.339,79.6736,0.024261
18.371,79.6674,0.024261
18.403,79.6610,0.024261
18.434,79.6548,0.024261
18.465,79.6485,0.024261
18.496,79.6423,0.024261
18.528,79.6359,0.024261
18.559,79.6297,0.024289
18.590,79.6235,0.024289
18.621,79.6175,0.024289
18.652,79.6113,0.024289
18.683,79.6051,0.024289
18.714,79.5987,0.024289
18.745,79.5927,0.024289
18.776,79.5863,0.024289
18.807,79.5803,0.024317
18.837,79.5742,0.024317
18.868,79.5681,0.024317
18.898,79.5619,0.024317
18.929,79.5558,0.024317
18.961,79.5494,0.024317
18.992,79.5432,0.024317
19.023,79.5370,0.024317
19.054,79.5308,0.024327
19.086,79.5243,0.024327
19.116,79.5181,0.024327
19.147,79.5122,0.024327
19.178,79.5060,0.024327
19.210,79.4994,0.024327
19.241,79.4933,0.024327
19.273,79.4870,0.024327
19.303,79.4810,0.024345
19.333,79.4750,0.024345
19.363,79.4689,0.024345
19.395,79.4628,0.024345
19.425,79.4575,0.024345
19.456,79.4528,0.024345
19.487,79.4489,0.024345
19.519,79.4456,0.024345
19.550,79.4432,0.024279
19.581,79.4415,0.024279
19.611,79.4405,0.024279
19.642,79.4402,0.024279
19.674,79.4402,0.024279
19.704,79.4402,0.024279
19.736,79.4402,0.024279
19.767,79.4402,0.024279
19.798,79.4409,0.024148
19.829,79.4422,0.024148
19.860,79.4442,0.024148
19.891,79.4471,0.024148
19.921,79.4504,0.024148
19.952,79.4546,0.024148
19.983,79.4595,0.024148
20.014,79.4653,0.024148
20.045,79.4714,0.023969
20.075,79.4774,0.023969
20.107,79.4838,0.023969
20.138,79.4901,0.023969
20.169,79.4963,0.023969
20.200,79.5022,0.023969
20.231,79.5084,0.023969
20.262,79.5149,0.023969
20.293,79.5210,0.023705
20.325,79.5273,0.023705
20.356,79.5334,0.023705
20.387,79.5397,0.023705
20.418,79.5458,0.023705
20.448,79.5521,0.023705
20.479,79.5582,0.023705
20.510,79.5644,0.023705
20.540,79.5703,0.023573
20.573,79.5769,0.023573
20.603,79.5829,0.023573
20.635,79.5894,0.023573
20.667,79.5956,0.023573
20.698,79.6020,0.023573
20.729,79.6080,0.023573
20.759,79.6141,0.023545
20.789,79.6202,0.023545
20.820,79.6264,0.023545
20.852,79.6326,0.023545
20.882,79.6387,0.023545
20.913,79.6450,0.023545
20.943,79.6510,0.023545
20.975,79.6574,0.023545
21.006,79.6635,0.023545
21.037,79.6698,0.023450
21.068,79.6759,0.023450
21.100,79.6823,0.023450
21.130,79.6883,0.023450
21.161,79.6946,0.023450
21.193,79.7008,0.023450
21.223,79.7070,0.023450
21.254,79.7131,0.023450
21.285,79.7194,0.023366
21.316,79.7256,0.023366
21.347,79.7317,0.023366
21.377,79.7378,0.023366
21.409,79.7441,0.023366
21.440,79.7504,0.023366
21.471,79.7565,0.023366
21.501,79.7626,0.023366
21.532,79.7688,0.023290
21.564,79.7751,0.023290
21.595,79.7812,0.023290
21.626,79.7876,0.023290
21.658,79.7940,0.023290
21.690,79.8004,0.023290
21.721,79.8065,0.023290
21.752,79.8129,0.023290
21.782,79.8189,0.023215
21.813,79.8250,0.023215
21.845,79.8312,0.023215
21.877,79.8376,0.023215
21.908,79.8438,0.023215
21.939,79.8501,0.023215
21.969,79.8561,0.023215
22.001,79.8625,0.023215
22.031,79.8685,0.023102
22.062,79.8748,0.023102
22.093,79.8809,0.023102
22.125,79.8873,0.023102
22.156,79.8934,0.023102
22.186,79.8997,0.023102
22.217,79.9057,0.023102
22.249,79.9123,0.023102
22.280,79.9185,0.022989
22.312,79.9247,0.022989
22.343,79.9309,0.022989
22.374,79.9371,0.022989
22.405,79.9433,0.022989
22.437,79.9496,0.022989
22.468,79.9560,0.022989
22.499,79.9623,0.022989
22.531,79.9685,0.022932
22.561,79.9745,0.022932
22.592,79.9806,0.022932
22.624,79.9871,0.022932
22.654,79.9930,0.022932
22.686,79.9995,0.022932
22.716,80.0054,0.022932
22.747,80.0116,0.022932
22.779,80.0179,0.022838
22.810,80.0243,0.022838
22.841,80.0306,0.022838
22.872,80.0368,0.022838
22.903,80.0429,0.022838
22.934,80.0492,0.022838
22.965,80.0553,0.022838
22.996,80.0616,0.022838
23.028,80.0678,0.022697
23.059,80.0741,0.022697
23.089,80.0803,0.022697
23.121,80.0865,0.022697
23.153,80.0930,0.022697
23.185,80.0992,0.022697
23.215,80.1055,0.022697
23.247,80.1116,0.022697
23.277,80.1179,0.022602
23.308,80.1240,0.022602
23.339,80.1303,0.022602
23.371,80.1366,0.022602
23.401,80.1427,0.022602
23.433,80.1490,0.022602
23.465,80.1554,0.022602
23.496,80.1616,0.022602
23.527,80.1679,0.022555
23.559,80.1741,0.022555
23.590,80.1803,0.022555
23.621,80.1865,0.022555
23.652,80.1926,0.022555
23.683,80.1989,0.022555
23.714,80.2051,0.022555
23.745,80.2114,0.022555
23.776,80.2176,0.022386
23.807,80.2237,0.022386
23.838,80.2299,0.022386
23.868,80.2358,0.022386
23.900,80.2423,0.022386
23.931,80.2484,0.022386
23.962,80.2546,0.022386
23.993,80.2609,0.022386
24.024,80.2671,0.022292
24.055,80.2734,0.022292
24.086,80.2796,0.022292
24.118,80.2858,0.022292
24.148,80.2920,0.022292
24.180,80.2982,0.022292
24.212,80.3047,0.022292
24.242,80.3106,0.022292
24.272,80.3170,0.022292
24.303,80.3228,0.022216
24.334,80.3291,0.022216
24.365,80.3353,0.022216
24.396,80.3416,0.022216
24.428,80.3480,0.022216
24.459,80.3542,0.022216
24.490,80.3604,0.022216
24.522,80.3667,0.022216
24.552,80.3726,0.022094
24.582,80.3787,0.022094
24.614,80.3850,0.022094
24.645,80.3912,0.022094
24.676,80.3974,0.022094
24.708,80.4038,0.022094
24.738,80.4099,0.022094
24.769,80.4162,0.022094
24.800,80.4223,0.022028
24.832,80.4286,0.022028
24.863,80.4349,0.022028
24.894,80.4412,0.022028
24.925,80.4473,0.022028
24.957,80.4538,0.022028
24.988,80.4598,0.022028
25.019,80.4660,0.022028
25.050,80.4722,0.021896
25.082,80.4787,0.021896
25.113,80.4848,0.021896
25.144,80.4910,0.021896
25.175,80.4972,0.021896
25.204,80.5031,0.021896
25.235,80.5093,0.021896
25.267,80.5158,0.021896
25.298,80.5218,0.021830
25.329,80.5282,0.021830
25.360,80.5344,0.021830
25.391,80.5406,0.021830
25.423,80.5469,0.021830
25.454,80.5531,0.021830
25.486,80.5594,0.021830
25.518,80.5659,0.021830
25.549,80.5721,0.021698
25.581,80.5784,0.021698
25.612,80.5846,0.021698
25.643,80.5909,0.021698
25.673,80.5968,0.021698
25.704,80.6031,0.021698
25.735,80.6093,0.021698
25.768,80.6159,0.021698
25.798,80.6219,0.021528
25.830,80.6283,0.021528
25.861,80.6347,0.021528
25.892,80.6408,0.021528
25.924,80.6471,0.021528
25.955,80.6533,0.021528
25.986,80.6595,0.021528
26.017,80.6657,0.021528
26.048,80.6719,0.021462
26.079,80.6781,0.021462
26.110,80.6844,0.021462
26.142,80.6908,0.021462
26.173,80.6971,0.021462
26.204,80.7032,0.021462
26.236,80.7096,0.021462
26.268,80.7159,0.021462
26.299,80.7224,0.021349
26.330,80.7285,0.021349
26.362,80.7345,0.021349
26.393,80.7407,0.021349
26.424,80.7471,0.021349
26.454,80.7531,0.021349
26.485,80.7592,0.021349
26.516,80.7656,0.021199
26.548,80.7719,0.021199
26.579,80.7781,0.021199
26.609,80.7842,0.021199
26.641,80.7905,0.021199
26.672,80.7967,0.021199
26.702,80.8028,0.021199
26.733,80.8090,0.021199
26.765,80.8153,0.021095
26.796,80.8214,0.021095
26.827,80.8277,0.021095
26.859,80.8340,0.021095
26.890,80.8402,0.021095
26.920,80.8464,0.021095
26.951,80.8526,0.021095
26.982,80.8587,0.021095
27.013,80.8650,0.020954
27.044,80.8711,0.020954
27.075,80.8773,0.020954
27.107,80.8836,0.020954
27.137,80.8898,0.020954
27.168,80.8959,0.020954
27.200,80.9023,0.020954
27.230,80.9083,0.020954
27.261,80.9146,0.020954
27.294,80.9210,0.020822
27.323,80.9270,0.020822
27.354,80.9332,0.020822
27.386,80.9396,0.020822
27.417,80.9456,0.020822
27.448,80.9521,0.020822
27.481,80.9585,0.020822
27.511,80.9646,0.020671
27.541,80.9704,0.020671
27.572,80.9768,0.020671
27.604,80.9830,0.020671
27.634,80.9892,0.020671
27.665,80.9955,0.020671
27.696,81.0016,0.020671
27.728,81.0079,0.020671
27.758,81.0138,0.020671
27.790,81.0203,0.020511
27.821,81.0266,0.020511
27.852,81.0328,0.020511
27.883,81.0388,0.020511
27.915,81.0453,0.020511
27.946,81.0514,0.020511
27.978,81.0580,0.020511
28.009,81.0641,0.020398
28.041,81.0706,0.020398
28.073,81.0768,0.020398
28.103,81.0831,0.020398
28.132,81.0889,0.020398
28.163,81.0950,0.020398
28.195,81.1012,0.020398
28.225,81.1074,0.020398
28.256,81.1137,0.020398
28.288,81.1198,0.020398
28.320,81.1262,0.020275
28.350,81.1323,0.020275
28.381,81.1385,0.020275
28.412,81.1446,0.020275
28.443,81.1509,0.020275
28.473,81.1570,0.020275
28.505,81.1633,0.020275
28.535,81.1694,0.020172
28.567,81.1758,0.020172
28.598,81.1818,0.020172
28.631,81.1886,0.020172
28.661,81.1944,0.020172
28.692,81.2006,0.020172
28.723,81.2068,0.020172
28.753,81.2129,0.020172
28.785,81.2194,0.020011
28.815,81.2253,0.020011
28.846,81.2315,0.020011
28.877,81.2377,0.020011
28.908,81.2439,0.020011
28.939,81.2500,0.020011
28.970,81.2562,0.020011
29.001,81.2625,0.020011
29.032,81.2686,0.019842
29.063,81.2748,0.019842
29.094,81.2811,0.019842
29.126,81.2876,0.019842
29.158,81.2938,0.019842
29.189,81.3001,0.019842
29.221,81.3065,0.019842
29.253,81.3129,0.019842
29.284,81.3191,0.019672
29.315,81.3254,0.019672
29.345,81.3312,0.019672
29.377,81.3375,0.019672
29.408,81.3439,0.019672
29.439,81.3501,0.019672
29.470,81.3564,0.019672
29.502,81.3626,0.019672
29.533,81.3690,0.019522
29.565,81.3751,0.019522
29.596,81.3816,0.019522
29.627,81.3877,0.019522
29.658,81.3940,0.019522
29.689,81.4001,0.019522
29.720,81.4063,0.019522
29.751,81.4125,0.019522
29.783,81.4189,0.019371
29.813,81.4249,0.019371
29.843,81.4308,0.019371
29.874,81.4370,0.019371
29.904,81.4431,0.019371
29.935,81.4493,0.019371
29.966,81.4555,0.019371
29.997,81.4617,0.019371
30.027,81.4676,0.019201
30.059,81.4741,0.019201
30.088,81.4799,0.019201
30.119,81.4861,0.019201
30.150,81.4922,0.019201
30.181,81.4984,0.019201
30.213,81.5049,0.019201
30.244,81.5109,0.019201
30.274,81.5171,0.019060
30.305,81.5232,0.019060
30.336,81.5295,0.019060
30.368,81.5359,0.019060
30.399,81.5421,0.019060
30.430,81.5484,0.019060
30.461,81.5545,0.019060
30.492,81.5607,0.019060
30.523,81.5669,0.018919
30.554,81.5729,0.018919
30.585,81.5791,0.018919
30.616,81.5853,0.018919
30.646,81.5913,0.018919
30.677,81.5976,0.018919
30.708,81.6037,0.018919
30.738,81.6099,0.018919
30.769,81.6161,0.018730
30.800,81.6222,0.018730
30.832,81.6286,0.018730
30.862,81.6346,0.018730
30.893,81.6409,0.018730
30.924,81.6472,0.018730
30.956,81.6534,0.018730
30.986,81.6596,0.018730
31.017,81.6657,0.018730
31.049,81.6722,0.018513
31.080,81.6782,0.018513
31.110,81.6844,0.018513
31.142,81.6906,0.018513
31.173,81.6970,0.018513
31.206,81.7034,0.018513
31.236,81.7096,0.018513
31.268,81.7157,0.018513
31.299,81.7223,0.018372
31.331,81.7286,0.018372
31.362,81.7348,0.018372
31.393,81.7409,0.018372
31.423,81.7468,0.018372
31.455,81.7533,0.018372
31.486,81.7594,0.018372
31.517,81.7658,0.018372
31.548,81.7718,0.018089
31.579,81.7780,0.018089
31.610,81.7842,0.018089
31.641,81.7904,0.018089
31.672,81.7966,0.018089
31.703,81.8028,0.018089
31.735,81.8093,0.018089
31.765,81.8152,0.018089
31.797,81.8217,0.017788
31.827,81.8277,0.017788
31.858,81.8339,0.017788
31.890,81.8403,0.017788
31.922,81.8465,0.017788
31.953,81.8529,0.017788
31.983,81.8591,0.017788
32.014,81.8650,0.017637
32.045,81.8711,0.017637
32.076,81.8774,0.017637
32.107,81.8837,0.017637
32.139,81.8901,0.017637
32.170,81.8963,0.017637
32.200,81.9025,0.017637
32.232,81.9087,0.017637
32.263,81.9150,0.017411
32.294,81.9211,0.017411
32.325,81.9273,0.017411
32.357,81.9336,0.017411
32.387,81.9398,0.017411
32.418,81.9460,0.017411
32.449,81.9522,0.017411
32.480,81.9582,0.017411
32.510,81.9642,0.017100
32.541,81.9706,0.017100
32.572,81.9766,0.017100
32.604,81.9831,0.017100
32.633,81.9889,0.017100
32.667,81.9956,0.017100
32.698,82.0019,0.017100
32.729,82.0079,0.017100
32.760,82.0141,0.017100
32.791,82.0203,0.016610
32.821,82.0264,0.016610
32.852,82.0327,0.016610
32.883,82.0388,0.016610
32.914,82.0451,0.016610
32.945,82.0512,0.016610
32.976,82.0575,0.016610
33.007,82.0636,0.016610
33.038,82.0699,0.016610
33.069,82.0760,0.016026
33.101,82.0824,0.016026
33.131,82.0884,0.016026
33.162,82.0947,0.016026
33.191,82.1005,0.016026
33.224,82.1070,0.016026
33.254,82.1133,0.016026
33.285,82.1194,0.015301
33.316,82.1255,0.015301
33.347,82.1318,0.015301
33.378,82.1379,0.015301
33.409,82.1442,0.015301
33.441,82.1505,0.015301
33.472,82.1567,0.015301
33.502,82.1627,0.015301
33.534,82.1691,0.015301
33.564,82.1751,0.014302
33.596,82.1815,0.014302
33.628,82.1877,0.014302
33.659,82.1942,0.014302
33.690,82.2003,0.014302
33.721,82.2066,0.014302
33.751,82.2125,0.014302
33.782,82.2186,0.014302
33.814,82.2251,0.012926
33.843,82.2309,0.012926
33.874,82.2370,0.012926
33.905,82.2433,0.012926
33.936,82.2496,0.012926
33.968,82.2558,0.012926
33.999,82.2620,0.012926
34.030,82.2681,0.011023
34.061,82.2744,0.011023
34.092,82.2809,0.011023
34.123,82.2868,0.011023
34.155,82.2933,0.011023
34.185,82.2993,0.011023
34.217,82.3058,0.011023
34.249,82.3120,0.011023
34.279,82.3181,0.008432
34.311,82.3244,0.008432
34.342,82.3307,0.008432
34.373,82.3368,0.008432
34.404,82.3431,0.008432
34.436,82.3495,0.008432
34.467,82.3558,0.008432
34.497,82.3617,0.008432
34.528,82.3678,0.004909
34.560,82.3741,0.004909
34.591,82.3803,0.004909
34.622,82.3868,0.004909
34.652,82.3927,0.004909
34.684,82.3989,0.004909
34.715,82.4051,0.004909
34.745,82.4113,0.004909
34.776,82.4173,0.000528
34.807,82.4228,0.000528
34.838,82.4273,0.000528
34.870,82.4314,0.000528
34.901,82.4347,0.000528
34.932,82.4371,0.000528
34.963,82.4389,0.000528
34.993,82.4399,0.000528
35.024,82.4402,-0.003985
35.056,82.4402,-0.003985
35.087,82.4402,-0.003985
35.119,82.4402,-0.003985
35.150,82.4402,-0.003985
35.181,82.4402,-0.003985
35.212,82.4402,-0.003985
35.242,82.4402,-0.003985
35.273,82.4402,-0.005446
35.304,82.4402,-0.005446
35.335,82.4402,-0.005446
35.366,82.4402,-0.005446
35.397,82.4402,-0.005446
35.428,82.4402,-0.005446
35.459,82.4402,-0.005446
35.490,82.4402,-0.005446
35.522,82.4402,-0.005446
35.553,82.4402,-0.003787
35.584,82.4402,-0.003787
35.616,82.4402,-0.003787
35.646,82.4402,-0.003787
35.677,82.4402,-0.003787
35.708,82.4402,-0.003787
35.738,82.4402,-0.003787
35.770,82.4402,-0.002101
35.801,82.4402,-0.002101
35.832,82.4402,-0.002101
35.863,82.4402,-0.002101
35.895,82.4402,-0.002101
35.926,82.4402,-0.002101
35.958,82.4402,-0.002101
35.989,82.4402,-0.002101
36.020,82.4402,-0.000914
36.051,82.4402,-0.000914
36.082,82.4402,-0.000914
36.113,82.4402,-0.000914
36.144,82.4402,-0.000914
36.175,82.4402,-0.000914
36.206,82.4402,-0.000914
36.238,82.4402,-0.000914
36.269,82.4402,0.000028
36.301,82.4402,0.000028
36.333,82.4402,0.000028
36.363,82.4402,0.000028
36.393,82.4402,0.000028
36.424,82.4402,0.000028
36.456,82.4402,0.000028
36.486,82.4402,0.000028
36.517,82.4402,0.000848
36.548,82.4402,0.000848
36.579,82.4402,0.000848
36.610,82.4402,0.000848
36.641,82.4402,0.000848
36.672,82.4402,0.000848
36.704,82.4402,0.000848
36.735,82.4402,0.000848
36.765,82.4402,0.001432
36.797,82.4402,0.001432
36.828,82.4402,0.001432
36.861,82.4402,0.001432
36.892,82.4402,0.001432
36.923,82.4402,0.001432
36.954,82.4402,0.001432
36.984,82.4402,0.001432
37.015,82.4402,0.001894
37.046,82.4402,0.001894
37.077,82.4402,0.001894
37.108,82.4402,0.001894
37.138,82.4402,0.001894
37.170,82.4402,0.001894
37.200,82.4402,0.001894
37.232,82.4402,0.001894
37.263,82.4402,0.001894
37.294,82.4402,0.001894
37.324,82.4402,0.002327
37.355,82.4402,0.002327
37.386,82.4402,0.002327
37.417,82.4402,0.002327
37.448,82.4402,0.002327
37.479,82.4402,0.002327
37.509,82.4402,0.002327
37.542,82.4402,0.002723
37.572,82.4402,0.002723
37.604,82.4402,0.002723
37.635,82.4402,0.002723
37.665,82.4402,0.002723
37.695,82.4402,0.002723
37.727,82.4402,0.002723
37.758,82.4402,0.002723
37.788,82.4402,0.002723
37.820,82.4402,0.003128
37.850,82.4402,0.003128
37.881,82.4402,0.003128
37.912,82.4402,0.003128
37.944,82.4402,0.003128
37.974,82.4402,0.003128
38.006,82.4402,0.003128
38.037,82.4402,0.003458
38.068,82.4402,0.003458
38.100,82.4402,0.003458
38.132,82.4402,0.003458
38.163,82.4402,0.003458
38.196,82.4402,0.003458
38.225,82.4402,0.003458
38.256,82.4402,0.003458
38.287,82.4402,0.003722
38.318,82.4402,0.003722
38.349,82.4402,0.003722
38.380,82.4402,0.003722
38.411,82.4402,0.003722
38.442,82.4402,0.003722
38.473,82.4402,0.003722
38.503,82.4402,0.003722
38.534,82.4402,0.004004
38.568,82.4402,0.004004
38.599,82.4402,0.004004
38.630,82.4402,0.004004
38.659,82.4402,0.004004
38.690,82.4402,0.004004
38.721,82.4402,0.004004
38.751,82.4402,0.004004
38.782,82.4402,0.004004
38.813,82.4402,0.004230
38.845,82.4402,0.004230
38.876,82.4402,0.004230
38.907,82.4402,0.004230
38.938,82.4402,0.004230
38.969,82.4402,0.004230
39.000,82.4402,0.004230
39.031,82.4402,0.004428
39.063,82.4402,0.004428
39.094,82.4402,0.004428
39.124,82.4402,0.004428
39.156,82.4402,0.004428
39.186,82.4402,0.004428
39.219,82.4402,0.004428
39.250,82.4402,0.004428
39.281,82.4402,0.004767
39.312,82.4402,0.004767
39.343,82.4402,0.004767
39.374,82.4402,0.004767
39.405,82.4402,0.004767
39.436,82.4402,0.004767
39.467,82.4402,0.004767
39.499,82.4402,0.004767
39.530,82.4402,0.004767
39.561,82.4402,0.005191
39.593,82.4402,0.005191
39.623,82.4402,0.005191
39.653,82.4397,0.005191
39.685,82.4384,0.005191
39.715,82.4365,0.005191
39.746,82.4338,0.005191
39.778,82.4303,0.005625
39.810,82.4260,0.005625
39.841,82.4213,0.005625
39.871,82.4156,0.005625
39.902,82.4095,0.005625
39.933,82.4032,0.005625
39.964,82.3971,0.005625
39.995,82.3906,0.005625
40.026,82.3847,0.008658
40.058,82.3782,0.008658
40.089,82.3720,0.008658
40.121,82.3657,0.008658
40.152,82.3595,0.008658
40.183,82.3532,0.008658
40.214,82.3470,0.008658
40.245,82.3408,0.008658
40.276,82.3344,0.016083
40.307,82.3284,0.016083
40.338,82.3223,0.016083
40.369,82.3161,0.016083
40.400,82.3098,0.016083
40.431,82.3038,0.016083
40.461,82.2975,0.016083
40.493,82.2912,0.016083
40.525,82.2848,0.024779
40.555,82.2786,0.024779
40.586,82.2726,0.024779
40.617,82.2666,0.024779
40.648,82.2603,0.024779
40.680,82.2540,0.024779
40.711,82.2476,0.024779
40.741,82.2416,0.024779
40.774,82.2350,0.024779
40.804,82.2290,0.032702
40.834,82.2231,0.032702
40.865,82.2170,0.032702
40.896,82.2105,0.032702
40.927,82.2045,0.032702
40.958,82.1981,0.032702
40.989,82.1921,0.032702
41.020,82.1859,0.032702
41.051,82.1797,0.040277
41.082,82.1736,0.040277
41.113,82.1673,0.040277
41.144,82.1609,0.040277
41.174,82.1551,0.040277
41.205,82.1488,0.040277
41.236,82.1428,0.040277
41.267,82.1365,0.040277
41.298,82.1304,0.040277
41.329,82.1240,0.047833
41.360,82.1180,0.047833
41.390,82.1117,0.047833
41.421,82.1056,0.047833
41.452,82.0994,0.047833
41.483,82.0933,0.047833
41.514,82.0870,0.047833
41.545,82.0808,0.055559
41.576,82.0746,0.055559
41.607,82.0684,0.055559
41.639,82.0621,0.055559
41.669,82.0561,0.055559
41.700,82.0498,0.055559
41.731,82.0435,0.055559
41.762,82.0375,0.055559
41.793,82.0313,0.063671
41.824,82.0250,0.063671
41.855,82.0189,0.063671
41.885,82.0126,0.063671
41.916,82.0067,0.063671
41.947,82.0005,0.063671
41.978,81.9943,0.063671
42.009,81.9879,0.063671
42.040,81.9818,0.072480
42.071,81.9756,0.072480
42.103,81.9694,0.072480
42.134,81.9631,0.072480
42.166,81.9568,0.072480
42.197,81.9505,0.072480
42.228,81.9443,0.072480
42.260,81.9378,0.072480
42.290,81.9320,0.082156
42.320,81.9258,0.082156
42.351,81.9197,0.082156
42.383,81.9134,0.082156
42.414,81.9072,0.082156
42.445,81.9010,0.082156
42.476,81.8948,0.082156
42.506,81.8887,0.082156
42.537,81.8825,0.092906
42.568,81.8763,0.092906
42.599,81.8702,0.092906
42.630,81.8639,0.092906
42.661,81.8577,0.092906
42.692,81.8515,0.092906
42.724,81.8452,0.092906
42.754,81.8390,0.092906
42.785,81.8329,0.104938
42.816,81.8267,0.104938
42.847,81.8205,0.104938
42.878,81.8143,0.104938
42.910,81.8077,0.104938
42.941,81.8018,0.104938
42.971,81.7957,0.104938
43.002,81.7896,0.104938
43.032,81.7835,0.118401
43.062,81.7775,0.118401
43.094,81.7711,0.118401
43.125,81.7651,0.118401
43.156,81.7587,0.118401
43.187,81.7525,0.118401
43.219,81.7462,0.118401
43.250,81.7400,0.118401
43.282,81.7337,0.133334
43.313,81.7274,0.133334
43.343,81.7214,0.133334
43.374,81.7151,0.133334
43.404,81.7091,0.133334
43.435,81.7029,0.133334
43.466,81.6967,0.133334
43.497,81.6905,0.133334
43.527,81.6846,0.133334
43.559,81.6781,0.150020
43.589,81.6720,0.150020
43.619,81.6660,0.150020
43.650,81.6600,0.150020
43.680,81.6538,0.150020
43.712,81.6476,0.150020
43.742,81.6414,0.150020
43.774,81.6352,0.168552
43.806,81.6288,0.168552
43.837,81.6226,0.168552
43.868,81.6164,0.168552
43.899,81.6100,0.168552
43.930,81.6039,0.168552
43.960,81.5979,0.168552
43.991,81.5917,0.168552
44.023,81.5855,0.188856
44.054,81.5790,0.188856
44.085,81.5731,0.188856
44.116,81.5666,0.188856
44.146,81.5605,0.188856
44.178,81.5542,0.188856
44.208,81.5483,0.188856
44.240,81.5419,0.188856
44.270,81.5360,0.211261
44.301,81.5295,0.211261
44.332,81.5236,0.211261
44.363,81.5173,0.211261
44.394,81.5111,0.211261
44.426,81.5047,0.211261
44.457,81.4985,0.211261
44.488,81.4925,0.211261
44.518,81.4861,0.235502
44.549,81.4799,0.235502
44.580,81.4740,0.235502
44.611,81.4676,0.235502
44.643,81.4614,0.235502
44.674,81.4552,0.235502
44.705,81.4489,0.235502
44.738,81.4423,0.235502
44.767,81.4365,0.261421
44.798,81.4303,0.261421
44.829,81.4241,0.261421
44.861,81.4178,0.261421
44.892,81.4116,0.261421
44.922,81.4054,0.261421
44.954,81.3992,0.261421
44.986,81.3929,0.261421
45.017,81.3865,0.288960
45.048,81.3803,0.288960
45.079,81.3741,0.288960
45.110,81.3678,0.288960
45.141,81.3619,0.288960
45.172,81.3554,0.288960
45.203,81.3495,0.288960
45.234,81.3431,0.288960
45.266,81.3367,0.317461
45.297,81.3305,0.317461
45.328,81.3243,0.317461
45.359,81.3182,0.317461
45.390,81.3117,0.317461
45.421,81.3055,0.317461
45.453,81.2993,0.317461
45.484,81.2930,0.317461
45.515,81.2869,0.346385
45.545,81.2809,0.346385
45.576,81.2747,0.346385
45.606,81.2687,0.346385
45.637,81.2626,0.346385
45.668,81.2563,0.346385
45.698,81.2502,0.346385
45.730,81.2439,0.346385
45.761,81.2378,0.374688
45.791,81.2315,0.374688
45.822,81.2254,0.374688
45.853,81.2194,0.374688
45.883,81.2133,0.374688
45.914,81.2070,0.374688
45.945,81.2009,0.374688
45.976,81.1947,0.374688
46.006,81.1887,0.400776
46.037,81.1824,0.400776
46.068,81.1763,0.400776
46.099,81.1701,0.400776
46.129,81.1638,0.400776
46.160,81.1577,0.400776
46.191,81.1516,0.400776
46.222,81.1456,0.400776
46.253,81.1391,0.400776
46.283,81.1333,0.421080
46.315,81.1270,0.421080
46.346,81.1209,0.421080
46.377,81.1146,0.421080
46.408,81.1084,0.421080
46.439,81.1020,0.421080
46.470,81.0958,0.421080
46.502,81.0895,0.421080
46.533,81.0834,0.422220
46.564,81.0771,0.422220
46.595,81.0709,0.422220
46.627,81.0646,0.422220
46.658,81.0582,0.422220
46.689,81.0520,0.422220
46.721,81.0458,0.422220
46.752,81.0395,0.422220
46.783,81.0333,0.216913
46.815,81.0270,0.216913
46.846,81.0208,0.216913
46.877,81.0146,0.216913
46.908,81.0084,0.216913
46.938,81.0023,0.216913
46.969,80.9962,0.216913
47.001,80.9898,0.216913
47.033,80.9832,0.020285
47.064,80.9771,0.020285
47.095,80.9709,0.020285
47.127,80.9645,0.020285
47.158,80.9584,0.020285
47.189,80.9521,0.020285
47.220,80.9458,0.020285
47.251,80.9398,0.022489
47.282,80.9337,0.022489
47.313,80.9274,0.022489
47.344,80.9211,0.022489
47.375,80.9149,0.022489
47.406,80.9087,0.022489
47.437,80.9023,0.022489
47.468,80.8963,0.022489
47.500,80.8899,0.022489
47.531,80.8837,0.022489
47.562,80.8774,0.022960
47.593,80.8713,0.022960
47.624,80.8651,0.022960
47.655,80.8589,0.022960
47.686,80.8526,0.022960
47.717,80.8465,0.022960
47.749,80.8402,0.022960
47.779,80.8341,0.022960
47.810,80.8279,0.023008
47.842,80.8215,0.023008
47.874,80.8153,0.023008
47.905,80.8090,0.023008
47.935,80.8029,0.023008
47.967,80.7966,0.023008
47.997,80.7904,0.023008
48.029,80.7842,0.023008
48.060,80.7780,0.022970
48.091,80.7718,0.022970
48.122,80.7654,0.022970
48.153,80.7593,0.022970
48.184,80.7530,0.022970
48.215,80.7471,0.022970
48.246,80.7406,0.022970
48.277,80.7345,0.022970
48.309,80.7281,0.022951
48.340,80.7219,0.022951
48.371,80.7158,0.022951
48.402,80.7095,0.022951
48.434,80.7032,0.022951
48.464,80.6971,0.022951
48.496,80.6908,0.022951
48.527,80.6844,0.022970
48.559,80.6782,0.022970
48.589,80.6722,0.022970
48.620,80.6658,0.022970
48.651,80.6598,0.022970
48.683,80.6533,0.022970
48.712,80.6475,0.022970
48.744,80.6410,0.022970
48.774,80.6352,0.022970
48.805,80.6288,0.023026
48.836,80.6227,0.023026
48.867,80.6164,0.023026
48.898,80.6104,0.023026
48.929,80.6039,0.023026
48.961,80.5976,0.023026
48.991,80.5917,0.023026
49.023,80.5853,0.023026
49.053,80.5793,0.023102
49.085,80.5729,0.023102
49.116,80.5669,0.023102
49.147,80.5605,0.023102
49.179,80.5542,0.023102
49.209,80.5480,0.023102
49.239,80.5422,0.023102
49.271,80.5357,0.023102
49.301,80.5298,0.023196
49.333,80.5235,0.023196
49.363,80.5174,0.023196
49.395,80.5109,0.023196
49.426,80.5047,0.023196
49.457,80.4985,0.023196
49.488,80.4925,0.023196
49.519,80.4862,0.023196
49.550,80.4800,0.023281
49.580,80.4738,0.023281
49.612,80.4676,0.023281
49.644,80.4612,0.023281
49.673,80.4554,0.023281
49.704,80.4490,0.023281
49.735,80.4430,0.023281
49.767,80.4365,0.023281
49.798,80.4304,0.023384
49.830,80.4239,0.023384
49.861,80.4178,0.023384
49.892,80.4117,0.023384
49.922,80.4056,0.023384
49.952,80.3994,0.023384
49.983,80.3932,0.023384
50.015,80.3870,0.023384
50.046,80.3808,0.023356
50.078,80.3745,0.023356
50.108,80.3683,0.023356
50.138,80.3624,0.023356
50.169,80.3560,0.023356
50.200,80.3499,0.023356
50.233,80.3435,0.023356
50.262,80.3377,0.023356
50.292,80.3313,0.023384
50.324,80.3253,0.023384
50.356,80.3187,0.023384
50.387,80.3125,0.023384
50.418,80.3064,0.023384
50.449,80.3002,0.023384
50.480,80.2938,0.023384
50.511,80.2876,0.023469
50.542,80.2815,0.023469
50.574,80.2753,0.023469
50.606,80.2687,0.023469
50.635,80.2628,0.023469
50.666,80.2566,0.023469
50.697,80.2505,0.023469
50.728,80.2442,0.023469
50.760,80.2380,0.023469
50.791,80.2318,0.023563
50.821,80.2258,0.023563
50.852,80.2195,0.023563
50.883,80.2133,0.023563
50.914,80.2071,0.023563
50.946,80.2006,0.023563
50.977,80.1944,0.023563
51.008,80.1882,0.023629
51.040,80.1818,0.023629
51.071,80.1758,0.023629
51.101,80.1697,0.023629
51.133,80.1634,0.023629
51.164,80.1572,0.023629
51.195,80.1510,0.023629
51.225,80.1449,0.023629
51.256,80.1387,0.023658
51.286,80.1327,0.023658
51.317,80.1265,0.023658
51.348,80.1204,0.023658
51.379,80.1142,0.023658
51.410,80.1080,0.023658
51.442,80.1017,0.023658
51.473,80.0955,0.023658
51.504,80.0891,0.023658
51.535,80.0829,0.023733
51.567,80.0766,0.023733
51.598,80.0705,0.023733
51.630,80.0641,0.023733
51.661,80.0579,0.023733
51.693,80.0514,0.023733
51.723,80.0452,0.023733
51.754,80.0390,0.023827
51.786,80.0328,0.023827
51.816,80.0267,0.023827
51.847,80.0207,0.023827
51.878,80.0143,0.023827
51.909,80.0081,0.023827
51.940,80.0018,0.023827
51.971,79.9959,0.023827
52.002,79.9894,0.023827
52.033,79.9833,0.023855
52.064,79.9770,0.023855
52.095,79.9711,0.023855
52.126,79.9647,0.023855
52.157,79.9587,0.023855
52.189,79.9522,0.023855
52.220,79.9459,0.023855
52.250,79.9401,0.023855
52.281,79.9337,0.023903
52.313,79.9274,0.023903
52.343,79.9213,0.023903
52.374,79.9152,0.023903
52.404,79.9092,0.023903
52.436,79.9028,0.023903
52.467,79.8966,0.023903
52.498,79.8904,0.023903
52.529,79.8841,0.023969
52.559,79.8782,0.023969
52.591,79.8718,0.023969
52.622,79.8656,0.023969
52.654,79.8592,0.023969
52.685,79.8529,0.023969
52.717,79.8467,0.023969
52.748,79.8403,0.023969
52.780,79.8340,0.024016
52.811,79.8277,0.024016
52.841,79.8216,0.024016
52.873,79.8154,0.024016
52.904,79.8091,0.024016
52.933,79.8033,0.024016
52.965,79.7971,0.024016
52.996,79.7906,0.024016
53.028,79.7845,0.024091
53.058,79.7783,0.024091
53.090,79.7719,0.024091
53.120,79.7659,0.024091
53.151,79.7596,0.024091
53.182,79.7536,0.024091
53.213,79.7472,0.024091
53.245,79.7411,0.024091
53.275,79.7348,0.024091
53.306,79.7286,0.024148
53.337,79.7224,0.024148
53.369,79.7162,0.024148
53.401,79.7097,0.024148
53.432,79.7037,0.024148
53.464,79.6972,0.024148
53.494,79.6911,0.024148
53.526,79.6847,0.024148
53.557,79.6785,0.024185
53.590,79.6720,0.024185
53.619,79.6662,0.024185
53.650,79.6599,0.024185
53.681,79.6539,0.024185
53.712,79.6476,0.024185
53.742,79.6415,0.024185
53.775,79.6350,0.024185
53.805,79.6289,0.024185
53.836,79.6228,0.024185
53.867,79.6166,0.024185
53.898,79.6104,0.024185
53.929,79.6042,0.024185
53.959,79.5984,0.024185
53.990,79.5920,0.024185
54.021,79.5858,0.024185
54.052,79.5796,0.024232
54.083,79.5734,0.024232
54.115,79.5671,0.024232
54.145,79.5609,0.024232
54.176,79.5548,0.024232
54.207,79.5486,0.024232
54.238,79.5424,0.024232
54.269,79.5362,0.024251
54.300,79.5299,0.024251
54.331,79.5238,0.024251
54.361,79.5176,0.024251
54.393,79.5115,0.024251
54.424,79.5051,0.024251
54.455,79.4990,0.024251
54.486,79.4927,0.024251
54.516,79.4869,0.024317
54.548,79.4804,0.024317
54.579,79.4742,0.024317
54.611,79.4676,0.024317
54.643,79.4614,0.024317
54.675,79.4549,0.024317
54.706,79.4489,0.024317
54.737,79.4425,0.024317
54.768,79.4364,0.024374
54.799,79.4299,0.024374
54.830,79.4240,0.024374
54.861,79.4178,0.024374
54.892,79.4117,0.024374
54.923,79.4066,0.024374
54.954,79.4020,0.024374
54.984,79.3983,0.024374
55.015,79.3953,0.024374
55.046,79.3930,0.024374
55.077,79.3914,0.024308
55.108,79.3905,0.024308
55.138,79.3903,0.024308
55.170,79.3903,0.024308
55.202,79.3903,0.024308
55.232,79.3903,0.024308
55.263,79.3903,0.024308
55.294,79.3903,0.024082
55.326,79.3903,0.024082
55.357,79.3903,0.024082
55.388,79.3903,0.024082
55.419,79.3903,0.024082
55.450,79.3903,0.024082
55.481,79.3903,0.024082
55.513,79.3903,0.024082
55.543,79.3903,0.024025
55.575,79.3903,0.024025
55.606,79.3903,0.024025
55.637,79.3903,0.024025
55.668,79.3903,0.024025
55.700,79.3903,0.024025
55.730,79.3903,0.024025
55.762,79.3908,0.024025
55.794,79.3919,0.024100
55.825,79.3939,0.024100
55.856,79.3965,0.024100
55.886,79.3998,0.024100
55.917,79.4039,0.024100
55.949,79.4089,0.024100
55.981,79.4144,0.024100
56.013,79.4209,0.024100
56.042,79.4266,0.023837
56.073,79.4329,0.023837
56.103,79.4390,0.023837
56.134,79.4452,0.023837
56.165,79.4514,0.023837
56.197,79.4577,0.023837
56.227,79.4637,0.023837
56.257,79.4699,0.023837
56.289,79.4761,0.023582
56.320,79.4823,0.023582
56.351,79.4885,0.023582
56.381,79.4947,0.023582
56.413,79.5008,0.023582
56.444,79.5071,0.023582
56.475,79.5133,0.023582
56.506,79.5196,0.023582
56.537,79.5258,0.023601
56.568,79.5320,0.023601
56.599,79.5381,0.023601
56.630,79.5443,0.023601
56.661,79.5505,0.023601
56.692,79.5567,0.023601
56.723,79.5628,0.023601
56.754,79.5691,0.023601
56.785,79.5753,0.023535
56.815,79.5814,0.023535
56.846,79.5875,0.023535
56.876,79.5937,0.023535
56.907,79.5997,0.023535
56.939,79.6062,0.023535
56.970,79.6123,0.023535
57.002,79.6186,0.023403
57.033,79.6252,0.023403
57.064,79.6311,0.023403
57.095,79.6372,0.023403
57.126,79.6435,0.023403
57.158,79.6498,0.023403
57.188,79.6559,0.023403
57.219,79.6621,0.023403
57.250,79.6683,0.023403
57.281,79.6745,0.023328
57.312,79.6807,0.023328
57.343,79.6870,0.023328
57.374,79.6931,0.023328
57.405,79.6996,0.023328
57.436,79.7055,0.023328
57.467,79.7117,0.023328
57.499,79.7182,0.023328
57.529,79.7242,0.023271
57.561,79.7305,0.023271
57.592,79.7368,0.023271
57.623,79.7429,0.023271
57.654,79.7492,0.023271
57.685,79.7553,0.023271
57.716,79.7616,0.023271
57.746,79.7677,0.023271
57.779,79.7742,0.023271
57.810,79.7803,0.023196
57.842,79.7868,0.023196
57.872,79.7927,0.023196
57.903,79.7989,0.023196
57.934,79.8051,0.023196
57.966,79.8117,0.023196
57.996,79.8175,0.023196
58.028,79.8241,0.023196
58.058,79.8298,0.023102
58.089,79.8362,0.023102
58.120,79.8423,0.023102
58.151,79.8486,0.023102
58.183,79.8550,0.023102
58.214,79.8612,0.023102
58.246,79.8675,0.023102
58.277,79.8737,0.023017
58.308,79.8798,0.023017
58.338,79.8861,0.023017
58.369,79.8921,0.023017
58.402,79.8986,0.023017
58.432,79.9046,0.023017
58.462,79.9108,0.023017
58.493,79.9169,0.023017
58.524,79.9232,0.022932
58.556,79.9295,0.022932
58.589,79.9361,0.022932
58.620,79.9422,0.022932
58.650,79.9485,0.022932
58.681,79.9544,0.022932
58.712,79.9606,0.022932
58.743,79.9668,0.022932
58.774,79.9732,0.022838
58.806,79.9796,0.022838
58.837,79.9857,0.022838
58.867,79.9918,0.022838
58.899,79.9981,0.022838
58.929,80.0042,0.022838
58.960,80.0105,0.022838
58.991,80.0166,0.022838
59.023,80.0230,0.022838
59.054,80.0290,0.022753
59.084,80.0353,0.022753
59.116,80.0415,0.022753
59.147,80.0478,0.022753
59.178,80.0539,0.022753
59.210,80.0605,0.022753
59.241,80.0664,0.022753
59.272,80.0729,0.022706
59.304,80.0792,0.022706
59.334,80.0852,0.022706
59.364,80.0911,0.022706
59.396,80.0976,0.022706
59.427,80.1038,0.022706
59.458,80.1098,0.022706
59.489,80.1162,0.022706
59.521,80.1225,0.022574
59.552,80.1288,0.022574
59.583,80.1350,0.022574
59.614,80.1410,0.022574
59.645,80.1473,0.022574
59.675,80.1534,0.022574
59.707,80.1598,0.022574
59.739,80.1660,0.022574
59.771,80.1725,0.022574
59.801,80.1784,0.022442
59.832,80.1847,0.022442
59.863,80.1910,0.022442
59.895,80.1974,0.022442
59.926,80.2035,0.022442
59.957,80.2099,0.022442
59.989,80.2160,0.022442
60.020,80.2225,0.022442
60.050,80.2283,0.022301
60.082,80.2349,0.022301
60.114,80.2411,0.022301
60.147,80.2476,0.022301
60.178,80.2538,0.022301
60.208,80.2602,0.022301
60.238,80.2659,0.022301
60.270,80.2723,0.022216
60.301,80.2785,0.022216
60.331,80.2846,0.022216
60.362,80.2909,0.022216
60.393,80.2969,0.022216
60.424,80.3032,0.022216
60.454,80.3091,0.022216
60.485,80.3155,0.022216
60.516,80.3214,0.022197
60.548,80.3280,0.022197
60.578,80.3339,0.022197
60.610,80.3404,0.022197
60.641,80.3465,0.022197
60.673,80.3530,0.022197
60.705,80.3592,0.022197
60.736,80.3656,0.022197
60.766,80.3715,0.022047
60.797,80.3777,0.022047
60.827,80.3838,0.022047
60.858,80.3899,0.022047
60.889,80.3963,0.022047
60.920,80.4024,0.022047
60.951,80.4084,0.022047
60.983,80.4148,0.022047
61.013,80.4209,0.021915
61.045,80.4273,0.021915
61.075,80.4333,0.021915
61.107,80.4396,0.021915
61.138,80.4458,0.021915
61.168,80.4520,0.021915
61.199,80.4581,0.021915
61.230,80.4644,0.021915
61.261,80.4704,0.021820
61.291,80.4766,0.021820
61.322,80.4827,0.021820
61.353,80.4889,0.021820
61.384,80.4949,0.021820
61.415,80.5011,0.021820
61.446,80.5076,0.021820
61.478,80.5138,0.021820
61.509,80.5202,0.021820
61.540,80.5263,0.021679
61.572,80.5328,0.021679
61.602,80.5387,0.021679
61.634,80.5450,0.021679
61.664,80.5511,0.021679
61.696,80.5576,0.021679
61.726,80.5635,0.021679
61.758,80.5700,0.021679
61.790,80.5762,0.021575
61.822,80.5826,0.021575
61.852,80.5887,0.021575
61.883,80.5951,0.021575
61.914,80.6012,0.021575
61.947,80.6077,0.021575
61.976,80.6135,0.021575
62.007,80.6197,0.021575
62.039,80.6260,0.021453
62.070,80.6323,0.021453
62.101,80.6384,0.021453
62.132,80.6448,0.021453
62.162,80.6507,0.021453
62.193,80.6569,0.021453
62.223,80.6629,0.021453
62.254,80.6692,0.021453
62.285,80.6754,0.021368
62.318,80.6818,0.021368
62.348,80.6879,0.021368
62.380,80.6944,0.021368
62.411,80.7006,0.021368
62.443,80.7069,0.021368
62.474,80.7131,0.021368
62.505,80.7193,0.021368
62.536,80.7255,0.021227
62.568,80.7317,0.021227
62.599,80.7380,0.021227
62.630,80.7445,0.021227
62.661,80.7504,0.021227
62.692,80.7566,0.021227
62.723,80.7629,0.021227
62.753,80.7689,0.021227
62.784,80.7751,0.021086
62.816,80.7814,0.021086
62.847,80.7878,0.021086
62.878,80.7940,0.021086
62.909,80.8000,0.021086
62.941,80.8065,0.021086
62.972,80.8126,0.021086
63.003,80.8189,0.021086
63.035,80.8252,0.021020
63.066,80.8315,0.021020
63.098,80.8379,0.021020
63.127,80.8438,0.021020
63.159,80.8501,0.021020
63.190,80.8563,0.021020
63.221,80.8624,0.021020
63.252,80.8686,0.020907
63.284,80.8752,0.020907
63.314,80.8811,0.020907
63.345,80.8872,0.020907
63.377,80.8937,0.020907
63.407,80.8997,0.020907
63.440,80.9063,0.020907
63.472,80.9125,0.020907
63.503,80.9190,0.020907
63.534,80.9252,0.020746
63.565,80.9314,0.020746
63.596,80.9374,0.020746
63.627,80.9439,0.020746
63.659,80.9501,0.020746
63.690,80.9563,0.020746
63.721,80.9626,0.020746
63.753,80.9688,0.020746
63.783,80.9749,0.020577
63.815,80.9814,0.020577
63.845,80.9873,0.020577
63.875,80.9934,0.020577
63.906,80.9996,0.020577
63.936,81.0055,0.020577
63.967,81.0119,0.020577
63.998,81.0178,0.020577
64.029,81.0243,0.020445
64.060,81.0303,0.020445
64.092,81.0368,0.020445
64.123,81.0429,0.020445
64.154,81.0492,0.020445
64.186,81.0554,0.020445
64.216,81.0617,0.020445
64.246,81.0675,0.020445
64.279,81.0741,0.020445
64.310,81.0802,0.020294
64.342,81.0866,0.020294
64.373,81.0928,0.020294
64.406,81.0995,0.020294
64.437,81.1056,0.020294
64.469,81.1121,0.020294
64.499,81.1180,0.020294
64.530,81.1244,0.020143
64.561,81.1304,0.020143
64.592,81.1368,0.020143
64.624,81.1431,0.020143
64.654,81.1492,0.020143
64.685,81.1552,0.020143
64.716,81.1617,0.020143
64.747,81.1678,0.020143
64.778,81.1738,0.020143
64.810,81.1802,0.020002
64.840,81.1864,0.020002
64.871,81.1924,0.020002
64.902,81.1986,0.020002
64.933,81.2048,0.020002
64.966,81.2114,0.020002
64.995,81.2172,0.020002
65.026,81.2236,0.020002
65.056,81.2294,0.019842
65.087,81.2356,0.019842
65.117,81.2417,0.019842
65.148,81.2478,0.019842
65.178,81.2541,0.019842
65.210,81.2602,0.019842
65.240,81.2664,0.019842
65.272,81.2727,0.019842
65.303,81.2789,0.019691
65.334,81.2851,0.019691
65.364,81.2912,0.019691
65.395,81.2975,0.019691
65.426,81.3034,0.019691
65.457,81.3098,0.019691
65.488,81.3158,0.019691
65.519,81.3222,0.019691
65.551,81.3284,0.019578
65.582,81.3346,0.019578
65.612,81.3406,0.019578
65.643,81.3471,0.019578
65.675,81.3532,0.019578
65.705,81.3593,0.019578
65.737,81.3656,0.019578
65.768,81.3719,0.019578
65.799,81.3781,0.019578
65.830,81.3843,0.019437
65.861,81.3904,0.019437
65.892,81.3967,0.019437
65.923,81.4028,0.019437
65.954,81.4091,0.019437
65.985,81.4152,0.019437
66.015,81.4213,0.019437
66.047,81.4277,0.019258
66.078,81.4339,0.019258
66.109,81.4400,0.019258
66.141,81.4464,0.019258
66.171,81.4525,0.019258
66.203,81.4588,0.019258
66.234,81.4649,0.019258
66.265,81.4714,0.019258
66.296,81.4776,0.019107
66.327,81.4835,0.019107
66.357,81.4897,0.019107
66.388,81.4959,0.019107
66.419,81.5022,0.019107
66.451,81.5083,0.019107
66.480,81.5144,0.019107
66.510,81.5204,0.019107
66.542,81.5267,0.018975
66.573,81.5329,0.018975
66.606,81.5395,0.018975
66.638,81.5459,0.018975
66.669,81.5521,0.018975
66.700,81.5584,0.018975
66.731,81.5646,0.018975
66.763,81.5708,0.018975
66.795,81.5772,0.018749
66.825,81.5834,0.018749
66.856,81.5894,0.018749
66.887,81.5955,0.018749
66.918,81.6017,0.018749
66.949,81.6080,0.018749
66.980,81.6141,0.018749
67.010,81.6204,0.018749
67.042,81.6265,0.018570
67.073,81.6330,0.018570
67.104,81.6390,0.018570
67.136,81.6455,0.018570
67.166,81.6516,0.018570
67.197,81.6578,0.018570
67.228,81.6639,0.018570
67.260,81.6704,0.018570
67.291,81.6765,0.018391
67.323,81.6830,0.018391
67.353,81.6888,0.018391
67.385,81.6952,0.018391
67.415,81.7012,0.018391
67.447,81.7076,0.018391
67.477,81.7138,0.018391
67.508,81.7199,0.018391
67.538,81.7259,0.018203
67.569,81.7321,0.018203
67.600,81.7383,0.018203
67.631,81.7443,0.018203
67.662,81.7505,0.018203
67.693,81.7569,0.018203
67.723,81.7628,0.018203
67.754,81.7690,0.018203
67.785,81.7752,0.018024
67.816,81.7816,0.018024
67.847,81.7876,0.018024
67.878,81.7938,0.018024
67.909,81.8000,0.018024
67.940,81.8062,0.018024
67.972,81.8127,0.018024
68.002,81.8186,0.018024
68.033,81.8250,0.017779
68.064,81.8310,0.017779
68.095,81.8374,0.017779
68.126,81.8436,0.017779
68.156,81.8496,0.017779
68.188,81.8558,0.017779
68.219,81.8622,0.017779
68.250,81.8684,0.017779
68.280,81.8742,0.017458
68.310,81.8803,0.017458
68.341,81.8865,0.017458
68.373,81.8929,0.017458
68.403,81.8989,0.017458
68.435,81.9053,0.017458
68.466,81.9114,0.017458
68.497,81.9177,0.017458
68.527,81.9238,0.017044
68.558,81.9299,0.017044
68.589,81.9361,0.017044
68.620,81.9423,0.017044
68.652,81.9486,0.017044
68.683,81.9548,0.017044
68.714,81.9610,0.017044
68.747,81.9677,0.017044
68.778,81.9738,0.016573
68.808,81.9799,0.016573
68.839,81.9862,0.016573
68.870,81.9921,0.016573
68.900,81.9982,0.016573
68.931,82.0044,0.016573
68.961,82.0106,0.016573
68.992,82.0168,0.016573
69.024,82.0230,0.016573
69.054,82.0292,0.016054
69.085,82.0353,0.016054
69.117,82.0415,0.016054
69.148,82.0478,0.016054
69.179,82.0540,0.016054
69.212,82.0605,0.016054
69.242,82.0666,0.016054
69.273,82.0728,0.016054
69.304,82.0790,0.015310
69.334,82.0852,0.015310
69.366,82.0915,0.015310
69.397,82.0977,0.015310
69.428,82.1038,0.015310
69.459,82.1100,0.015310
69.491,82.1164,0.015310
69.522,82.1227,0.015310
69.554,82.1289,0.014227
69.584,82.1350,0.014227
69.616,82.1413,0.014227
69.647,82.1477,0.014227
69.678,82.1539,0.014227
69.709,82.1601,0.014227
69.740,82.1663,0.014227
69.771,82.1723,0.014227
69.802,82.1785,0.012832
69.833,82.1849,0.012832
69.865,82.1912,0.012832
69.896,82.1975,0.012832
69.927,82.2036,0.012832
69.958,82.2099,0.012832
69.989,82.2161,0.012832
70.020,82.2225,0.012832
70.051,82.2284,0.010873
70.083,82.2347,0.010873
70.114,82.2411,0.010873
70.145,82.2471,0.010873
70.175,82.2535,0.010873
70.207,82.2597,0.010873
70.238,82.2657,0.010873
70.269,82.2721,0.008159
70.300,82.2781,0.008159
70.331,82.2845,0.008159
70.363,82.2909,0.008159
70.394,82.2971,0.008159
70.426,82.3034,0.008159
70.457,82.3096,0.008159
70.488,82.3157,0.008159
70.519,82.3220,0.008159
70.550,82.3282,0.004683
70.581,82.3344,0.004683
70.612,82.3406,0.004683
70.643,82.3470,0.004683
70.673,82.3528,0.004683
70.704,82.3591,0.004683
70.736,82.3655,0.004683
70.767,82.3710,0.000188
70.799,82.3760,0.000188
70.829,82.3802,0.000188
70.860,82.3837,0.000188
70.891,82.3864,0.000188
70.922,82.3884,0.000188
70.953,82.3898,0.000188
70.985,82.3903,0.000188
71.016,82.3903,0.000188
71.046,82.3903,-0.004183
71.078,82.3903,-0.004183
71.109,82.3903,-0.004183
71.140,82.3903,-0.004183
71.171,82.3903,-0.004183
71.203,82.3903,-0.004183
71.234,82.3903,-0.004183
71.264,82.3903,-0.005154
71.295,82.3903,-0.005154
71.326,82.3903,-0.005154
71.357,82.3903,-0.005154
71.388,82.3903,-0.005154
71.419,82.3903,-0.005154
71.451,82.3903,-0.005154
71.483,82.3903,-0.005154
71.512,82.3903,-0.005154
71.543,82.3903,-0.003326
71.575,82.3903,-0.003326
71.606,82.3903,-0.003326
71.638,82.3903,-0.003326
71.668,82.3903,-0.003326
71.699,82.3903,-0.003326
71.730,82.3903,-0.003326
71.761,82.3903,-0.001743
71.792,82.3903,-0.001743
71.823,82.3903,-0.001743
71.854,82.3903,-0.001743
71.885,82.3903,-0.001743
71.917,82.3903,-0.001743
71.948,82.3903,-0.001743
71.979,82.3903,-0.001743
72.010,82.3903,-0.000631
72.040,82.3903,-0.000631
72.071,82.3903,-0.000631
72.103,82.3903,-0.000631
72.134,82.3903,-0.000631
72.165,82.3903,-0.000631
72.196,82.3903,-0.000631
72.226,82.3903,-0.000631
72.257,82.3903,0.000283
72.289,82.3903,0.000283
72.319,82.3903,0.000283
72.350,82.3903,0.000283
72.381,82.3903,0.000283
72.412,82.3903,0.000283
72.442,82.3903,0.000283
72.473,82.3903,0.000283
72.505,82.3903,0.000283
72.537,82.3903,0.001018
72.568,82.3903,0.001018
72.599,82.3903,0.001018
72.630,82.3903,0.001018
72.661,82.3903,0.001018
72.692,82.3903,0.001018
72.723,82.3903,0.001018
72.754,82.3903,0.001018
72.785,82.3903,0.001658
72.816,82.3903,0.001658
72.847,82.3903,0.001658
72.879,82.3903,0.001658
72.910,82.3903,0.001658
72.942,82.3903,0.001658
72.972,82.3903,0.001658
73.004,82.3903,0.001658
73.034,82.3903,0.002158
73.065,82.3903,0.002158
73.097,82.3903,0.002158
73.128,82.3903,0.002158
73.160,82.3903,0.002158
73.193,82.3903,0.002158
73.223,82.3903,0.002158
73.255,82.3903,0.002158
73.287,82.3903,0.002619
73.318,82.3903,0.002619
73.348,82.3903,0.002619
73.379,82.3903,0.002619
73.410,82.3903,0.002619
73.441,82.3903,0.002619
73.471,82.3903,0.002619
73.503,82.3903,0.002619
73.533,82.3903,0.003024
73.564,82.3903,0.003024
73.599,82.3903,0.003024
73.627,82.3903,0.003024
73.657,82.3903,0.003024
73.689,82.3903,0.003024
73.720,82.3903,0.003024
73.752,82.3903,0.003024
73.783,82.3903,0.003316
73.814,82.3903,0.003316
73.845,82.3903,0.003316
73.876,82.3903,0.003316
73.908,82.3903,0.003316
73.939,82.3903,0.003316
73.971,82.3903,0.003316
74.000,82.3903,0.003618
74.032,82.3903,0.003618
74.062,82.3903,0.003618
74.093,82.3903,0.003618
74.124,82.3903,0.003618
74.155,82.3903,0.003618
74.186,82.3903,0.003618
74.217,82.3903,0.003618
74.248,82.3903,0.003618
74.279,82.3903,0.003891
74.311,82.3903,0.003891
74.343,82.3903,0.003891
74.374,82.3903,0.003891
74.404,82.3903,0.003891
74.436,82.3903,0.003891
74.468,82.3903,0.003891
74.500,82.3903,0.003891
74.530,82.3903,0.004164
74.562,82.3903,0.004164
74.593,82.3903,0.004164
74.624,82.3903,0.004164
74.654,82.3903,0.004164
74.685,82.3903,0.004164
74.716,82.3903,0.004164
74.747,82.3903,0.004164
74.778,82.3903,0.004164
74.809,82.3903,0.004475
74.840,82.3903,0.004475
74.870,82.3903,0.004475
74.902,82.3903,0.004475
74.933,82.3903,0.004475
74.965,82.3903,0.004475
74.996,82.3903,0.004475
75.028,82.3903,0.004475
75.058,82.3903,0.004701
75.089,82.3903,0.004701
75.121,82.3903,0.004701
75.152,82.3903,0.004701
75.184,82.3903,0.004701
75.214,82.3903,0.004701
75.245,82.3903,0.004701
75.275,82.3903,0.004701
75.307,82.3903,0.004975
75.338,82.3903,0.004975
75.369,82.3903,0.004975
75.400,82.3903,0.004975
75.431,82.3903,0.004975
75.463,82.3903,0.004975
75.494,82.3903,0.004975
75.525,82.3903,0.004975
75.556,82.3903,0.005446
75.587,82.3903,0.005446
75.618,82.3903,0.005446
75.649,82.3903,0.005446
75.679,82.3903,0.005446
75.710,82.3899,0.005446
75.741,82.3888,0.005446
75.773,82.3868,0.005446
75.804,82.3843,0.005841
75.835,82.3810,0.005841
75.866,82.3770,0.005841
75.896,82.3722,0.005841
75.927,82.3668,0.005841
75.958,82.3605,0.005841
75.990,82.3544,0.005841
76.021,82.3480,0.005841
76.052,82.3420,0.007745
76.083,82.3357,0.007745
76.114,82.3296,0.007745
76.146,82.3230,0.007745
76.176,82.3170,0.007745
76.207,82.3110,0.007745
76.238,82.3047,0.007745
76.270,82.2984,0.007745
76.301,82.2923,0.014066
76.331,82.2860,0.014066
76.361,82.2801,0.014066
76.392,82.2737,0.014066
76.424,82.2676,0.014066
76.455,82.2611,0.014066
76.486,82.2551,0.014066
76.517,82.2487,0.014066
76.549,82.2425,0.022829
76.580,82.2362,0.022829
76.611,82.2301,0.022829
76.643,82.2238,0.022829
76.674,82.2176,0.022829
76.706,82.2110,0.022829
76.737,82.2050,0.022829
76.768,82.1986,0.030931
76.798,82.1928,0.030931
76.829,82.1866,0.030931
76.859,82.1804,0.030931
76.889,82.1746,0.030931
76.920,82.1681,0.030931
76.950,82.1622,0.030931
76.983,82.1556,0.030931
77.013,82.1498,0.030931
77.044,82.1433,0.038610
77.076,82.1371,0.038610
77.107,82.1308,0.038610
77.138,82.1247,0.038610
77.169,82.1184,0.038610
77.200,82.1123,0.038610
77.232,82.1059,0.038610
77.263,82.0997,0.046128
77.295,82.0933,0.046128
77.326,82.0873,0.046128
77.357,82.0811,0.046128
77.388,82.0746,0.046128
77.418,82.0687,0.046128
77.449,82.0625,0.046128
77.480,82.0564,0.046128
77.511,82.0502,0.046128
77.542,82.0439,0.053750
77.574,82.0377,0.053750
77.605,82.0313,0.053750
77.637,82.0250,0.053750
77.668,82.0187,0.053750
77.700,82.0122,0.053750
77.730,82.0063,0.053750
77.760,82.0001,0.053750
77.792,81.9940,0.061749
77.824,81.9876,0.061749
77.854,81.9816,0.061749
77.885,81.9753,0.061749
77.916,81.9690,0.061749
77.947,81.9630,0.061749
77.979,81.9564,0.061749
78.009,81.9506,0.070379
78.040,81.9444,0.070379
78.070,81.9382,0.070379
78.101,81.9321,0.070379
78.133,81.9257,0.070379
78.164,81.9195,0.070379
78.196,81.9130,0.070379
78.228,81.9067,0.070379
78.259,81.9005,0.079867
78.290,81.8942,0.079867
78.321,81.8880,0.079867
78.352,81.8819,0.079867
78.384,81.8754,0.079867
78.414,81.8695,0.079867
78.445,81.8632,0.079867
78.477,81.8570,0.079867
78.508,81.8508,0.090381
78.539,81.8447,0.090381
78.570,81.8382,0.090381
78.601,81.8320,0.090381
78.632,81.8258,0.090381
78.662,81.8197,0.090381
78.693,81.8137,0.090381
78.725,81.8075,0.090381
78.755,81.8013,0.090381
78.787,81.7949,0.102055
78.816,81.7890,0.102055
78.847,81.7829,0.102055
78.879,81.7766,0.102055
78.910,81.7704,0.102055
78.941,81.7641,0.102055
78.973,81.7577,0.102055
79.005,81.7513,0.102055
79.036,81.7452,0.115113
79.067,81.7389,0.115113
79.096,81.7331,0.115113
79.128,81.7267,0.115113
79.159,81.7205,0.115113
79.191,81.7141,0.115113
79.222,81.7079,0.115113
79.253,81.7018,0.115113
79.284,81.6955,0.129783
79.317,81.6890,0.129783
79.347,81.6830,0.129783
79.378,81.6768,0.129783
79.409,81.6705,0.129783
79.440,81.6641,0.129783
79.471,81.6581,0.129783
79.501,81.6521,0.129783
79.533,81.6459,0.146054
79.563,81.6397,0.146054
79.595,81.6333,0.146054
79.627,81.6268,0.146054
79.657,81.6209,0.146054
79.689,81.6144,0.146054
79.721,81.6083,0.146054
79.752,81.6020,0.146054
79.782,81.5959,0.164105
79.813,81.5897,0.164105
79.844,81.5835,0.164105
79.874,81.5774,0.164105
79.905,81.5713,0.164105
79.936,81.5650,0.164105
79.968,81.5589,0.164105
79.999,81.5526,0.164105
80.030,81.5464,0.183900
80.061,81.5402,0.183900
80.092,81.5340,0.183900
80.124,81.5276,0.183900
80.154,81.5217,0.183900
80.185,81.5153,0.183900
80.216,81.5091,0.183900
80.248,81.5027,0.183900
80.279,81.4964,0.205692
80.311,81.4901,0.205692
80.342,81.4839,0.205692
80.372,81.4778,0.205692
80.403,81.4717,0.205692
80.435,81.4654,0.205692
80.465,81.4593,0.205692
80.496,81.4531,0.205692
80.527,81.4469,0.229491
80.559,81.4406,0.229491
80.590,81.4344,0.229491
80.621,81.4281,0.229491
80.653,81.4218,0.229491
80.684,81.4156,0.229491
80.716,81.4091,0.229491
80.747,81.4028,0.229491
80.778,81.3967,0.255014
80.809,81.3905,0.255014
80.840,81.3843,0.255014
80.871,81.3781,0.255014
80.902,81.3720,0.255014
80.933,81.3658,0.255014
80.963,81.3597,0.255014
80.994,81.3535,0.255014
81.025,81.3471,0.282083
81.056,81.3410,0.282083
81.088,81.3347,0.282083
81.119,81.3285,0.282083
81.150,81.3223,0.282083
81.180,81.3162,0.282083
81.211,81.3099,0.282083
81.242,81.3039,0.282083
81.272,81.2980,0.310187
81.305,81.2914,0.310187
81.336,81.2850,0.310187
81.368,81.2788,0.310187
81.400,81.2722,0.310187
81.432,81.2660,0.310187
81.463,81.2598,0.310187
81.494,81.2537,0.310187
81.524,81.2475,0.338923
81.555,81.2412,0.338923
81.585,81.2352,0.338923
81.617,81.2290,0.338923
81.648,81.2228,0.338923
81.679,81.2166,0.338923
81.710,81.2104,0.338923
81.741,81.2042,0.338923
81.772,81.1980,0.338923
81.803,81.1917,0.367499
81.834,81.1856,0.367499
81.865,81.1793,0.367499
81.897,81.1730,0.367499
81.929,81.1665,0.367499
81.960,81.1604,0.367499
81.991,81.1540,0.367499
82.021,81.1480,0.367499
82.050,81.1423,0.394256
82.082,81.1360,0.394256
82.113,81.1297,0.394256
82.145,81.1234,0.394256
82.176,81.1172,0.394256
82.207,81.1108,0.394256
82.237,81.1050,0.394256
82.268,81.0987,0.416435
82.300,81.0925,0.416435
82.331,81.0862,0.416435
82.361,81.0801,0.416435
82.392,81.0737,0.416435
82.423,81.0675,0.416435
82.455,81.0613,0.416435
82.486,81.0553,0.416435
82.516,81.0489,0.416435
82.548,81.0429,0.426130
82.578,81.0367,0.426130
82.609,81.0306,0.426130
82.640,81.0243,0.426130
82.672,81.0179,0.426130
82.702,81.0120,0.426130
82.733,81.0059,0.426130
82.763,80.9997,0.426130
82.795,80.9935,0.235455
82.825,80.9873,0.235455
82.858,80.9807,0.235455
82.888,80.9748,0.235455
82.919,80.9687,0.235455
82.949,80.9625,0.235455
82.980,80.9564,0.235455
83.011,80.9502,0.036207
83.041,80.9441,0.036207
83.072,80.9379,0.036207
83.103,80.9319,0.036207
83.134,80.9255,0.036207
83.165,80.9192,0.036207
83.196,80.9133,0.036207
83.228,80.9067,0.036207
83.259,80.9006,0.036207
83.291,80.8943,0.026098
83.321,80.8882,0.026098
83.352,80.8819,0.026098
83.384,80.8757,0.026098
83.415,80.8692,0.026098
83.446,80.8632,0.026098
83.478,80.8567,0.026098
83.509,80.8505,0.026098
83.541,80.8441,0.026098
83.572,80.8379,0.023912
83.604,80.8314,0.023912
83.636,80.8253,0.023912
83.667,80.8188,0.023912
83.699,80.8127,0.023912
83.731,80.8061,0.023912
83.763,80.7998,0.023912
83.794,80.7935,0.023281
83.824,80.7875,0.023281
83.855,80.7813,0.023281
83.886,80.7751,0.023281
83.917,80.7689,0.023281
83.948,80.7627,0.023281
83.979,80.7564,0.023281
84.011,80.7500,0.023281
84.042,80.7440,0.023281
84.074,80.7375,0.023139
84.105,80.7314,0.023139
84.136,80.7250,0.023139
84.166,80.7190,0.023139
84.198,80.7127,0.023139
84.229,80.7065,0.023139
84.259,80.7006,0.023139
84.290,80.6945,0.023139
84.320,80.6883,0.023083
84.351,80.6822,0.023083
84.382,80.6759,0.023083
84.413,80.6697,0.023083
84.444,80.6637,0.023083
84.475,80.6573,0.023083
84.506,80.6513,0.023083
84.537,80.6449,0.023055
84.569,80.6387,0.023055
84.599,80.6325,0.023055
84.630,80.6263,0.023055
84.661,80.6201,0.023055
84.692,80.6137,0.023055
84.723,80.6078,0.023055
84.755,80.6012,0.023055
84.786,80.5951,0.023102
84.817,80.5888,0.023102
84.847,80.5830,0.023102
84.877,80.5768,0.023102
84.909,80.5706,0.023102
84.940,80.5644,0.023102
84.971,80.5582,0.023102
85.002,80.5519,0.023102
85.034,80.5454,0.023205
85.065,80.5393,0.023205
85.096,80.5333,0.023205
85.127,80.5271,0.023205
85.158,80.5207,0.023205
85.190,80.5144,0.023205
85.221,80.5082,0.023205
85.252,80.5018,0.023205
85.283,80.4958,0.023262
85.315,80.4894,0.023262
85.346,80.4833,0.023262
85.377,80.4769,0.023262
85.407,80.4710,0.023262
85.438,80.4645,0.023262
85.469,80.4585,0.023262
85.500,80.4521,0.023262
85.531,80.4461,0.023300
85.563,80.4397,0.023300
85.593,80.4338,0.023300
85.624,80.4276,0.023300
85.655,80.4214,0.023300
85.687,80.4151,0.023300
85.718,80.4087,0.023300
85.749,80.4027,0.023300
85.780,80.3965,0.023413
85.811,80.3901,0.023413
85.842,80.3841,0.023413
85.872,80.3777,0.023413
85.904,80.3717,0.023413
85.935,80.3652,0.023413
85.966,80.3592,0.023413
85.997,80.3529,0.023413
86.028,80.3468,0.023469
86.059,80.3405,0.023469
86.090,80.3344,0.023469
86.122,80.3280,0.023469
86.153,80.3218,0.023469
86.184,80.3155,0.023469
86.214,80.3095,0.023469
86.246,80.3032,0.023469
86.276,80.2972,0.023526
86.308,80.2908,0.023526
86.338,80.2846,0.023526
86.369,80.2786,0.023526
86.400,80.2724,0.023526
86.431,80.2660,0.023526
86.462,80.2600,0.023526
86.493,80.2537,0.023526
86.526,80.2473,0.023535
86.554,80.2416,0.023535
86.586,80.2352,0.023535
86.617,80.2291,0.023535
86.649,80.2227,0.023535
86.680,80.2165,0.023535
86.712,80.2099,0.023535
86.742,80.2038,0.023535
86.774,80.1975,0.023535
86.806,80.1912,0.023554
86.836,80.1851,0.023554
86.868,80.1788,0.023554
86.899,80.1725,0.023554
86.930,80.1665,0.023554
86.961,80.1602,0.023554
86.991,80.1541,0.023554
87.023,80.1478,0.023554
87.054,80.1416,0.023648
87.084,80.1355,0.023648
87.115,80.1294,0.023648
87.146,80.1231,0.023648
87.177,80.1169,0.023648
87.208,80.1107,0.023648
87.239,80.1046,0.023648
87.270,80.0984,0.023648
87.301,80.0922,0.023714
87.331,80.0862,0.023714
87.362,80.0798,0.023714
87.393,80.0737,0.023714
87.424,80.0677,0.023714
87.454,80.0616,0.023714
87.486,80.0551,0.023714
87.516,80.0492,0.023714
87.547,80.0430,0.023799
87.579,80.0367,0.023799
87.610,80.0305,0.023799
87.641,80.0241,0.023799
87.672,80.0179,0.023799
87.704,80.0115,0.023799
87.735,80.0054,0.023799
87.766,79.9992,0.023799
87.798,79.9929,0.023837
87.829,79.9867,0.023837
87.859,79.9806,0.023837
87.889,79.9744,0.023837
87.920,79.9685,0.023837
87.951,79.9623,0.023837
87.982,79.9560,0.023837
88.013,79.9498,0.023837
88.043,79.9438,0.023903
88.075,79.9374,0.023903
88.105,79.9314,0.023903
88.136,79.9253,0.023903
88.167,79.9191,0.023903
88.198,79.9128,0.023903
88.230,79.9064,0.023903
88.261,79.9001,0.023950
88.292,79.8938,0.023950
88.324,79.8876,0.023950
88.355,79.8814,0.023950
88.385,79.8753,0.023950
88.416,79.8691,0.023950
88.448,79.8627,0.023950
88.479,79.8566,0.023950
88.510,79.8505,0.023978
88.544,79.8436,0.023978
88.572,79.8381,0.023978
88.602,79.8318,0.023978
88.633,79.8258,0.023978
88.664,79.8195,0.023978
88.695,79.8133,0.023978
88.726,79.8071,0.023978
88.757,79.8009,0.023978
88.788,79.7947,0.024044
88.820,79.7885,0.024044
88.851,79.7820,0.024044
88.883,79.7758,0.024044
88.913,79.7698,0.024044
88.943,79.7638,0.024044
88.974,79.7576,0.024044
89.006,79.7512,0.024034
89.037,79.7451,0.024034
89.068,79.7388,0.024034
89.101,79.7323,0.024034
89.130,79.7264,0.024034
89.161,79.7200,0.024034
89.192,79.7140,0.024034
89.223,79.7078,0.024034
89.254,79.7016,0.024034
89.285,79.6954,0.024091
89.316,79.6892,0.024091
89.347,79.6830,0.024091
89.378,79.6769,0.024091
89.409,79.6705,0.024091
89.440,79.6645,0.024091
89.472,79.6581,0.024091
89.502,79.6519,0.024157
89.533,79.6456,0.024157
89.564,79.6397,0.024157
89.595,79.6333,0.024157
89.625,79.6275,0.024157
89.657,79.6211,0.024157
89.688,79.6147,0.024157
89.719,79.6084,0.024157
89.750,79.6023,0.024195
89.781,79.5963,0.024195
89.812,79.5899,0.024195
89.844,79.5837,0.024195
89.874,79.5775,0.024195
89.906,79.5713,0.024195
89.937,79.5650,0.024195
89.968,79.5589,0.024195
89.998,79.5527,0.024195
90.029,79.5465,0.024223
90.061,79.5402,0.024223
90.092,79.5340,0.024223
90.124,79.5277,0.024223
90.154,79.5216,0.024223
90.186,79.5150,0.024223
90.215,79.5093,0.024223
90.249,79.5026,0.024223
90.280,79.4963,0.024242
90.312,79.4901,0.024242
90.344,79.4836,0.024242
90.373,79.4778,0.024242
90.403,79.4717,0.024242
90.435,79.4653,0.024242
90.466,79.4593,0.024242
90.497,79.4530,0.024336
90.528,79.4469,0.024336
90.559,79.4406,0.024336
90.589,79.4345,0.024336
90.621,79.4282,0.024336
90.652,79.4220,0.024336
90.683,79.4157,0.024336
90.715,79.4095,0.024336
90.746,79.4032,0.024336
90.777,79.3971,0.024355
90.807,79.3909,0.024355
90.839,79.3844,0.024355
90.871,79.3782,0.024355
90.901,79.3721,0.024355
90.933,79.3657,0.024355
90.965,79.3600,0.024355
90.997,79.3548,0.024355
91.028,79.3506,0.024336
91.060,79.3470,0.024336
91.090,79.3442,0.024336
91.122,79.3421,0.024336
91.153,79.3409,0.024336
91.184,79.3403,0.024336
91.215,79.3403,0.024336
91.245,79.3403,0.024336
91.275,79.3403,0.024336
91.307,79.3403,0.024185
91.338,79.3403,0.024185
91.369,79.3403,0.024185
91.400,79.3403,0.024185
91.431,79.3403,0.024185
91.461,79.3403,0.024185
91.492,79.3403,0.024185
91.523,79.3403,0.024025
91.554,79.3403,0.024025
91.585,79.3403,0.024025
91.616,79.3403,0.024025
91.647,79.3403,0.024025
91.678,79.3403,0.024025
91.709,79.3403,0.024025
91.740,79.3404,0.024025
91.771,79.3411,0.024025
91.803,79.3426,0.024034
91.833,79.3449,0.024034
91.865,79.3478,0.024034
91.895,79.3513,0.024034
91.926,79.3559,0.024034
91.958,79.3610,0.024034
91.988,79.3668,0.024034
92.019,79.3729,0.023837
92.051,79.3793,0.023837
92.081,79.3853,0.023837
92.113,79.3917,0.023837
92.144,79.3978,0.023837
92.174,79.4040,0.023837
92.206,79.4103,0.023837
92.237,79.4164,0.023837
92.268,79.4226,0.023639
92.298,79.4288,0.023639
92.329,79.4349,0.023639
92.360,79.4411,0.023639
92.391,79.4473,0.023639
92.423,79.4538,0.023639
92.454,79.4598,0.023639
92.484,79.4659,0.023639
92.515,79.4721,0.023592
92.546,79.4783,0.023592
92.577,79.4845,0.023592
92.608,79.4907,0.023592
92.639,79.4968,0.023592
92.670,79.5032,0.023592
92.701,79.5093,0.023592
92.731,79.5153,0.023592
92.762,79.5216,0.023488
92.794,79.5278,0.023488
92.825,79.5342,0.023488
92.856,79.5403,0.023488
92.886,79.5463,0.023488
92.918,79.5527,0.023488
92.948,79.5587,0.023488
92.980,79.5650,0.023488
93.010,79.5711,0.023460
93.041,79.5774,0.023460
93.072,79.5835,0.023460
93.102,79.5896,0.023460
93.134,79.5960,0.023460
93.166,79.6023,0.023460
93.197,79.6084,0.023460
93.228,79.6147,0.023460
93.259,79.6208,0.023460
93.290,79.6271,0.023413
93.320,79.6331,0.023413
93.351,79.6393,0.023413
93.382,79.6454,0.023413
93.412,79.6514,0.023413
93.443,79.6578,0.023413
93.474,79.6640,0.023413
93.505,79.6702,0.023413
93.536,79.6763,0.023328
93.568,79.6827,0.023328
93.598,79.6887,0.023328
93.629,79.6951,0.023328
93.660,79.7012,0.023328
93.692,79.7076,0.023328
93.724,79.7138,0.023328
93.754,79.7200,0.023328
93.786,79.7261,0.023224
93.818,79.7327,0.023224
93.848,79.7388,0.023224
93.878,79.7448,0.023224
93.909,79.7509,0.023224
93.941,79.7572,0.023224
93.971,79.7633,0.023224
94.003,79.7696,0.023224
94.033,79.7757,0.023092
94.065,79.7823,0.023092
94.096,79.7882,0.023092
94.127,79.7944,0.023092
94.158,79.8008,0.023092
94.189,79.8070,0.023092
94.220,79.8131,0.023092
94.251,79.8194,0.023092
94.282,79.8256,0.023036
94.313,79.8319,0.023036
94.344,79.8379,0.023036
94.375,79.8442,0.023036
94.405,79.8501,0.023036
94.436,79.8562,0.023036
94.467,79.8625,0.023036
94.498,79.8689,0.023036
94.529,79.8748,0.022970
94.561,79.8814,0.022970
94.591,79.8872,0.022970
94.623,79.8937,0.022970
94.653,79.8997,0.022970
94.684,79.9059,0.022970
94.715,79.9120,0.022970
94.746,79.9185,0.022970
94.777,79.9244,0.022894
94.809,79.9309,0.022894
94.839,79.9368,0.022894
94.870,79.9432,0.022894
94.900,79.9491,0.022894
94.931,79.9554,0.022894
94.963,79.9618,0.022894
94.994,79.9678,0.022894
95.024,79.9739,0.022800
95.055,79.9801,0.022800
95.086,79.9863,0.022800
95.117,79.9925,0.022800
95.147,79.9986,0.022800
95.180,80.0052,0.022800
95.210,80.0111,0.022800
95.241,80.0172,0.022800
95.272,80.0235,0.022697
95.304,80.0300,0.022697
95.335,80.0362,0.022697
95.366,80.0424,0.022697
95.398,80.0487,0.022697
95.429,80.0550,0.022697
95.461,80.0612,0.022697
95.493,80.0677,0.022697
95.523,80.0737,0.022574
95.554,80.0801,0.022574
95.586,80.0862,0.022574
95.616,80.0924,0.022574
95.646,80.0983,0.022574
95.678,80.1046,0.022574
95.709,80.1110,0.022574
95.740,80.1170,0.022574
95.771,80.1235,0.022471
95.802,80.1296,0.022471
95.833,80.1358,0.022471
95.864,80.1418,0.022471
95.895,80.1482,0.022471
95.926,80.1544,0.022471
95.958,80.1608,0.022471
95.989,80.1671,0.022471
96.021,80.1733,0.022405
96.051,80.1794,0.022405
96.082,80.1856,0.022405
96.113,80.1916,0.022405
96.143,80.1976,0.022405
96.174,80.2038,0.022405
96.205,80.2102,0.022405
96.237,80.2165,0.022405
96.267,80.2226,0.022329
96.298,80.2287,0.022329
96.329,80.2350,0.022329
96.360,80.2411,0.022329
96.390,80.2473,0.022329
96.422,80.2533,0.022329
96.452,80.2594,0.022329
96.483,80.2656,0.022329
96.514,80.2718,0.022207
96.546,80.2781,0.022207
96.578,80.2846,0.022207
96.609,80.2908,0.022207
96.640,80.2971,0.022207
96.670,80.3031,0.022207
96.701,80.3094,0.022207
96.732,80.3155,0.022207
96.763,80.3218,0.022131
96.794,80.3280,0.022131
96.825,80.3341,0.022131
96.856,80.3402,0.022131
96.887,80.3465,0.022131
96.918,80.3527,0.022131
96.950,80.3590,0.022131
96.980,80.3651,0.022131
97.011,80.3712,0.022131
97.041,80.3772,0.022037
97.072,80.3834,0.022037
97.103,80.3896,0.022037
97.134,80.3957,0.022037
97.165,80.4020,0.022037
97.196,80.4084,0.022037
97.227,80.4143,0.022037
97.258,80.4208,0.022037
97.290,80.4270,0.021886
97.320,80.4330,0.021886
97.352,80.4395,0.021886
97.383,80.4457,0.021886
97.415,80.4521,0.021886
97.445,80.4581,0.021886
97.477,80.4645,0.021886
97.507,80.4705,0.021886
97.539,80.4768,0.021802
97.569,80.4829,0.021802
97.600,80.4892,0.021802
97.632,80.4954,0.021802
97.663,80.5016,0.021802
97.694,80.5078,0.021802
97.725,80.5142,0.021802
97.757,80.5204,0.021726
97.787,80.5266,0.021726
97.818,80.5329,0.021726
97.847,80.5385,0.021726
97.881,80.5453,0.021726
97.911,80.5512,0.021726
97.941,80.5573,0.021726
97.972,80.5634,0.021726
98.003,80.5697,0.021575
98.034,80.5759,0.021575
98.065,80.5821,0.021575
98.095,80.5881,0.021575
98.126,80.5944,0.021575
98.157,80.6005,0.021575
98.189,80.6069,0.021575
98.220,80.6131,0.021575
98.251,80.6193,0.021575
98.282,80.6255,0.021378
98.314,80.6320,0.021378
98.347,80.6386,0.021378
98.377,80.6445,0.021378
98.407,80.6506,0.021378
98.438,80.6568,0.021378
98.470,80.6631,0.021378
98.500,80.6691,0.021378
98.531,80.6753,0.021283
98.561,80.6813,0.021283
98.592,80.6875,0.021283
98.623,80.6936,0.021283
98.654,80.6999,0.021283
98.686,80.7063,0.021283
98.717,80.7125,0.021283
98.748,80.7187,0.021283
98.780,80.7250,0.021246
98.811,80.7313,0.021246
98.842,80.7374,0.021246
98.873,80.7437,0.021246
98.905,80.7500,0.021246
98.935,80.7561,0.021246
98.967,80.7625,0.021246
98.999,80.7688,0.021246
99.029,80.7750,0.021123
99.060,80.7811,0.021123
99.092,80.7876,0.021123
99.123,80.7936,0.021123
99.154,80.7998,0.021123
99.185,80.8061,0.021123
99.216,80.8123,0.021123
99.248,80.8186,0.021123
99.279,80.8248,0.021123
99.310,80.8312,0.020963
99.341,80.8374,0.020963
99.372,80.8434,0.020963
99.403,80.8496,0.020963
99.434,80.8557,0.020963
99.466,80.8623,0.020963
99.497,80.8684,0.020963
99.528,80.8747,0.020963
99.558,80.8806,0.020803
99.590,80.8871,0.020803
99.620,80.8930,0.020803
99.651,80.8995,0.020803
99.682,80.9054,0.020803
99.714,80.9119,0.020803
99.745,80.9180,0.020803
99.777,80.9244,0.020803
99.808,80.9306,0.020671
99.839,80.9371,0.020671
99.870,80.9430,0.020671
99.901,80.9494,0.020671
99.932,80.9554,0.020671
99.963,80.9616,0.020671
99.994,80.9678,0.020671
100.024,80.9739,0.020671
100.054,80.9800,0.020520
100.085,80.9859,0.020520
100.116,80.9921,0.020520
100.147,80.9986,0.020520
100.178,81.0045,0.020520
100.209,81.0109,0.020520
100.240,81.0169,0.020520
100.270,81.0231,0.020520
100.302,81.0293,0.020369
100.334,81.0358,0.020369
100.363,81.0418,0.020369
100.395,81.0480,0.020369
100.426,81.0543,0.020369
100.457,81.0604,0.020369
100.488,81.0667,0.020369
100.519,81.0729,0.020369
100.550,81.0791,0.020369
100.582,81.0855,0.020275
100.613,81.0917,0.020275
100.644,81.0979,0.020275
100.674,81.1039,0.020275
100.706,81.1103,0.020275
100.737,81.1164,0.020275
100.768,81.1227,0.020275
100.800,81.1289,0.020106
100.831,81.1353,0.020106
100.862,81.1415,0.020106
100.893,81.1477,0.020106
100.924,81.1537,0.020106
100.955,81.1599,0.020106
100.986,81.1661,0.020106
101.017,81.1726,0.020106
101.048,81.1787,0.019936
101.079,81.1847,0.019936
101.111,81.1911,0.019936
101.142,81.1975,0.019936
101.173,81.2037,0.019936
101.204,81.2098,0.019936
101.235,81.2159,0.019936
101.265,81.2221,0.019936
101.296,81.2283,0.019814
101.328,81.2345,0.019814
101.358,81.2407,0.019814
101.389,81.2468,0.019814
101.420,81.2530,0.019814
101.451,81.2594,0.019814
101.482,81.2655,0.019814
101.514,81.2721,0.019814
101.546,81.2781,0.019682
101.576,81.2842,0.019682
101.606,81.2903,0.019682
101.637,81.2964,0.019682
101.668,81.3027,0.019682
101.700,81.3091,0.019682
101.729,81.3151,0.019682
101.761,81.3212,0.019682
101.792,81.3275,0.019512
101.823,81.3336,0.019512
101.853,81.3399,0.019512
101.886,81.3462,0.019512
101.917,81.3524,0.019512
101.948,81.3588,0.019512
101.979,81.3651,0.019512
102.010,81.3710,0.019512
102.042,81.3775,0.019352
102.073,81.3838,0.019352
102.104,81.3898,0.019352
102.135,81.3960,0.019352
102.166,81.4020,0.019352
102.196,81.4084,0.019352
102.226,81.4143,0.019352
102.257,81.4205,0.019352
102.287,81.4265,0.019211
102.319,81.4328,0.019211
102.350,81.4390,0.019211
102.380,81.4451,0.019211
102.411,81.4512,0.019211
102.442,81.4575,0.019211
102.473,81.4637,0.019211
102.505,81.4700,0.019211
102.537,81.4766,0.019060
102.568,81.4827,0.019060
102.599,81.4889,0.019060
102.630,81.4951,0.019060
102.661,81.5013,0.019060
102.692,81.5076,0.019060
102.723,81.5137,0.019060
102.754,81.5199,0.019060
102.785,81.5261,0.018881
102.817,81.5324,0.018881
102.848,81.5386,0.018881
102.879,81.5449,0.018881
102.909,81.5509,0.018881
102.940,81.5571,0.018881
102.972,81.5634,0.018881
103.002,81.5695,0.018881
103.034,81.5758,0.018608
103.065,81.5821,0.018608
103.095,81.5881,0.018608
103.127,81.5944,0.018608
103.158,81.6007,0.018608
103.189,81.6069,0.018608
103.220,81.6129,0.018608
103.251,81.6193,0.018608
103.282,81.6254,0.018382
103.313,81.6317,0.018382
103.344,81.6378,0.018382
103.375,81.6441,0.018382
103.406,81.6502,0.018382
103.438,81.6567,0.018382
103.468,81.6626,0.018382
103.499,81.6688,0.018382
103.530,81.6750,0.018231
103.561,81.6813,0.018231
103.593,81.6875,0.018231
103.624,81.6940,0.018231
103.656,81.7001,0.018231
103.686,81.7064,0.018231
103.717,81.7125,0.018231
103.748,81.7187,0.018231
103.780,81.7250,0.018042
103.811,81.7312,0.018042
103.843,81.7376,0.018042
103.873,81.7436,0.018042
103.904,81.7498,0.018042
103.935,81.7560,0.018042
103.965,81.7620,0.018042
103.996,81.7683,0.018042
104.027,81.7744,0.017779
104.057,81.7804,0.017779
104.088,81.7866,0.017779
104.119,81.7927,0.017779
104.150,81.7990,0.017779
104.181,81.8052,0.017779
104.213,81.8117,0.017779
104.243,81.8176,0.017779
104.274,81.8238,0.017477
104.304,81.8298,0.017477
104.335,81.8360,0.017477
104.366,81.8423,0.017477
104.397,81.8485,0.017477
104.428,81.8546,0.017477
104.458,81.8607,0.017477
104.489,81.8669,0.017477
104.520,81.8730,0.017128
104.551,81.8793,0.017128
104.581,81.8852,0.017128
104.612,81.8916,0.017128
104.644,81.8978,0.017128
104.675,81.9040,0.017128
104.706,81.9102,0.017128
104.737,81.9166,0.017128
104.768,81.9228,0.016714
104.799,81.9288,0.016714
104.830,81.9350,0.016714
104.861,81.9412,0.016714
104.892,81.9474,0.016714
104.923,81.9537,0.016714
104.953,81.9598,0.016714
104.984,81.9658,0.016714
105.016,81.9721,0.016102
105.046,81.9784,0.016102
105.078,81.9845,0.016102
105.108,81.9907,0.016102
105.140,81.9971,0.016102
105.172,82.0034,0.016102
105.203,82.0096,0.016102
105.234,82.0158,0.016102
105.265,82.0220,0.015282
105.296,82.0285,0.015282
105.327,82.0343,0.015282
105.358,82.0408,0.015282
105.388,82.0467,0.015282
105.419,82.0528,0.015282
105.450,82.0595,0.015282
105.481,82.0652,0.015282
105.512,82.0715,0.014274
105.543,82.0776,0.014274
105.574,82.0839,0.014274
105.605,82.0900,0.014274
105.637,82.0964,0.014274
105.667,82.1025,0.014274
105.699,82.1088,0.014274
105.730,82.1150,0.014274
105.761,82.1213,0.012851
105.792,82.1275,0.012851
105.821,82.1333,0.012851
105.852,82.1395,0.012851
105.883,82.1457,0.012851
105.914,82.1519,0.012851
105.946,82.1581,0.012851
105.977,82.1643,0.012851
106.009,82.1707,0.012851
106.039,82.1769,0.010873
106.070,82.1830,0.010873
106.101,82.1892,0.010873
106.132,82.1954,0.010873
106.162,82.2014,0.010873
106.194,82.2077,0.010873
106.224,82.2138,0.010873
106.255,82.2201,0.010873
106.286,82.2262,0.008234
106.317,82.2324,0.008234
106.347,82.2385,0.008234
106.379,82.2447,0.008234
106.410,82.2511,0.008234
106.441,82.2572,0.008234
106.472,82.2635,0.008234
106.503,82.2696,0.008234
106.534,82.2758,0.004683
106.565,82.2821,0.004683
106.596,82.2883,0.004683
106.627,82.2944,0.004683
106.658,82.3006,0.004683
106.689,82.3070,0.004683
106.719,82.3127,0.004683
106.750,82.3188,0.004683
106.781,82.3240,0.000151
106.812,82.3285,0.000151
106.843,82.3323,0.000151
106.874,82.3353,0.000151
106.906,82.3377,0.000151
106.937,82.3393,0.000151
106.968,82.3402,0.000151
106.999,82.3403,0.000151
107.030,82.3403,-0.004146
107.062,82.3403,-0.004146
107.093,82.3403,-0.004146
107.124,82.3403,-0.004146
107.155,82.3403,-0.004146
107.185,82.3403,-0.004146
107.215,82.3403,-0.004146
107.246,82.3403,-0.004146
107.277,82.3403,-0.005012
107.308,82.3403,-0.005012
107.340,82.3403,-0.005012
107.371,82.3403,-0.005012
107.402,82.3403,-0.005012
107.434,82.3403,-0.005012
107.465,82.3403,-0.005012
107.496,82.3403,-0.005012
107.527,82.3403,-0.003128
107.559,82.3403,-0.003128
107.590,82.3403,-0.003128
107.621,82.3403,-0.003128
107.652,82.3403,-0.003128
107.683,82.3403,-0.003128
107.714,82.3403,-0.003128
107.745,82.3403,-0.003128
107.776,82.3403,-0.001573
107.807,82.3403,-0.001573
107.838,82.3403,-0.001573
107.869,82.3403,-0.001573
107.900,82.3403,-0.001573
107.931,82.3403,-0.001573
107.962,82.3403,-0.001573
107.993,82.3403,-0.001573
108.024,82.3403,-0.000433
108.056,82.3403,-0.000433
108.087,82.3403,-0.000433
108.118,82.3403,-0.000433
108.149,82.3403,-0.000433
108.181,82.3403,-0.000433
108.212,82.3403,-0.000433
108.242,82.3403,-0.000433
108.274,82.3403,0.000433
108.306,82.3403,0.000433
108.336,82.3403,0.000433
108.368,82.3403,0.000433
108.400,82.3403,0.000433
108.430,82.3403,0.000433
108.461,82.3403,0.000433
108.492,82.3403,0.000433
108.521,82.3403,0.001187
108.553,82.3403,0.001187
108.585,82.3403,0.001187
108.615,82.3403,0.001187
108.647,82.3403,0.001187
108.677,82.3403,0.001187
108.709,82.3403,0.001187
108.740,82.3403,0.001187
108.772,82.3403,0.001771
108.803,82.3403,0.001771
108.834,82.3403,0.001771
108.865,82.3403,0.001771
108.897,82.3403,0.001771
108.928,82.3403,0.001771
108.960,82.3403,0.001771
108.990,82.3403,0.001771
109.021,82.3403,0.001771
109.051,82.3403,0.002280
109.082,82.3403,0.002280
109.113,82.3403,0.002280
109.143,82.3403,0.002280
109.175,82.3403,0.002280
109.207,82.3403,0.002280
109.236,82.3403,0.002280
109.267,82.3403,0.002280
109.298,82.3403,0.002770
109.329,82.3403,0.002770
109.360,82.3403,0.002770
109.391,82.3403,0.002770
109.421,82.3403,0.002770
109.453,82.3403,0.002770
109.483,82.3403,0.002770
109.515,82.3403,0.002770
109.546,82.3403,0.003090
109.577,82.3403,0.003090
109.608,82.3403,0.003090
109.638,82.3403,0.003090
109.669,82.3403,0.003090
109.700,82.3403,0.003090
109.731,82.3403,0.003090
109.762,82.3403,0.003090
109.793,82.3403,0.003448
109.823,82.3403,0.003448
109.855,82.3403,0.003448
109.886,82.3403,0.003448
109.917,82.3403,0.003448
109.948,82.3403,0.003448
109.979,82.3403,0.003448
110.010,82.3403,0.003448
110.041,82.3403,0.003769
110.073,82.3403,0.003769
110.104,82.3403,0.003769
110.135,82.3403,0.003769
110.166,82.3403,0.003769
110.196,82.3403,0.003769
110.227,82.3403,0.003769
110.257,82.3403,0.004070
110.288,82.3403,0.004070
110.319,82.3403,0.004070
110.350,82.3403,0.004070
110.381,82.3403,0.004070
110.411,82.3403,0.004070
110.443,82.3403,0.004070
110.474,82.3403,0.004070
110.504,82.3403,0.004070
110.535,82.3403,0.004390
110.567,82.3403,0.004390
110.598,82.3403,0.004390
110.629,82.3403,0.004390
110.659,82.3403,0.004390
110.691,82.3403,0.004390
110.721,82.3403,0.004390
110.752,82.3403,0.004390
110.782,82.3403,0.004617
110.814,82.3403,0.004617
110.845,82.3403,0.004617
110.877,82.3403,0.004617
110.908,82.3403,0.004617
110.938,82.3403,0.004617
110.969,82.3403,0.004617
111.000,82.3403,0.004617
111.031,82.3403,0.004862
111.063,82.3403,0.004862
111.093,82.3403,0.004862
111.125,82.3403,0.004862
111.157,82.3403,0.004862
111.188,82.3403,0.004862
111.219,82.3403,0.004862
111.250,82.3403,0.004862
111.281,82.3403,0.005144
111.312,82.3403,0.005144
111.342,82.3403,0.005144
111.374,82.3403,0.005144
111.404,82.3403,0.005144
111.436,82.3403,0.005144
111.467,82.3403,0.005144
111.498,82.3403,0.005144
111.529,82.3403,0.005587
111.560,82.3403,0.005587
111.590,82.3403,0.005587
111.622,82.3403,0.005587
111.652,82.3403,0.005587
111.684,82.3399,0.005587
111.715,82.3388,0.005587
111.746,82.3371,0.005587
111.777,82.3344,0.005983
111.808,82.3312,0.005983
111.837,82.3274,0.005983
111.867,82.3230,0.005983
111.898,82.3177,0.005983
111.929,82.3116,0.005983
111.960,82.3053,0.005983
111.991,82.2992,0.005983
112.022,82.2930,0.005983
112.052,82.2868,0.008253
112.083,82.2807,0.008253
112.114,82.2745,0.008253
112.145,82.2685,0.008253
112.176,82.2623,0.008253
112.206,82.2561,0.008253
112.237,82.2500,0.008253
112.270,82.2434,0.008253
112.301,82.2372,0.014961
112.332,82.2309,0.014961
112.364,82.2247,0.014961
112.395,82.2185,0.014961
112.426,82.2120,0.014961
112.456,82.2062,0.014961
112.487,82.2000,0.014961
112.518,82.1937,0.014961
112.549,82.1876,0.023705
112.579,82.1815,0.023705
112.610,82.1753,0.023705
112.640,82.1694,0.023705
112.672,82.1630,0.023705
112.703,82.1567,0.023705
112.735,82.1504,0.023705
112.766,82.1441,0.023705
112.797,82.1380,0.031845
112.828,82.1317,0.031845
112.860,82.1253,0.031845
112.892,82.1189,0.031845
112.924,82.1126,0.031845
112.955,82.1064,0.031845
112.986,82.1002,0.031845
113.017,82.0940,0.031845
113.048,82.0879,0.039495
113.078,82.0817,0.039495
113.109,82.0754,0.039495
113.140,82.0694,0.039495
113.171,82.0630,0.039495
113.203,82.0568,0.039495
113.234,82.0504,0.039495
113.266,82.0441,0.039495
113.296,82.0379,0.046976
113.328,82.0317,0.046976
113.359,82.0254,0.046976
113.391,82.0191,0.046976
113.422,82.0129,0.046976
113.454,82.0065,0.046976
113.484,82.0003,0.046976
113.516,81.9941,0.046976
113.548,81.9877,0.054598
113.579,81.9815,0.054598
113.609,81.9755,0.054598
113.640,81.9694,0.054598
113.671,81.9632,0.054598
113.701,81.9570,0.054598
113.732,81.9508,0.054598
113.764,81.9444,0.062672
113.796,81.9382,0.062672
113.827,81.9319,0.062672
113.858,81.9257,0.062672
113.889,81.9195,0.062672
113.921,81.9131,0.062672
113.951,81.9069,0.062672
113.983,81.9007,0.062672
114.014,81.8944,0.062672
114.044,81.8886,0.071453
114.074,81.8826,0.071453
114.106,81.8762,0.071453
114.136,81.8701,0.071453
114.168,81.8638,0.071453
114.198,81.8578,0.071453
114.229,81.8515,0.071453
114.260,81.8454,0.071453
114.291,81.8391,0.071453
114.322,81.8330,0.081035
114.354,81.8267,0.081035
114.385,81.8204,0.081035
114.416,81.8140,0.081035
114.447,81.8078,0.081035
114.479,81.8015,0.081035
114.510,81.7953,0.081035
114.542,81.7890,0.081035
114.573,81.7828,0.091616
114.605,81.7763,0.091616
114.635,81.7704,0.091616
114.666,81.7641,0.091616
114.697,81.7580,0.091616
114.728,81.7518,0.091616
114.759,81.7456,0.091616
114.790,81.7393,0.103440
114.821,81.7331,0.103440
114.852,81.7269,0.103440
114.882,81.7209,0.103440
114.913,81.7146,0.103440
114.944,81.7085,0.103440
114.976,81.7021,0.103440
115.007,81.6960,0.103440
115.038,81.6896,0.103440
115.069,81.6837,0.116800
115.100,81.6774,0.116800
115.130,81.6714,0.116800
115.161,81.6650,0.116800
115.192,81.6590,0.116800
115.222,81.6528,0.116800
115.254,81.6466,0.116800
115.284,81.6405,0.131648
115.316,81.6341,0.131648
115.346,81.6281,0.131648
115.377,81.6219,0.131648
115.408,81.6157,0.131648
115.438,81.6098,0.131648
115.469,81.6035,0.131648
115.500,81.5975,0.131648
115.531,81.5911,0.131648
115.562,81.5851,0.148145
115.594,81.5785,0.148145
115.625,81.5724,0.148145
115.656,81.5660,0.148145
115.687,81.5599,0.148145
115.718,81.5537,0.148145
115.750,81.5474,0.148145
115.779,81.5416,0.148145
115.811,81.5350,0.166376
115.842,81.5290,0.166376
115.873,81.5228,0.166376
115.904,81.5165,0.166376
115.935,81.5103,0.166376
115.967,81.5040,0.166376
115.997,81.4980,0.166376
116.028,81.4916,0.186435
116.059,81.4855,0.186435
116.090,81.4793,0.186435
116.122,81.4731,0.186435
116.153,81.4668,0.186435
116.184,81.4606,0.186435
116.217,81.4540,0.186435
116.246,81.4482,0.186435
116.278,81.4417,0.208613
116.309,81.4355,0.208613
116.342,81.4291,0.208613
116.370,81.4235,0.208613
116.404,81.4165,0.208613
116.435,81.4103,0.208613
116.466,81.4043,0.208613
116.497,81.3981,0.208613
116.527,81.3919,0.232525
116.558,81.3858,0.232525
116.590,81.3793,0.232525
116.620,81.3734,0.232525
116.652,81.3669,0.232525
116.682,81.3610,0.232525
116.714,81.3545,0.232525
116.744,81.3486,0.232525
116.776,81.3421,0.232525
116.807,81.3361,0.258190
116.838,81.3296,0.258190
116.869,81.3237,0.258190
116.900,81.3173,0.258190
116.930,81.3113,0.258190
116.962,81.3048,0.258190
116.994,81.2987,0.258190
117.025,81.2922,0.285361
117.056,81.2861,0.285361
117.088,81.2796,0.285361
117.119,81.2736,0.285361
117.151,81.2671,0.285361
117.182,81.2609,0.285361
117.214,81.2546,0.285361
117.245,81.2485,0.285361
117.277,81.2417,0.313513
117.307,81.2360,0.313513
117.338,81.2298,0.313513
117.369,81.2236,0.313513
117.400,81.2174,0.313513
117.431,81.2112,0.313513
117.461,81.2052,0.313513
117.492,81.1988,0.313513
117.523,81.1927,0.342381
117.555,81.1862,0.342381
117.585,81.1804,0.342381
117.616,81.1741,0.342381
117.647,81.1679,0.342381
117.679,81.1614,0.342381
117.710,81.1554,0.342381
117.741,81.1490,0.342381
117.773,81.1427,0.370844
117.804,81.1366,0.370844
117.835,81.1306,0.370844
117.865,81.1244,0.370844
117.896,81.1181,0.370844
117.926,81.1121,0.370844
117.957,81.1060,0.370844
117.989,81.0997,0.370844
118.019,81.0936,0.397318
118.050,81.0874,0.397318
118.081,81.0811,0.397318
118.113,81.0747,0.397318
118.144,81.0687,0.397318
118.175,81.0623,0.397318
118.206,81.0561,0.397318
118.238,81.0498,0.397318
118.269,81.0435,0.418630
118.301,81.0373,0.418630
118.332,81.0311,0.418630
118.363,81.0248,0.418630
118.394,81.0187,0.418630
118.425,81.0124,0.418630
118.456,81.0062,0.418630
118.487,81.0001,0.418630
118.518,80.9939,0.418630
118.549,80.9876,0.425121
118.581,80.9812,0.425121
118.612,80.9750,0.425121
118.643,80.9688,0.425121
118.675,80.9624,0.425121
118.706,80.9562,0.425121
118.737,80.9498,0.425121
118.767,80.9439,0.226392
118.798,80.9377,0.226392
118.829,80.9316,0.226392
118.861,80.9250,0.226392
118.892,80.9190,0.226392
118.924,80.9124,0.226392
118.955,80.9064,0.226392
118.986,80.9000,0.226392
119.018,80.8938,0.027577
119.049,80.8875,0.027577
119.080,80.8814,0.027577
119.112,80.8751,0.027577
119.142,80.8690,0.027577
119.173,80.8629,0.027577
119.204,80.8565,0.027577
119.235,80.8504,0.027577
119.266,80.8443,0.024572
119.297,80.8380,0.024572
119.328,80.8318,0.024572
119.359,80.8255,0.024572
119.390,80.8194,0.024572
119.422,80.8129,0.024572
119.452,80.8070,0.024572
119.484,80.8006,0.024572
119.516,80.7943,0.023658
119.547,80.7880,0.023658
119.578,80.7818,0.023658
119.609,80.7756,0.023658
119.640,80.7695,0.023658
119.672,80.7631,0.023658
119.702,80.7570,0.023658
119.735,80.7504,0.023658
119.764,80.7446,0.023309
119.797,80.7380,0.023309
119.827,80.7318,0.023309
119.858,80.7257,0.023309
119.889,80.7197,0.023309
119.920,80.7133,0.023309
119.951,80.7071,0.023309
119.983,80.7008,0.023309
120.014,80.6947,0.023187
120.045,80.6882,0.023187
120.076,80.6823,0.023187
120.107,80.6761,0.023187
120.138,80.6699,0.023187
120.168,80.6636,0.023187
120.200,80.6574,0.023187
120.231,80.6513,0.023187
120.262,80.6449,0.023187
120.292,80.6389,0.023158
120.322,80.6330,0.023158
120.353,80.6268,0.023158
120.384,80.6207,0.023158
120.415,80.6144,0.023158
120.446,80.6082,0.023158
120.478,80.6018,0.023158
120.508,80.5958,0.023158
120.538,80.5897,0.023158
120.569,80.5836,0.023187
120.601,80.5772,0.023187
120.632,80.5711,0.023187
120.664,80.5646,0.023187
120.694,80.5584,0.023187
120.726,80.5522,0.023187
120.756,80.5460,0.023187
120.787,80.5398,0.023168
120.818,80.5339,0.023168
120.849,80.5274,0.023168
120.881,80.5213,0.023168
120.912,80.5149,0.023168
120.943,80.5088,0.023168
120.974,80.5024,0.023168
121.005,80.4963,0.023168
121.036,80.4900,0.023168
121.068,80.4839,0.023187
121.098,80.4777,0.023187
121.129,80.4715,0.023187
121.162,80.4650,0.023187
121.193,80.4588,0.023187
121.225,80.4524,0.023187
121.255,80.4464,0.023187
121.286,80.4401,0.023187
121.317,80.4340,0.023318
121.349,80.4276,0.023318
121.381,80.4214,0.023318
121.411,80.4152,0.023318
121.443,80.4090,0.023318
121.475,80.4024,0.023318
121.506,80.3962,0.023318
121.537,80.3899,0.023384
121.569,80.3837,0.023384
121.599,80.3776,0.023384
121.630,80.3714,0.023384
121.661,80.3652,0.023384
121.692,80.3590,0.023384
121.723,80.3528,0.023384
121.754,80.3465,0.023384
121.785,80.3404,0.023375
121.817,80.3339,0.023375
121.847,80.3280,0.023375
121.879,80.3217,0.023375
121.909,80.3156,0.023375
121.941,80.3091,0.023375
121.971,80.3032,0.023375
122.003,80.2967,0.023375
122.034,80.2908,0.023413
122.064,80.2845,0.023413
122.095,80.2785,0.023413
122.126,80.2722,0.023413
122.157,80.2659,0.023413
122.188,80.2599,0.023413
122.218,80.2540,0.023413
122.248,80.2478,0.023413
122.279,80.2417,0.023413
122.311,80.2352,0.023497
122.341,80.2293,0.023497
122.372,80.2229,0.023497
122.403,80.2169,0.023497
122.434,80.2107,0.023497
122.465,80.2045,0.023497
122.496,80.1984,0.023497
122.527,80.1919,0.023611
122.559,80.1857,0.023611
122.590,80.1794,0.023611
122.621,80.1732,0.023611
122.652,80.1670,0.023611
122.683,80.1608,0.023611
122.714,80.1547,0.023611
122.745,80.1485,0.023611
122.776,80.1422,0.023648
122.807,80.1360,0.023648
122.838,80.1298,0.023648
122.869,80.1235,0.023648
122.900,80.1173,0.023648
122.931,80.1112,0.023648
122.961,80.1050,0.023648
122.993,80.0989,0.023648
123.024,80.0926,0.023686
123.056,80.0862,0.023686
123.086,80.0802,0.023686
123.117,80.0740,0.023686
123.149,80.0675,0.023686
123.179,80.0616,0.023686
123.210,80.0554,0.023686
123.242,80.0491,0.023686
123.273,80.0427,0.023686
123.304,80.0364,0.023742
123.336,80.0303,0.023742
123.367,80.0241,0.023742
123.399,80.0176,0.023742
123.429,80.0116,0.023742
123.459,80.0055,0.023742
123.491,79.9993,0.023742
123.521,79.9933,0.023742
123.553,79.9869,0.023808
123.583,79.9809,0.023808
123.614,79.9747,0.023808
123.646,79.9683,0.023808
123.676,79.9621,0.023808
123.707,79.9559,0.023808
123.739,79.9497,0.023808
123.770,79.9434,0.023903
123.801,79.9371,0.023903
123.831,79.9311,0.023903
123.862,79.9248,0.023903
123.893,79.9187,0.023903
123.925,79.9124,0.023903
123.956,79.9062,0.023903
123.988,79.8999,0.023903
124.019,79.8937,0.023931
124.051,79.8872,0.023931
124.082,79.8811,0.023931
124.112,79.8751,0.023931
124.143,79.8690,0.023931
124.174,79.8627,0.023931
124.205,79.8566,0.023931
124.236,79.8503,0.023931
124.266,79.8442,0.023921
124.297,79.8380,0.023921
124.328,79.8318,0.023921
124.359,79.8257,0.023921
124.390,79.8195,0.023921
124.420,79.8133,0.023921
124.451,79.8073,0.023921
124.482,79.8010,0.023921
124.513,79.7948,0.024025
124.544,79.7886,0.024025
124.575,79.7825,0.024025
124.605,79.7762,0.024025
124.637,79.7701,0.024025
124.668,79.7637,0.024025
124.698,79.7577,0.024025
124.729,79.7514,0.024025
124.760,79.7455,0.024072
124.791,79.7391,0.024072
124.822,79.7329,0.024072
124.853,79.7269,0.024072
124.884,79.7205,0.024072
124.917,79.7141,0.024072
124.947,79.7081,0.024072
124.977,79.7020,0.024072
125.009,79.6957,0.024072
125.038,79.6898,0.024044
125.070,79.6834,0.024044
125.100,79.6774,0.024044
125.131,79.6713,0.024044
125.162,79.6650,0.024044
125.194,79.6586,0.024044
125.225,79.6524,0.024044
125.257,79.6460,0.024044
125.289,79.6398,0.024110
125.320,79.6333,0.024110
125.351,79.6270,0.024110
125.382,79.6209,0.024110
125.413,79.6147,0.024110
125.444,79.6085,0.024110
125.475,79.6023,0.024110
125.506,79.5960,0.024110
125.538,79.5899,0.024176
125.569,79.5835,0.024176
125.601,79.5773,0.024176
125.632,79.5711,0.024176
125.662,79.5651,0.024176
125.693,79.5588,0.024176
125.723,79.5527,0.024176
125.754,79.5465,0.024176
125.786,79.5402,0.024223
125.817,79.5340,0.024223
125.848,79.5278,0.024223
125.880,79.5213,0.024223
125.911,79.5150,0.024223
125.942,79.5088,0.024223
125.973,79.5026,0.024223
126.005,79.4965,0.024270
126.035,79.4903,0.024270
126.067,79.4841,0.024270
126.098,79.4778,0.024270
126.128,79.4716,0.024270
126.161,79.4652,0.024270
126.191,79.4591,0.024270
126.222,79.4531,0.024270
126.253,79.4467,0.024270
126.284,79.4406,0.024327
126.316,79.4340,0.024327
126.347,79.4281,0.024327
126.379,79.4216,0.024327
126.410,79.4156,0.024327
126.442,79.4090,0.024327
126.472,79.4030,0.024327
126.503,79.3967,0.024327
126.534,79.3906,0.024355
126.566,79.3843,0.024355
126.596,79.3782,0.024355
126.627,79.3718,0.024355
126.659,79.3656,0.024355
126.689,79.3596,0.024355
126.720,79.3533,0.024355
126.752,79.3470,0.024355
126.782,79.3409,0.024345
126.813,79.3349,0.024345
126.843,79.3289,0.024345
126.874,79.3227,0.024345
126.905,79.3166,0.024345
126.936,79.3106,0.024345
126.966,79.3057,0.024345
126.998,79.3013,0.024345
127.028,79.2977,0.024355
127.059,79.2948,0.024355
127.089,79.2926,0.024355
127.120,79.2912,0.024355
127.151,79.2904,0.024355
127.182,79.2903,0.024355
127.213,79.2903,0.024355
127.243,79.2903,0.024355
127.273,79.2903,0.024214
127.305,79.2903,0.024214
127.336,79.2903,0.024214
127.367,79.2903,0.024214
127.399,79.2903,0.024214
127.430,79.2903,0.024214
127.461,79.2903,0.024214
127.491,79.2903,0.024214
127.522,79.2903,0.024072
127.553,79.2903,0.024072
127.584,79.2903,0.024072
127.616,79.2903,0.024072
127.647,79.2903,0.024072
127.678,79.2907,0.024072
127.709,79.2918,0.024072
127.740,79.2936,0.024072
127.772,79.2962,0.023997
127.803,79.2997,0.023997
127.835,79.3038,0.023997
127.866,79.3086,0.023997
127.897,79.3141,0.023997
127.929,79.3204,0.023997
127.959,79.3265,0.023997
127.990,79.3327,0.023997
128.022,79.3389,0.023771
128.053,79.3452,0.023771
128.084,79.3516,0.023771
128.116,79.3579,0.023771
128.146,79.3638,0.023771
128.177,79.3702,0.023771
128.208,79.3762,0.023771
128.239,79.3826,0.023771
128.270,79.3888,0.023771
128.302,79.3950,0.023563
128.333,79.4012,0.023563
128.363,79.4074,0.023563
128.395,79.4136,0.023563
128.425,79.4196,0.023563
128.457,79.4260,0.023563
128.487,79.4322,0.023563
128.518,79.4383,0.023460
128.550,79.4446,0.023460
128.581,79.4508,0.023460
128.611,79.4569,0.023460
128.643,79.4633,0.023460
128.674,79.4695,0.023460
128.704,79.4755,0.023460
128.735,79.4817,0.023460
128.767,79.4880,0.023432
128.797,79.4941,0.023432
128.829,79.5004,0.023432
128.859,79.5066,0.023432
128.890,79.5127,0.023432
128.922,79.5191,0.023432
128.953,79.5252,0.023432
128.983,79.5313,0.023432
129.014,79.5375,0.023394
129.045,79.5438,0.023394
129.076,79.5497,0.023394
129.107,79.5561,0.023394
129.138,79.5623,0.023394
129.170,79.5687,0.023394
129.201,79.5749,0.023394
129.234,79.5814,0.023394
129.264,79.5875,0.023375
129.295,79.5937,0.023375
129.326,79.5999,0.023375
129.357,79.6059,0.023375
129.388,79.6123,0.023375
129.418,79.6183,0.023375
129.450,79.6245,0.023375
129.481,79.6311,0.023375
129.513,79.6372,0.023328
129.544,79.6434,0.023328
129.575,79.6496,0.023328
129.606,79.6558,0.023328
129.637,79.6620,0.023328
129.667,79.6681,0.023328
129.698,79.6743,0.023328
129.730,79.6806,0.023328
129.762,79.6870,0.023328
129.793,79.6932,0.023328
129.824,79.6993,0.023205
129.855,79.7058,0.023205
129.887,79.7120,0.023205
129.918,79.7183,0.023205
129.946,79.7239,0.023205
129.980,79.7307,0.023205
130.011,79.7369,0.023205
130.042,79.7431,0.023139
130.073,79.7493,0.023139
130.105,79.7556,0.023139
130.135,79.7617,0.023139
130.166,79.7679,0.023139
130.197,79.7740,0.023139
130.227,79.7802,0.023139
130.258,79.7863,0.023139
130.289,79.7926,0.023139
130.323,79.7992,0.023045
130.352,79.8051,0.023045
130.383,79.8113,0.023045
130.413,79.8174,0.023045
130.445,79.8237,0.023045
130.474,79.8294,0.023045
130.505,79.8356,0.023045
130.536,79.8418,0.022960
130.567,79.8481,0.022960
130.599,79.8545,0.022960
130.630,79.8606,0.022960
130.660,79.8668,0.022960
130.692,79.8730,0.022960
130.722,79.8792,0.022960
130.753,79.8852,0.022960
130.784,79.8916,0.022960
130.816,79.8979,0.022876
130.846,79.9038,0.022876
130.877,79.9099,0.022876
130.907,79.9161,0.022876
130.940,79.9227,0.022876
130.970,79.9286,0.022876
131.001,79.9347,0.022876
131.032,79.9410,0.022876
131.062,79.9470,0.022763
131.094,79.9533,0.022763
131.126,79.9598,0.022763
131.155,79.9656,0.022763
131.186,79.9718,0.022763
131.217,79.9780,0.022763
131.247,79.9841,0.022763
131.278,79.9903,0.022763
131.309,79.9965,0.022706
131.340,80.0027,0.022706
131.371,80.0089,0.022706
131.402,80.0151,0.022706
131.433,80.0212,0.022706
131.464,80.0274,0.022706
131.495,80.0336,0.022706
131.526,80.0400,0.022602
131.558,80.0462,0.022602
131.588,80.0523,0.022602
131.619,80.0585,0.022602
131.651,80.0648,0.022602
131.682,80.0713,0.022602
131.713,80.0773,0.022602
131.744,80.0835,0.022602
131.775,80.0896,0.022508
131.807,80.0961,0.022508
131.838,80.1024,0.022508
131.869,80.1084,0.022508
131.900,80.1148,0.022508
131.931,80.1209,0.022508
131.962,80.1272,0.022508
131.994,80.1334,0.022508
132.025,80.1397,0.022508
132.056,80.1458,0.022357
132.087,80.1521,0.022357
132.118,80.1585,0.022357
132.149,80.1645,0.022357
132.181,80.1707,0.022357
132.212,80.1771,0.022357
132.242,80.1830,0.022357
132.274,80.1896,0.022301
132.305,80.1957,0.022301
132.336,80.2019,0.022301
132.367,80.2079,0.022301
132.399,80.2143,0.022301
132.430,80.2206,0.022301
132.460,80.2267,0.022301
132.492,80.2331,0.022301
132.523,80.2392,0.022235
132.553,80.2451,0.022235
132.584,80.2515,0.022235
132.614,80.2576,0.022235
132.645,80.2636,0.022235
132.677,80.2700,0.022235
132.706,80.2758,0.022235
132.739,80.2824,0.022235
132.768,80.2883,0.022131
132.800,80.2945,0.022131
132.830,80.3008,0.022131
132.862,80.3070,0.022131
132.892,80.3131,0.022131
132.923,80.3192,0.022131
132.954,80.3255,0.022131
132.986,80.3318,0.022131
133.017,80.3379,0.022047
133.048,80.3442,0.022047
133.078,80.3502,0.022047
133.110,80.3566,0.022047
133.141,80.3627,0.022047
133.171,80.3690,0.022047
133.202,80.3750,0.022047
133.235,80.3816,0.022047
133.264,80.3874,0.021905
133.294,80.3937,0.021905
133.326,80.3999,0.021905
133.358,80.4063,0.021905
133.388,80.4122,0.021905
133.419,80.4185,0.021905
133.450,80.4246,0.021905
133.481,80.4309,0.021905
133.512,80.4371,0.021811
133.545,80.4437,0.021811
133.576,80.4498,0.021811
133.607,80.4564,0.021811
133.638,80.4622,0.021811
133.668,80.4683,0.021811
133.699,80.4743,0.021811
133.730,80.4805,0.021811
133.761,80.4869,0.021811
133.792,80.4929,0.021679
133.824,80.4994,0.021679
133.854,80.5053,0.021679
133.884,80.5117,0.021679
133.916,80.5178,0.021679
133.947,80.5241,0.021679
133.977,80.5302,0.021679
134.010,80.5366,0.021679
134.041,80.5428,0.021594
134.073,80.5494,0.021594
134.104,80.5555,0.021594
134.136,80.5619,0.021594
134.167,80.5680,0.021594
134.198,80.5743,0.021594
134.229,80.5803,0.021594
134.259,80.5863,0.021594
134.291,80.5927,0.021594
134.321,80.5987,0.021444
134.352,80.6051,0.021444
134.383,80.6111,0.021444
134.414,80.6176,0.021444
134.447,80.6240,0.021444
134.475,80.6297,0.021444
134.506,80.6358,0.021444
134.537,80.6421,0.021321
134.568,80.6483,0.021321
134.599,80.6547,0.021321
134.631,80.6609,0.021321
134.663,80.6674,0.021321
134.695,80.6736,0.021321
134.725,80.6796,0.021321
134.755,80.6857,0.021321
134.786,80.6919,0.021255
134.817,80.6982,0.021255
134.849,80.7044,0.021255
134.880,80.7107,0.021255
134.911,80.7168,0.021255
134.942,80.7230,0.021255
134.973,80.7293,0.021255
135.004,80.7355,0.021255
135.036,80.7417,0.021076
135.066,80.7479,0.021076
135.097,80.7540,0.021076
135.129,80.7605,0.021076
135.160,80.7665,0.021076
135.192,80.7731,0.021076
135.223,80.7792,0.021076
135.254,80.7854,0.020925
135.285,80.7917,0.020925
135.316,80.7978,0.020925
135.348,80.8041,0.020925
135.379,80.8103,0.020925
135.411,80.8168,0.020925
135.441,80.8230,0.020925
135.472,80.8289,0.020925
135.502,80.8350,0.020831
135.532,80.8411,0.020831
135.564,80.8474,0.020831
135.595,80.8536,0.020831
135.627,80.8599,0.020831
135.658,80.8663,0.020831
135.689,80.8726,0.020831
135.720,80.8787,0.020831
135.752,80.8850,0.020831
135.783,80.8912,0.020718
135.815,80.8976,0.020718
135.845,80.9036,0.020718
135.877,80.9100,0.020718
135.908,80.9161,0.020718
135.941,80.9228,0.020718
135.972,80.9289,0.020718
136.001,80.9350,0.020605
136.033,80.9412,0.020605
136.064,80.9474,0.020605
136.095,80.9536,0.020605
136.126,80.9599,0.020605
136.157,80.9660,0.020605
136.188,80.9723,0.020605
136.218,80.9783,0.020605
136.250,80.9847,0.020605
136.281,80.9908,0.020473
136.312,80.9971,0.020473
136.344,81.0033,0.020473
136.375,81.0096,0.020473
136.405,81.0157,0.020473
136.436,81.0220,0.020473
136.468,81.0284,0.020473
136.499,81.0344,0.020473
136.526,81.0398,0.020285
136.561,81.0468,0.020285
136.593,81.0532,0.020285
136.624,81.0594,0.020285
136.654,81.0656,0.020285
136.686,81.0718,0.020285
136.717,81.0780,0.020285
136.749,81.0844,0.020285
136.780,81.0906,0.020143
136.811,81.0969,0.020143
136.842,81.1030,0.020143
136.873,81.1092,0.020143
136.904,81.1153,0.020143
136.936,81.1217,0.020143
136.967,81.1279,0.020143
136.998,81.1341,0.020143
137.028,81.1402,0.019983
137.059,81.1466,0.019983
137.090,81.1526,0.019983
137.121,81.1587,0.019983
137.152,81.1649,0.019983
137.183,81.1714,0.019983
137.214,81.1773,0.019983
137.246,81.1839,0.019983
137.277,81.1901,0.019804
137.309,81.1963,0.019804
137.340,81.2026,0.019804
137.370,81.2086,0.019804
137.401,81.2148,0.019804
137.431,81.2207,0.019804
137.462,81.2269,0.019804
137.493,81.2334,0.019804
137.524,81.2393,0.019804
137.555,81.2455,0.019719
137.585,81.2516,0.019719
137.615,81.2577,0.019719
137.647,81.2640,0.019719
137.677,81.2701,0.019719
137.708,81.2762,0.019719
137.740,81.2825,0.019719
137.772,81.2889,0.019719
137.802,81.2950,0.019588
137.833,81.3013,0.019588
137.864,81.3075,0.019588
137.895,81.3136,0.019588
137.926,81.3198,0.019588
137.958,81.3263,0.019588
137.988,81.3322,0.019588
138.020,81.3385,0.019588
138.050,81.3445,0.019390
138.081,81.3508,0.019390
138.113,81.3571,0.019390
138.145,81.3636,0.019390
138.174,81.3694,0.019390
138.205,81.3756,0.019390
138.235,81.3817,0.019390
138.267,81.3880,0.019390
138.298,81.3942,0.019258
138.329,81.4003,0.019258
138.360,81.4066,0.019258
138.391,81.4128,0.019258
138.422,81.4190,0.019258
138.454,81.4254,0.019258
138.485,81.4316,0.019258
138.516,81.4379,0.019258
138.547,81.4440,0.019107
138.578,81.4502,0.019107
138.609,81.4564,0.019107
138.640,81.4624,0.019107
138.671,81.4686,0.019107
138.702,81.4750,0.019107
138.733,81.4813,0.019107
138.764,81.4875,0.019107
138.795,81.4936,0.018919
138.826,81.4999,0.018919
138.857,81.5060,0.018919
138.888,81.5123,0.018919
138.920,81.5185,0.018919
138.951,81.5248,0.018919
138.982,81.5309,0.018919
139.013,81.5372,0.018919
139.043,81.5432,0.018711
139.074,81.5495,0.018711
139.104,81.5555,0.018711
139.135,81.5617,0.018711
139.167,81.5680,0.018711
139.198,81.5743,0.018711
139.229,81.5803,0.018711
139.260,81.5867,0.018711
139.291,81.5928,0.018513
139.322,81.5991,0.018513
139.353,81.6052,0.018513
139.384,81.6114,0.018513
139.415,81.6176,0.018513
139.445,81.6235,0.018513
139.475,81.6296,0.018513
139.506,81.6359,0.018513
139.537,81.6420,0.018268
139.568,81.6483,0.018268
139.600,81.6546,0.018268
139.631,81.6609,0.018268
139.661,81.6668,0.018268
139.692,81.6729,0.018268
139.723,81.6791,0.018268
139.754,81.6854,0.018268
139.785,81.6915,0.018005
139.817,81.6980,0.018005
139.847,81.7040,0.018005
139.878,81.7102,0.018005
139.909,81.7163,0.018005
139.941,81.7228,0.018005
139.971,81.7287,0.018005
140.002,81.7350,0.018005
140.034,81.7414,0.017750
140.064,81.7474,0.017750
140.095,81.7536,0.017750
140.127,81.7598,0.017750
140.157,81.7660,0.017750
140.189,81.7724,0.017750
140.219,81.7785,0.017750
140.250,81.7848,0.017750
140.282,81.7910,0.017392
140.313,81.7971,0.017392
140.344,81.8033,0.017392
140.374,81.8093,0.017392
140.405,81.8158,0.017392
140.436,81.8217,0.017392
140.467,81.8281,0.017392
140.498,81.8341,0.017392
140.529,81.8405,0.016959
140.561,81.8468,0.016959
140.592,81.8531,0.016959
140.623,81.8591,0.016959
140.653,81.8654,0.016959
140.685,81.8716,0.016959
140.717,81.8780,0.016959
140.749,81.8844,0.016959
140.780,81.8904,0.016516
140.811,81.8968,0.016516
140.842,81.9030,0.016516
140.873,81.9093,0.016516
140.904,81.9154,0.016516
140.937,81.9218,0.016516
140.966,81.9277,0.016516
140.997,81.9340,0.016516
141.028,81.9403,0.016007
141.061,81.9467,0.016007
141.090,81.9527,0.016007
141.122,81.9592,0.016007
141.152,81.9652,0.016007
141.184,81.9714,0.016007
141.214,81.9775,0.016007
141.245,81.9836,0.016007
141.277,81.9900,0.016007
141.308,81.9961,0.015150
141.339,82.0023,0.015150
141.371,82.0086,0.015150
141.402,82.0150,0.015150
141.433,82.0213,0.015150
141.465,82.0275,0.015150
141.496,82.0338,0.015150
141.526,82.0399,0.013991
141.558,82.0462,0.013991
141.588,82.0523,0.013991
141.618,82.0582,0.013991
141.649,82.0646,0.013991
141.680,82.0706,0.013991
141.711,82.0769,0.013991
141.742,82.0829,0.013991
141.773,82.0894,0.013991
141.805,82.0956,0.012474
141.838,82.1023,0.012474
141.868,82.1082,0.012474
141.900,82.1147,0.012474
141.931,82.1209,0.012474
141.962,82.1271,0.012474
141.990,82.1327,0.012474
142.026,82.1397,0.010317
142.056,82.1458,0.010317
142.087,82.1520,0.010317
142.118,82.1581,0.010317
142.149,82.1644,0.010317
142.180,82.1706,0.010317
142.212,82.1771,0.010317
142.242,82.1830,0.010317
142.273,82.1892,0.007368
142.304,82.1953,0.007368
142.336,82.2017,0.007368
142.367,82.2078,0.007368
142.398,82.2143,0.007368
142.429,82.2203,0.007368
142.460,82.2265,0.007368
142.491,82.2327,0.007368
142.523,82.2392,0.007368
142.554,82.2453,0.003571
142.584,82.2515,0.003571
142.615,82.2576,0.003571
142.647,82.2640,0.003571
142.679,82.2698,0.003571
142.710,82.2750,0.003571
142.741,82.2795,0.003571
142.772,82.2830,-0.001215
142.804,82.2861,-0.001215
142.834,82.2881,-0.001215
142.865,82.2896,-0.001215
142.896,82.2902,-0.001215
142.927,82.2903,-0.001215
142.958,82.2903,-0.001215
142.990,82.2903,-0.001215
143.020,82.2903,-0.001215
143.052,82.2903,-0.004730
143.082,82.2903,-0.004730
143.112,82.2903,-0.004730
143.143,82.2903,-0.004730
143.174,82.2903,-0.004730
143.206,82.2903,-0.004730
143.236,82.2903,-0.004730
143.267,82.2903,-0.004428
143.299,82.2903,-0.004428
143.330,82.2903,-0.004428
143.362,82.2903,-0.004428
143.393,82.2903,-0.004428
143.424,82.2903,-0.004428
143.454,82.2903,-0.004428
143.485,82.2903,-0.004428
143.516,82.2903,-0.002440
143.547,82.2903,-0.002440
143.578,82.2903,-0.002440
143.608,82.2903,-0.002440
143.640,82.2903,-0.002440
143.671,82.2903,-0.002440
143.702,82.2903,-0.002440
143.733,82.2903,-0.002440
143.764,82.2903,-0.000989
143.796,82.2903,-0.000989
143.826,82.2903,-0.000989
143.857,82.2903,-0.000989
143.889,82.2903,-0.000989
143.920,82.2903,-0.000989
143.951,82.2903,-0.000989
143.982,82.2903,-0.000989
144.013,82.2903,-0.000989
144.044,82.2903,0.000038
144.074,82.2903,0.000038
144.105,82.2903,0.000038
144.136,82.2903,0.000038
144.167,82.2903,0.000038
144.198,82.2903,0.000038
144.229,82.2903,0.000038
144.259,82.2903,0.000038
144.290,82.2903,0.000886
144.322,82.2903,0.000886
144.353,82.2903,0.000886
144.384,82.2903,0.000886
144.416,82.2903,0.000886
144.447,82.2903,0.000886
144.479,82.2903,0.000886
144.510,82.2903,0.000886
144.541,82.2903,0.001517
144.572,82.2903,0.001517
144.603,82.2903,0.001517
144.635,82.2903,0.001517
144.665,82.2903,0.001517
144.696,82.2903,0.001517
144.727,82.2903,0.001517
144.758,82.2903,0.001517
144.789,82.2903,0.002101
144.821,82.2903,0.002101
144.851,82.2903,0.002101
144.883,82.2903,0.002101
144.914,82.2903,0.002101
144.946,82.2903,0.002101
144.976,82.2903,0.002101
145.008,82.2903,0.002101
145.039,82.2903,0.002647
145.071,82.2903,0.002647
145.102,82.2903,0.002647
145.133,82.2903,0.002647
145.164,82.2903,0.002647
145.195,82.2903,0.002647
145.226,82.2903,0.002647
145.257,82.2903,0.002647
145.288,82.2903,0.003062
145.319,82.2903,0.003062
145.350,82.2903,0.003062
145.381,82.2903,0.003062
145.412,82.2903,0.003062
145.445,82.2903,0.003062
145.474,82.2903,0.003062
145.505,82.2903,0.003062
145.536,82.2903,0.003392
145.567,82.2903,0.003392
145.598,82.2903,0.003392
145.630,82.2903,0.003392
145.662,82.2903,0.003392
145.693,82.2903,0.003392
145.724,82.2903,0.003392
145.753,82.2903,0.003392
145.785,82.2903,0.003722
145.816,82.2903,0.003722
145.847,82.2903,0.003722
145.878,82.2903,0.003722
145.910,82.2903,0.003722
145.941,82.2903,0.003722
145.972,82.2903,0.003722
146.003,82.2903,0.003722
146.035,82.2903,0.004070
146.066,82.2903,0.004070
146.096,82.2903,0.004070
146.127,82.2903,0.004070
146.158,82.2903,0.004070
146.190,82.2903,0.004070
146.220,82.2903,0.004070
146.250,82.2903,0.004070
146.281,82.2903,0.004070
146.312,82.2903,0.004353
146.343,82.2903,0.004353
146.374,82.2903,0.004353
146.406,82.2903,0.004353
146.437,82.2903,0.004353
146.468,82.2903,0.004353
146.498,82.2903,0.004353
146.528,82.2903,0.004569
146.559,82.2903,0.004569
146.589,82.2903,0.004569
146.620,82.2903,0.004569
146.651,82.2903,0.004569
146.682,82.2903,0.004569
146.714,82.2903,0.004569
146.745,82.2903,0.004569
146.777,82.2903,0.004767
146.808,82.2903,0.004767
146.838,82.2903,0.004767
146.869,82.2903,0.004767
146.900,82.2903,0.004767
146.931,82.2903,0.004767
146.963,82.2903,0.004767
146.994,82.2903,0.004767
147.025,82.2903,0.005041
147.056,82.2903,0.005041
147.087,82.2903,0.005041
147.118,82.2903,0.005041
147.149,82.2903,0.005041
147.180,82.2903,0.005041
147.212,82.2903,0.005041
147.242,82.2903,0.005041
147.274,82.2903,0.005041
147.305,82.2903,0.005474
147.336,82.2903,0.005474
147.367,82.2903,0.005474
147.399,82.2903,0.005474
147.429,82.2903,0.005474
147.460,82.2903,0.005474
147.491,82.2903,0.005474
147.521,82.2900,0.005474
147.553,82.2889,0.005879
147.584,82.2872,0.005879
147.616,82.2847,0.005879
147.647,82.2814,0.005879
147.678,82.2775,0.005879
147.709,82.2727,0.005879
147.741,82.2674,0.005879
147.772,82.2610,0.006991
147.803,82.2549,0.006991
147.834,82.2486,0.006991
147.864,82.2427,0.006991
147.895,82.2365,0.006991
147.927,82.2300,0.006991
147.958,82.2239,0.006991
147.989,82.2177,0.006991
148.021,82.2114,0.012163
148.053,82.2048,0.012163
148.083,82.1989,0.012163
148.113,82.1931,0.012163
148.144,82.1866,0.012163
148.175,82.1805,0.012163
148.206,82.1742,0.012163
148.237,82.1680,0.012163
148.268,82.1617,0.012163
148.300,82.1556,0.020718
148.331,82.1493,0.020718
148.361,82.1432,0.020718
148.393,82.1368,0.020718
148.424,82.1308,0.020718
148.455,82.1245,0.020718
148.486,82.1184,0.020718
148.517,82.1119,0.029047
148.548,82.1059,0.029047
148.579,82.0997,0.029047
148.610,82.0936,0.029047
148.641,82.0873,0.029047
148.672,82.0812,0.029047
148.703,82.0750,0.029047
148.734,82.0688,0.029047
148.764,82.0626,0.029047
148.794,82.0568,0.036716
148.826,82.0504,0.036716
148.857,82.0441,0.036716
148.888,82.0379,0.036716
148.920,82.0316,0.036716
148.951,82.0253,0.036716
148.982,82.0191,0.036716
149.014,82.0126,0.036716
149.042,82.0070,0.044225
149.077,82.0002,0.044225
149.107,81.9943,0.044225
149.138,81.9879,0.044225
149.169,81.9816,0.044225
149.200,81.9754,0.044225
149.231,81.9693,0.044225
149.263,81.9629,0.051800
149.293,81.9568,0.051800
149.325,81.9503,0.051800
149.355,81.9445,0.051800
149.386,81.9382,0.051800
149.417,81.9321,0.051800
149.448,81.9258,0.051800
149.478,81.9198,0.051800
149.510,81.9134,0.059686
149.541,81.9073,0.059686
149.573,81.9010,0.059686
149.604,81.8947,0.059686
149.635,81.8883,0.059686
149.666,81.8823,0.059686
149.697,81.8761,0.059686
149.727,81.8701,0.059686
149.759,81.8635,0.068175
149.790,81.8576,0.068175
149.821,81.8514,0.068175
149.852,81.8452,0.068175
149.883,81.8388,0.068175
149.915,81.8324,0.068175
149.945,81.8266,0.068175
149.977,81.8202,0.068175
150.007,81.8142,0.077464
150.037,81.8080,0.077464
150.068,81.8019,0.077464
150.099,81.7957,0.077464
150.129,81.7897,0.077464
150.162,81.7832,0.077464
150.192,81.7772,0.077464
150.222,81.7710,0.077464
150.253,81.7648,0.077464
150.285,81.7585,0.087734
150.315,81.7525,0.087734
150.346,81.7465,0.087734
150.377,81.7403,0.087734
150.407,81.7339,0.087734
150.438,81.7278,0.087734
150.470,81.7214,0.087734
150.501,81.7153,0.087734
150.532,81.7090,0.099162
150.563,81.7028,0.099162
150.594,81.6966,0.099162
150.625,81.6905,0.099162
150.656,81.6842,0.099162
150.688,81.6779,0.099162
150.719,81.6717,0.099162
150.749,81.6657,0.099162
150.780,81.6595,0.112061
150.812,81.6533,0.112061
150.842,81.6470,0.112061
150.873,81.6410,0.112061
150.904,81.6347,0.112061
150.935,81.6285,0.112061
150.966,81.6223,0.112061
150.998,81.6160,0.112061
151.029,81.6098,0.126315
151.060,81.6033,0.126315
151.091,81.5974,0.126315
151.122,81.5912,0.126315
151.154,81.5847,0.126315
151.185,81.5785,0.126315
151.215,81.5723,0.126315
151.247,81.5660,0.126315
151.278,81.5598,0.142266
151.309,81.5537,0.142266
151.340,81.5475,0.142266
151.371,81.5412,0.142266
151.402,81.5350,0.142266
151.433,81.5288,0.142266
151.465,81.5223,0.142266
151.496,81.5161,0.142266
151.528,81.5098,0.159885
151.558,81.5037,0.159885
151.590,81.4975,0.159885
151.621,81.4913,0.159885
151.651,81.4854,0.159885
151.682,81.4791,0.159885
151.712,81.4730,0.159885
151.743,81.4669,0.159885
151.775,81.4605,0.179293
151.805,81.4545,0.179293
151.836,81.4484,0.179293
151.867,81.4422,0.179293
151.897,81.4361,0.179293
151.929,81.4296,0.179293
151.962,81.4231,0.179293
151.991,81.4172,0.179293
152.021,81.4111,0.200821
152.052,81.4051,0.200821
152.083,81.3988,0.200821
152.115,81.3926,0.200821
152.146,81.3862,0.200821
152.177,81.3801,0.200821
152.208,81.3740,0.200821
152.238,81.3677,0.200821
152.269,81.3616,0.200821
152.301,81.3553,0.224093
152.331,81.3495,0.224093
152.361,81.3434,0.224093
152.392,81.3372,0.224093
152.423,81.3310,0.224093
152.454,81.3246,0.224093
152.486,81.3184,0.224093
152.518,81.3119,0.249201
152.548,81.3058,0.249201
152.580,81.2995,0.249201
152.610,81.2934,0.249201
152.642,81.2872,0.249201
152.672,81.2811,0.249201
152.703,81.2750,0.249201
152.733,81.2688,0.249201
152.764,81.2628,0.275968
152.795,81.2564,0.275968
152.827,81.2502,0.275968
152.857,81.2440,0.275968
152.888,81.2381,0.275968
152.919,81.2315,0.275968
152.950,81.2254,0.275968
152.982,81.2191,0.275968
153.013,81.2130,0.303988
153.044,81.2067,0.303988
153.075,81.2006,0.303988
153.107,81.1942,0.303988
153.138,81.1877,0.303988
153.169,81.1816,0.303988
153.200,81.1756,0.303988
153.231,81.1692,0.303988
153.262,81.1632,0.332931
153.293,81.1568,0.332931
153.324,81.1506,0.332931
153.355,81.1444,0.332931
153.386,81.1382,0.332931
153.417,81.1320,0.332931
153.447,81.1261,0.332931
153.478,81.1198,0.332931
153.510,81.1136,0.332931
153.542,81.1070,0.332931
153.573,81.1009,0.361884
153.605,81.0943,0.361884
153.635,81.0885,0.361884
153.666,81.0823,0.361884
153.697,81.0761,0.361884
153.727,81.0700,0.361884
153.759,81.0636,0.361884
153.789,81.0577,0.389621
153.821,81.0513,0.389621
153.851,81.0452,0.389621
153.881,81.0391,0.389621
153.912,81.0332,0.389621
153.944,81.0267,0.389621
153.975,81.0205,0.389621
154.006,81.0145,0.389621
154.036,81.0084,0.413929
154.068,81.0021,0.413929
154.100,80.9955,0.413929
154.131,80.9894,0.413929
154.161,80.9833,0.413929
154.192,80.9771,0.413929
154.224,80.9708,0.413929
154.257,80.9642,0.413929
154.286,80.9584,0.429314
154.318,80.9518,0.429314
154.348,80.9460,0.429314
154.379,80.9397,0.429314
154.410,80.9335,0.429314
154.440,80.9275,0.429314
154.471,80.9213,0.429314
154.503,80.9150,0.429314
154.534,80.9088,0.307464
154.565,80.9025,0.307464
154.596,80.8963,0.307464
154.628,80.8899,0.307464
154.659,80.8837,0.307464
154.689,80.8778,0.307464
154.720,80.8715,0.307464
154.751,80.8653,0.307464
154.782,80.8591,0.101951
154.813,80.8527,0.101951
154.844,80.8467,0.101951
154.875,80.8403,0.101951
154.906,80.8345,0.101951
154.937,80.8281,0.101951
154.968,80.8220,0.101951
154.999,80.8157,0.101951
155.030,80.8096,0.022621
155.061,80.8031,0.022621
155.093,80.7971,0.022621
155.124,80.7906,0.022621
155.155,80.7845,0.022621
155.188,80.7780,0.022621
155.218,80.7720,0.022621
155.249,80.7656,0.022621
155.280,80.7595,0.022640
155.311,80.7533,0.022640
155.342,80.7472,0.022640
155.373,80.7410,0.022640
155.404,80.7347,0.022640
155.436,80.7283,0.022640
155.466,80.7224,0.022640
155.497,80.7162,0.022885
155.528,80.7100,0.022885
155.559,80.7038,0.022885
155.590,80.6976,0.022885
155.621,80.6913,0.022885
155.653,80.6849,0.022885
155.684,80.6787,0.022885
155.715,80.6725,0.022885
155.746,80.6663,0.022885
155.778,80.6599,0.023017
155.808,80.6539,0.023017
155.839,80.6476,0.023017
155.870,80.6414,0.023017
155.901,80.6355,0.023017
155.932,80.6291,0.023017
155.964,80.6227,0.023017
155.994,80.6167,0.023017
156.026,80.6103,0.023045
156.056,80.6043,0.023045
156.088,80.5980,0.023045
156.118,80.5920,0.023045
156.150,80.5856,0.023045
156.180,80.5796,0.023045
156.210,80.5734,0.023045
156.241,80.5674,0.023045
156.272,80.5609,0.023083
156.303,80.5551,0.023083
156.335,80.5486,0.023083
156.366,80.5424,0.023083
156.397,80.5362,0.023083
156.430,80.5295,0.023083
156.459,80.5238,0.023083
156.490,80.5176,0.023083
156.521,80.5113,0.023158
156.553,80.5050,0.023158
156.584,80.4987,0.023158
156.615,80.4926,0.023158
156.645,80.4864,0.023158
156.677,80.4800,0.023158
156.708,80.4740,0.023158
156.738,80.4680,0.023158
156.769,80.4617,0.023205
156.799,80.4557,0.023205
156.830,80.4494,0.023205
156.861,80.4433,0.023205
156.892,80.4371,0.023205
156.924,80.4308,0.023205
156.955,80.4247,0.023205
156.986,80.4183,0.023205
157.017,80.4121,0.023271
157.048,80.4059,0.023271
157.079,80.3998,0.023271
157.110,80.3935,0.023271
157.141,80.3874,0.023271
157.171,80.3813,0.023271
157.203,80.3751,0.023271
157.234,80.3687,0.023271
157.265,80.3627,0.023337
157.297,80.3561,0.023337
157.326,80.3503,0.023337
157.358,80.3440,0.023337
157.389,80.3378,0.023337
157.420,80.3316,0.023337
157.451,80.3251,0.023337
157.483,80.3191,0.023337
157.514,80.3129,0.023384
157.546,80.3063,0.023384
157.576,80.3003,0.023384
157.607,80.2940,0.023384
157.638,80.2881,0.023384
157.669,80.2817,0.023384
157.700,80.2757,0.023384
157.730,80.2695,0.023384
157.761,80.2635,0.023384
157.792,80.2572,0.023384
157.823,80.2511,0.023441
157.855,80.2447,0.023441
157.885,80.2386,0.023441
157.917,80.2321,0.023441
157.948,80.2260,0.023441
157.979,80.2198,0.023441
158.010,80.2135,0.023441
158.040,80.2074,0.023516
158.072,80.2012,0.023516
158.102,80.1949,0.023516
158.133,80.1890,0.023516
158.165,80.1825,0.023516
158.196,80.1763,0.023516
158.226,80.1702,0.023516
158.257,80.1642,0.023516
158.288,80.1580,0.023526
158.319,80.1518,0.023526
158.350,80.1456,0.023526
158.381,80.1394,0.023526
158.412,80.1330,0.023526
158.444,80.1267,0.023526
158.475,80.1205,0.023526
158.507,80.1141,0.023526
158.538,80.1079,0.023554
158.568,80.1018,0.023554
158.600,80.0957,0.023554
158.630,80.0895,0.023554
158.661,80.0834,0.023554
158.691,80.0773,0.023554
158.723,80.0709,0.023554
158.754,80.0648,0.023554
158.784,80.0587,0.023639
158.816,80.0524,0.023639
158.847,80.0462,0.023639
158.877,80.0401,0.023639
158.908,80.0339,0.023639
158.939,80.0277,0.023639
158.971,80.0213,0.023639
159.002,80.0152,0.023639
159.033,80.0090,0.023705
159.065,80.0026,0.023705
159.096,79.9964,0.023705
159.127,79.9902,0.023705
159.158,79.9841,0.023705
159.188,79.9779,0.023705
159.218,79.9719,0.023705
159.250,79.9656,0.023705
159.280,79.9595,0.023780
159.311,79.9532,0.023780
159.343,79.9470,0.023780
159.374,79.9409,0.023780
159.405,79.9347,0.023780
159.436,79.9283,0.023780
159.466,79.9224,0.023780
159.497,79.9161,0.023780
159.528,79.9099,0.023808
159.560,79.9037,0.023808
159.592,79.8973,0.023808
159.622,79.8911,0.023808
159.654,79.8849,0.023808
159.684,79.8787,0.023808
159.716,79.8725,0.023808
159.747,79.8661,0.023808
159.777,79.8602,0.023837
159.808,79.8540,0.023837
159.839,79.8478,0.023837
159.870,79.8416,0.023837
159.900,79.8354,0.023837
159.932,79.8292,0.023837
159.963,79.8228,0.023837
159.995,79.8165,0.023837
160.025,79.8104,0.023921
160.057,79.8041,0.023921
160.087,79.7979,0.023921
160.119,79.7918,0.023921
160.150,79.7855,0.023921
160.180,79.7794,0.023921
160.211,79.7734,0.023921
160.242,79.7672,0.023921
160.272,79.7612,0.023959
160.303,79.7548,0.023959
160.334,79.7489,0.023959
160.364,79.7427,0.023959
160.395,79.7365,0.023959
160.426,79.7303,0.023959
160.457,79.7241,0.023959
160.489,79.7178,0.023959
160.519,79.7118,0.023950
160.550,79.7055,0.023950
160.581,79.6994,0.023950
160.612,79.6932,0.023950
160.643,79.6869,0.023950
160.675,79.6805,0.023950
160.706,79.6741,0.023950
160.738,79.6681,0.023950
160.769,79.6617,0.024072
160.801,79.6555,0.024072
160.831,79.6495,0.024072
160.863,79.6429,0.024072
160.894,79.6369,0.024072
160.925,79.6306,0.024072
160.956,79.6245,0.024072
160.986,79.6183,0.024072
161.017,79.6123,0.024129
161.048,79.6059,0.024129
161.080,79.5996,0.024129
161.110,79.5935,0.024129
161.141,79.5873,0.024129
161.173,79.5810,0.024129
161.204,79.5749,0.024129
161.235,79.5685,0.024129
161.267,79.5622,0.024119
161.297,79.5562,0.024119
161.328,79.5499,0.024119
161.359,79.5439,0.024119
161.390,79.5376,0.024119
161.421,79.5315,0.024119
161.452,79.5251,0.024119
161.483,79.5189,0.024119
161.514,79.5128,0.024195
161.546,79.5065,0.024195
161.576,79.5004,0.024195
161.608,79.4938,0.024195
161.640,79.4877,0.024195
161.672,79.4812,0.024195
161.702,79.4751,0.024195
161.734,79.4688,0.024195
161.765,79.4626,0.024185
161.796,79.4564,0.024185
161.827,79.4503,0.024185
161.858,79.4438,0.024185
161.888,79.4380,0.024185
161.919,79.4318,0.024185
161.949,79.4257,0.024185
161.981,79.4194,0.024185
162.013,79.4130,0.024185
162.043,79.4069,0.024214
162.074,79.4008,0.024214
162.105,79.3946,0.024214
162.136,79.3881,0.024214
162.167,79.3822,0.024214
162.198,79.3761,0.024214
162.229,79.3699,0.024214
162.260,79.3636,0.024214
162.291,79.3574,0.024214
162.324,79.3507,0.024261
162.354,79.3447,0.024261
162.385,79.3385,0.024261
162.416,79.3323,0.024261
162.447,79.3261,0.024261
162.479,79.3197,0.024261
162.509,79.3137,0.024261
162.540,79.3074,0.024279
162.572,79.3012,0.024279
162.602,79.2953,0.024279
162.633,79.2891,0.024279
162.664,79.2829,0.024279
162.695,79.2765,0.024279
162.726,79.2704,0.024279
162.757,79.2641,0.024279
162.789,79.2585,0.024279
162.821,79.2536,0.024279
162.851,79.2496,0.024279
162.882,79.2463,0.024279
162.914,79.2437,0.024279
162.945,79.2418,0.024279
162.976,79.2407,0.024279
163.008,79.2403,0.024279
163.040,79.2403,0.024157
163.070,79.2403,0.024157
163.102,79.2403,0.024157
163.133,79.2403,0.024157
163.165,79.2403,0.024157
163.196,79.2403,0.024157
163.227,79.2403,0.024157
163.258,79.2403,0.024157
163.289,79.2403,0.023997
163.320,79.2403,0.023997
163.351,79.2403,0.023997
163.382,79.2404,0.023997
163.413,79.2412,0.023997
163.444,79.2427,0.023997
163.475,79.2448,0.023997
163.507,79.2478,0.023997
163.538,79.2515,0.023874
163.568,79.2559,0.023874
163.600,79.2611,0.023874
163.631,79.2669,0.023874
163.662,79.2733,0.023874
163.694,79.2795,0.023874
163.725,79.2858,0.023874
163.756,79.2919,0.023874
163.787,79.2982,0.023676
163.819,79.3046,0.023676
163.850,79.3109,0.023676
163.881,79.3171,0.023676
163.912,79.3232,0.023676
163.942,79.3292,0.023676
163.974,79.3354,0.023676
164.005,79.3416,0.023676
164.036,79.3480,0.023582
164.067,79.3543,0.023582
164.099,79.3605,0.023582
164.129,79.3667,0.023582
164.160,79.3728,0.023582
164.191,79.3790,0.023582
164.222,79.3853,0.023582
164.254,79.3915,0.023582
164.285,79.3978,0.023592
164.317,79.4041,0.023592
164.348,79.4103,0.023592
164.378,79.4163,0.023592
164.409,79.4226,0.023592
164.440,79.4288,0.023592
164.472,79.4352,0.023592
164.503,79.4414,0.023592
164.535,79.4478,0.023497
164.565,79.4536,0.023497
164.595,79.4598,0.023497
164.627,79.4662,0.023497
164.658,79.4722,0.023497
164.688,79.4784,0.023497
164.720,79.4848,0.023497
164.751,79.4908,0.023497
164.781,79.4970,0.023497
164.811,79.5030,0.023394
164.842,79.5092,0.023394
164.874,79.5155,0.023394
164.905,79.5217,0.023394
164.936,79.5279,0.023394
164.966,79.5340,0.023394
164.999,79.5406,0.023394
165.028,79.5465,0.023366
165.058,79.5522,0.023366
165.090,79.5586,0.023366
165.120,79.5648,0.023366
165.152,79.5711,0.023366
165.184,79.5775,0.023366
165.214,79.5835,0.023366
165.245,79.5898,0.023366
165.275,79.5958,0.023328
165.306,79.6021,0.023328
165.337,79.6082,0.023328
165.369,79.6146,0.023328
165.400,79.6207,0.023328
165.431,79.6270,0.023328
165.463,79.6332,0.023328
165.494,79.6397,0.023328
165.524,79.6456,0.023234
165.557,79.6523,0.023234
165.587,79.6580,0.023234
165.619,79.6643,0.023234
165.650,79.6707,0.023234
165.680,79.6769,0.023234
165.711,79.6830,0.023234
165.741,79.6890,0.023234
165.772,79.6952,0.023102
165.804,79.7014,0.023102
165.835,79.7078,0.023102
165.867,79.7141,0.023102
165.897,79.7202,0.023102
165.928,79.7264,0.023102
165.959,79.7326,0.023102
165.991,79.7389,0.023102
166.022,79.7451,0.023064
166.053,79.7514,0.023064
166.084,79.7575,0.023064
166.116,79.7639,0.023064
166.147,79.7701,0.023064
166.179,79.7765,0.023064
166.211,79.7828,0.023064
166.241,79.7891,0.023064
166.271,79.7951,0.023017
166.303,79.8013,0.023017
166.334,79.8075,0.023017
166.365,79.8138,0.023017
166.397,79.8201,0.023017
166.428,79.8263,0.023017
166.459,79.8328,0.023017
166.490,79.8387,0.023017
166.521,79.8450,0.022932
166.552,79.8512,0.022932
166.583,79.8575,0.022932
166.614,79.8635,0.022932
166.644,79.8697,0.022932
166.676,79.8759,0.022932
166.707,79.8823,0.022932
166.739,79.8886,0.022932
166.770,79.8945,0.022819
166.800,79.9007,0.022819
166.831,79.9069,0.022819
166.862,79.9133,0.022819
166.893,79.9193,0.022819
166.924,79.9255,0.022819
166.955,79.9316,0.022819
166.985,79.9377,0.022819
167.016,79.9440,0.022734
167.048,79.9502,0.022734
167.078,79.9563,0.022734
167.109,79.9625,0.022734
167.139,79.9686,0.022734
167.170,79.9747,0.022734
167.202,79.9811,0.022734
167.233,79.9873,0.022734
167.264,79.9936,0.022678
167.295,79.9997,0.022678
167.326,80.0059,0.022678
167.358,80.0124,0.022678
167.388,80.0183,0.022678
167.420,80.0248,0.022678
167.451,80.0308,0.022678
167.481,80.0370,0.022678
167.512,80.0431,0.022593
167.543,80.0494,0.022593
167.573,80.0554,0.022593
167.604,80.0616,0.022593
167.635,80.0678,0.022593
167.667,80.0740,0.022593
167.698,80.0803,0.022593
167.730,80.0868,0.022593
167.761,80.0928,0.022593
167.792,80.0992,0.022442
167.822,80.1054,0.022442
167.854,80.1116,0.022442
167.885,80.1175,0.022442
167.916,80.1239,0.022442
167.945,80.1298,0.022442
167.976,80.1361,0.022442
168.008,80.1423,0.022442
168.039,80.1487,0.022320
168.070,80.1546,0.022320
168.100,80.1609,0.022320
168.132,80.1673,0.022320
168.163,80.1736,0.022320
168.195,80.1797,0.022320
168.226,80.1860,0.022320
168.257,80.1921,0.022320
168.288,80.1985,0.022273
168.318,80.2045,0.022273
168.349,80.2104,0.022273
168.380,80.2167,0.022273
168.411,80.2229,0.022273
168.443,80.2293,0.022273
168.473,80.2352,0.022273
168.505,80.2417,0.022226
168.535,80.2479,0.022226
168.567,80.2540,0.022226
168.598,80.2604,0.022226
168.629,80.2665,0.022226
168.660,80.2728,0.022226
168.691,80.2790,0.022226
168.723,80.2853,0.022226
168.753,80.2913,0.022226
168.784,80.2975,0.022075
168.815,80.3037,0.022075
168.845,80.3099,0.022075
168.877,80.3161,0.022075
168.907,80.3222,0.022075
168.938,80.3284,0.022075
168.968,80.3343,0.022075
169.000,80.3408,0.022075
169.032,80.3470,0.021896
169.062,80.3532,0.021896
169.093,80.3592,0.021896
169.123,80.3655,0.021896
169.155,80.3717,0.021896
169.186,80.3780,0.021896
169.217,80.3842,0.021896
169.247,80.3900,0.021896
169.278,80.3962,0.021896
169.309,80.4025,0.021820
169.340,80.4087,0.021820
169.372,80.4151,0.021820
169.402,80.4213,0.021820
169.433,80.4273,0.021820
169.465,80.4337,0.021820
169.495,80.4397,0.021820
169.527,80.4462,0.021820
169.557,80.4520,0.021820
169.588,80.4583,0.021736
169.620,80.4648,0.021736
169.651,80.4711,0.021736
169.683,80.4772,0.021736
169.714,80.4835,0.021736
169.744,80.4895,0.021736
169.775,80.4957,0.021736
169.806,80.5018,0.021651
169.836,80.5080,0.021651
169.867,80.5140,0.021651
169.899,80.5204,0.021651
169.929,80.5267,0.021651
169.960,80.5328,0.021651
169.992,80.5390,0.021651
170.023,80.5453,0.021651
170.054,80.5516,0.021547
170.085,80.5579,0.021547
170.116,80.5639,0.021547
170.146,80.5700,0.021547
170.177,80.5760,0.021547
170.208,80.5822,0.021547
170.239,80.5884,0.021547
170.270,80.5946,0.021547
170.301,80.6008,0.021425
170.332,80.6073,0.021425
170.363,80.6134,0.021425
170.395,80.6196,0.021425
170.427,80.6261,0.021425
170.457,80.6321,0.021425
170.489,80.6386,0.021425
170.520,80.6446,0.021293
170.551,80.6508,0.021293
170.582,80.6572,0.021293
170.614,80.6635,0.021293
170.645,80.6698,0.021293
170.678,80.6763,0.021293
170.707,80.6822,0.021293
170.740,80.6888,0.021293
170.770,80.6946,0.021180
170.801,80.7008,0.021180
170.832,80.7070,0.021180
170.863,80.7132,0.021180
170.894,80.7195,0.021180
170.926,80.7259,0.021180
170.958,80.7322,0.021180
170.988,80.7383,0.021180
171.019,80.7446,0.021180
171.050,80.7507,0.021095
171.081,80.7567,0.021095
171.112,80.7631,0.021095
171.143,80.7693,0.021095
171.174,80.7755,0.021095
171.205,80.7818,0.021095
171.235,80.7878,0.021095
171.268,80.7944,0.020897
171.300,80.8008,0.020897
171.331,80.8069,0.020897
171.363,80.8134,0.020897
171.393,80.8193,0.020897
171.424,80.8255,0.020897
171.455,80.8319,0.020897
171.487,80.8380,0.020897
171.518,80.8443,0.020746
171.549,80.8504,0.020746
171.580,80.8566,0.020746
171.612,80.8630,0.020746
171.642,80.8691,0.020746
171.673,80.8753,0.020746
171.704,80.8815,0.020746
171.736,80.8878,0.020746
171.766,80.8939,0.020746
171.797,80.9001,0.020652
171.828,80.9064,0.020652
171.860,80.9125,0.020652
171.891,80.9188,0.020652
171.923,80.9253,0.020652
171.955,80.9316,0.020652
171.986,80.9379,0.020652
172.018,80.9443,0.020520
172.050,80.9506,0.020520
172.079,80.9565,0.020520
172.110,80.9627,0.020520
172.141,80.9689,0.020520
172.173,80.9752,0.020520
172.204,80.9815,0.020520
172.235,80.9877,0.020520
172.266,80.9939,0.020369
172.297,81.0002,0.020369
172.328,81.0063,0.020369
172.359,81.0125,0.020369
172.390,81.0187,0.020369
172.421,81.0249,0.020369
172.452,81.0311,0.020369
172.483,81.0373,0.020369
172.515,81.0437,0.020228
172.546,81.0501,0.020228
172.578,81.0563,0.020228
172.608,81.0623,0.020228
172.639,81.0685,0.020228
172.670,81.0749,0.020228
172.702,81.0809,0.020228
172.732,81.0871,0.020228
172.763,81.0933,0.020096
172.794,81.0994,0.020096
172.825,81.1056,0.020096
172.856,81.1119,0.020096
172.887,81.1180,0.020096
172.918,81.1242,0.020096
172.949,81.1304,0.020096
172.980,81.1366,0.020096
173.011,81.1430,0.019908
173.042,81.1493,0.019908
173.073,81.1552,0.019908
173.104,81.1616,0.019908
173.136,81.1678,0.019908
173.167,81.1741,0.019908
173.198,81.1802,0.019908
173.229,81.1866,0.019908
173.260,81.1926,0.019908
173.291,81.1990,0.019757
173.323,81.2053,0.019757
173.354,81.2115,0.019757
173.385,81.2176,0.019757
173.415,81.2237,0.019757
173.446,81.2300,0.019757
173.478,81.2362,0.019757
173.508,81.2423,0.019757
173.539,81.2485,0.019757
173.571,81.2549,0.019606
173.601,81.2609,0.019606
173.633,81.2671,0.019606
173.664,81.2734,0.019606
173.695,81.2796,0.019606
173.725,81.2857,0.019606
173.757,81.2919,0.019606
173.788,81.2982,0.019408
173.820,81.3046,0.019408
173.851,81.3108,0.019408
173.882,81.3171,0.019408
173.913,81.3234,0.019408
173.944,81.3295,0.019408
173.975,81.3358,0.019408
174.006,81.3419,0.019408
174.037,81.3480,0.019267
174.068,81.3543,0.019267
174.098,81.3604,0.019267
174.130,81.3668,0.019267
174.161,81.3728,0.019267
174.192,81.3792,0.019267
174.223,81.3852,0.019267
174.254,81.3916,0.019267
174.285,81.3976,0.019267
174.316,81.4039,0.019154
174.347,81.4102,0.019154
174.378,81.4164,0.019154
174.410,81.4228,0.019154
174.441,81.4288,0.019154
174.471,81.4349,0.019154
174.502,81.4411,0.019154
174.533,81.4474,0.018919
174.564,81.4535,0.018919
174.596,81.4598,0.018919
174.627,81.4660,0.018919
174.659,81.4724,0.018919
174.690,81.4788,0.018919
174.721,81.4848,0.018919
174.752,81.4912,0.018919
174.783,81.4973,0.018919
174.814,81.5035,0.018683
174.844,81.5094,0.018683
174.875,81.5158,0.018683
174.907,81.5221,0.018683
174.938,81.5283,0.018683
174.970,81.5345,0.018683
175.002,81.5411,0.018683
175.032,81.5470,0.018683
175.062,81.5531,0.018561
175.094,81.5595,0.018561
175.125,81.5657,0.018561
175.156,81.5721,0.018561
175.188,81.5782,0.018561
175.219,81.5845,0.018561
175.250,81.5907,0.018561
175.281,81.5969,0.018561
175.312,81.6030,0.018391
175.343,81.6092,0.018391
175.373,81.6154,0.018391
175.404,81.6216,0.018391
175.435,81.6278,0.018391
175.466,81.6340,0.018391
175.498,81.6403,0.018391
175.528,81.6462,0.018118
175.559,81.6524,0.018118
175.590,81.6586,0.018118
175.621,81.6650,0.018118
175.652,81.6710,0.018118
175.683,81.6774,0.018118
175.715,81.6836,0.018118
175.747,81.6901,0.018118
175.777,81.6962,0.017788
175.808,81.7023,0.017788
175.839,81.7086,0.017788
175.870,81.7146,0.017788
175.901,81.7209,0.017788
175.932,81.7271,0.017788
175.964,81.7334,0.017788
175.995,81.7396,0.017788
176.026,81.7458,0.017788
176.057,81.7522,0.017439
176.088,81.7584,0.017439
176.120,81.7647,0.017439
176.150,81.7706,0.017439
176.181,81.7768,0.017439
176.211,81.7830,0.017439
176.242,81.7890,0.017439
176.273,81.7953,0.017053
176.304,81.8016,0.017053
176.335,81.8077,0.017053
176.367,81.8142,0.017053
176.398,81.8202,0.017053
176.428,81.8263,0.017053
176.460,81.8325,0.017053
176.492,81.8390,0.017053
176.521,81.8449,0.017053
176.552,81.8511,0.016591
176.583,81.8573,0.016591
176.614,81.8637,0.016591
176.646,81.8700,0.016591
176.677,81.8761,0.016591
176.708,81.8823,0.016591
176.739,81.8885,0.016591
176.770,81.8947,0.015941
176.801,81.9007,0.015941
176.831,81.9069,0.015941
176.863,81.9131,0.015941
176.894,81.9195,0.015941
176.925,81.9257,0.015941
176.956,81.9319,0.015941
176.987,81.9381,0.015941
177.018,81.9441,0.015941
177.050,81.9507,0.015112
177.080,81.9567,0.015112
177.112,81.9630,0.015112
177.143,81.9693,0.015112
177.174,81.9754,0.015112
177.206,81.9817,0.015112
177.236,81.9879,0.015112
177.268,81.9941,0.013925
177.298,82.0003,0.013925
177.328,82.0064,0.013925
177.360,82.0126,0.013925
177.391,82.0189,0.013925
177.422,82.0250,0.013925
177.453,82.0313,0.013925
177.484,82.0374,0.013925
177.515,82.0439,0.013925
177.547,82.0499,0.012229
177.578,82.0564,0.012229
177.609,82.0625,0.012229
177.640,82.0687,0.012229
177.673,82.0752,0.012229
177.703,82.0813,0.012229
177.735,82.0876,0.012229
177.764,82.0933,0.010034
177.795,82.0997,0.010034
177.827,82.1060,0.010034
177.857,82.1121,0.010034
177.889,82.1185,0.010034
177.921,82.1248,0.010034
177.951,82.1308,0.010034
177.982,82.1369,0.010034
178.013,82.1433,0.007057
178.044,82.1495,0.007057
178.075,82.1556,0.007057
178.106,82.1619,0.007057
178.137,82.1681,0.007057
178.168,82.1742,0.007057
178.199,82.1804,0.007057
178.229,82.1865,0.007057
178.260,82.1927,0.003147
178.292,82.1990,0.003147
178.324,82.2053,0.003147
178.355,82.2115,0.003147
178.386,82.2177,0.003147
178.414,82.2226,0.003147
178.447,82.2275,0.003147
178.478,82.2315,0.003147
178.508,82.2346,-0.001677
178.540,82.2372,-0.001677
178.571,82.2389,-0.001677
178.601,82.2399,-0.001677
178.632,82.2403,-0.001677
178.663,82.2403,-0.001677
178.694,82.2403,-0.001677
178.726,82.2403,-0.001677
178.757,82.2403,-0.001677
178.789,82.2403,-0.004692
178.820,82.2403,-0.004692
178.851,82.2403,-0.004692
178.883,82.2403,-0.004692
178.912,82.2403,-0.004692
178.943,82.2403,-0.004692
178.974,82.2403,-0.004692
179.004,82.2403,-0.004692
179.036,82.2403,-0.004051
179.067,82.2403,-0.004051
179.099,82.2403,-0.004051
179.129,82.2403,-0.004051
179.161,82.2403,-0.004051
179.191,82.2403,-0.004051
179.223,82.2403,-0.004051
179.253,82.2403,-0.004051
179.284,82.2403,-0.002167
179.316,82.2403,-0.002167
179.346,82.2403,-0.002167
179.377,82.2403,-0.002167
179.408,82.2403,-0.002167
179.439,82.2403,-0.002167
179.470,82.2403,-0.002167
179.502,82.2403,-0.002167
179.533,82.2403,-0.000773
179.563,82.2403,-0.000773
179.595,82.2403,-0.000773
179.626,82.2403,-0.000773
179.657,82.2403,-0.000773
179.687,82.2403,-0.000773
179.718,82.2403,-0.000773
179.749,82.2403,-0.000773
179.780,82.2403,0.000217
179.812,82.2403,0.000217
179.843,82.2403,0.000217
179.873,82.2403,0.000217
179.904,82.2403,0.000217
179.936,82.2403,0.000217
179.967,82.2403,0.000217
179.998,82.2403,0.000217
180.028,82.2403,0.000999
180.059,82.2403,0.000999
180.090,82.2403,0.000999
180.121,82.2403,0.000999
180.152,82.2403,0.000999
180.183,82.2403,0.000999
180.214,82.2403,0.000999
180.244,82.2403,0.000999
180.275,82.2403,0.001668
180.306,82.2403,0.001668
180.337,82.2403,0.001668
180.369,82.2403,0.001668
180.400,82.2403,0.001668
180.430,82.2403,0.001668
180.461,82.2403,0.001668
180.493,82.2403,0.001668
180.525,82.2403,0.002261
180.557,82.2403,0.002261
180.588,82.2403,0.002261
180.619,82.2403,0.002261
180.650,82.2403,0.002261
180.681,82.2403,0.002261
180.712,82.2403,0.002261
180.743,82.2403,0.002261
180.773,82.2403,0.002685
180.805,82.2403,0.002685
180.836,82.2403,0.002685
180.866,82.2403,0.002685
180.897,82.2403,0.002685
180.928,82.2403,0.002685
180.959,82.2403,0.002685
180.990,82.2403,0.002685
181.021,82.2403,0.003024
181.052,82.2403,0.003024
181.084,82.2403,0.003024
181.115,82.2403,0.003024
181.145,82.2403,0.003024
181.177,82.2403,0.003024
181.207,82.2403,0.003024
181.238,82.2403,0.003024
181.269,82.2403,0.003024
181.301,82.2403,0.003429
181.332,82.2403,0.003429
181.363,82.2403,0.003429
181.395,82.2403,0.003429
181.426,82.2403,0.003429
181.457,82.2403,0.003429
181.488,82.2403,0.003429
181.519,82.2403,0.003429
181.550,82.2403,0.003835
181.582,82.2403,0.003835
181.611,82.2403,0.003835
181.642,82.2403,0.003835
181.672,82.2403,0.003835
181.703,82.2403,0.003835
181.734,82.2403,0.003835
181.764,82.2403,0.003835
181.795,82.2403,0.004136
181.827,82.2403,0.004136
181.858,82.2403,0.004136
181.888,82.2403,0.004136
181.919,82.2403,0.004136
181.950,82.2403,0.004136
181.981,82.2403,0.004136
182.011,82.2403,0.004409
182.042,82.2403,0.004409
182.073,82.2403,0.004409
182.105,82.2403,0.004409
182.136,82.2403,0.004409
182.167,82.2403,0.004409
182.198,82.2403,0.004409
182.229,82.2403,0.004409
182.260,82.2403,0.004673
182.292,82.2403,0.004673
182.322,82.2403,0.004673
182.354,82.2403,0.004673
182.384,82.2403,0.004673
182.415,82.2403,0.004673
182.446,82.2403,0.004673
182.477,82.2403,0.004673
182.508,82.2403,0.004899
182.540,82.2403,0.004899
182.571,82.2403,0.004899
182.602,82.2403,0.004899
182.633,82.2403,0.004899
182.665,82.2403,0.004899
182.695,82.2403,0.004899
182.727,82.2403,0.004899
182.758,82.2403,0.004899
182.790,82.2403,0.005116
182.819,82.2403,0.005116
182.850,82.2403,0.005116
182.882,82.2403,0.005116
182.913,82.2403,0.005116
182.944,82.2403,0.005116
182.974,82.2403,0.005116
183.005,82.2403,0.005116
183.037,82.2403,0.005540
183.068,82.2403,0.005540
183.099,82.2403,0.005540
183.130,82.2403,0.005540
183.161,82.2403,0.005540
183.191,82.2403,0.005540
183.222,82.2403,0.005540
183.255,82.2397,0.006049
183.284,82.2385,0.006049
183.315,82.2365,0.006049
183.346,82.2337,0.006049
183.378,82.2301,0.006049
183.409,82.2259,0.006049
183.439,82.2211,0.006049
183.470,82.2155,0.006049
183.501,82.2094,0.006049
183.532,82.2031,0.006049
183.563,82.1970,0.007500
183.594,82.1906,0.007500
183.624,82.1848,0.007500
183.655,82.1785,0.007500
183.686,82.1723,0.007500
183.718,82.1659,0.007500
183.748,82.1597,0.007500
183.779,82.1537,0.013171
183.811,82.1470,0.013171
183.842,82.1411,0.013171
183.874,82.1346,0.013171
183.904,82.1287,0.013171
183.935,82.1225,0.013171
183.966,82.1164,0.013171
183.996,82.1102,0.013171
184.027,82.1041,0.013171
184.058,82.0979,0.021886
184.089,82.0916,0.021886
184.120,82.0854,0.021886
184.151,82.0792,0.021886
184.182,82.0731,0.021886
184.213,82.0669,0.021886
184.245,82.0605,0.021886
184.277,82.0543,0.030074
184.308,82.0480,0.030074
184.338,82.0418,0.030074
184.369,82.0356,0.030074
184.399,82.0296,0.030074
184.431,82.0234,0.030074
184.461,82.0173,0.030074
184.492,82.0109,0.030074
184.523,82.0048,0.030074
184.555,81.9985,0.037752
184.585,81.9924,0.037752
184.616,81.9862,0.037752
184.646,81.9802,0.037752
184.678,81.9738,0.037752
184.710,81.9676,0.037752
184.742,81.9610,0.037752
184.773,81.9551,0.045233
184.804,81.9486,0.045233
184.835,81.9424,0.045233
184.866,81.9363,0.045233
184.897,81.9301,0.045233
184.927,81.9241,0.045233
184.958,81.9177,0.045233
184.989,81.9118,0.045233
185.020,81.9056,0.052780
185.051,81.8991,0.052780
185.082,81.8929,0.052780
185.113,81.8868,0.052780
185.145,81.8805,0.052780
185.175,81.8744,0.052780
185.206,81.8682,0.052780
185.238,81.8619,0.052780
185.269,81.8557,0.052780
185.300,81.8496,0.060750
185.330,81.8434,0.060750
185.361,81.8374,0.060750
185.391,81.8313,0.060750
185.423,81.8250,0.060750
185.454,81.8188,0.060750
185.485,81.8126,0.060750
185.516,81.8062,0.060750
185.546,81.8003,0.069268
185.578,81.7940,0.069268
185.610,81.7875,0.069268
185.641,81.7813,0.069268
185.673,81.7749,0.069268
185.704,81.7688,0.069268
185.736,81.7622,0.069268
185.766,81.7562,0.078623
185.797,81.7502,0.078623
185.827,81.7440,0.078623
185.859,81.7378,0.078623
185.890,81.7316,0.078623
185.920,81.7255,0.078623
185.951,81.7192,0.078623
185.982,81.7132,0.078623
186.014,81.7066,0.078623
186.045,81.7004,0.089119
186.076,81.6942,0.089119
186.107,81.6880,0.089119
186.138,81.6818,0.089119
186.170,81.6754,0.089119
186.201,81.6692,0.089119
186.232,81.6631,0.089119
186.264,81.6567,0.100811
186.296,81.6502,0.100811
186.326,81.6444,0.100811
186.356,81.6383,0.100811
186.387,81.6321,0.100811
186.418,81.6258,0.100811
186.449,81.6198,0.100811
186.481,81.6135,0.100811
186.511,81.6073,0.113851
186.543,81.6008,0.113851
186.573,81.5949,0.113851
186.604,81.5886,0.113851
186.635,81.5825,0.113851
186.666,81.5763,0.113851
186.698,81.5700,0.113851
186.730,81.5635,0.113851
186.760,81.5576,0.128313
186.792,81.5510,0.128313
186.823,81.5449,0.128313
186.855,81.5385,0.128313
186.887,81.5321,0.128313
186.918,81.5261,0.128313
186.948,81.5197,0.128313
186.979,81.5138,0.128313
187.011,81.5075,0.128313
187.042,81.5010,0.144433
187.073,81.4949,0.144433
187.104,81.4886,0.144433
187.136,81.4823,0.144433
187.166,81.4763,0.144433
187.198,81.4699,0.144433
187.229,81.4637,0.144433
187.259,81.4577,0.144433
187.290,81.4515,0.144433
187.322,81.4452,0.162278
187.353,81.4389,0.162278
187.384,81.4327,0.162278
187.415,81.4263,0.162278
187.446,81.4204,0.162278
187.477,81.4142,0.162278
187.507,81.4081,0.162278
187.538,81.4020,0.181997
187.570,81.3956,0.181997
187.600,81.3893,0.181997
187.632,81.3832,0.181997
187.663,81.3769,0.181997
187.694,81.3707,0.181997
187.725,81.3646,0.181997
187.755,81.3584,0.181997
187.785,81.3524,0.203601
187.816,81.3464,0.203601
187.846,81.3403,0.203601
187.878,81.3341,0.203601
187.909,81.3279,0.203601
187.940,81.3217,0.203601
187.970,81.3155,0.203601
188.003,81.3089,0.203601
188.033,81.3029,0.227004
188.064,81.2967,0.227004
188.095,81.2904,0.227004
188.127,81.2841,0.227004
188.156,81.2784,0.227004
188.188,81.2719,0.227004
188.220,81.2655,0.227004
188.251,81.2594,0.227004
188.282,81.2530,0.252310
188.313,81.2470,0.252310
188.344,81.2408,0.252310
188.375,81.2346,0.252310
188.406,81.2284,0.252310
188.437,81.2222,0.252310
188.467,81.2161,0.252310
188.499,81.2098,0.252310
188.530,81.2036,0.252310
188.560,81.1975,0.279134
188.592,81.1912,0.279134
188.623,81.1849,0.279134
188.655,81.1785,0.279134
188.687,81.1722,0.279134
188.718,81.1660,0.279134
188.749,81.1598,0.279134
188.780,81.1535,0.279134
188.811,81.1474,0.307248
188.841,81.1412,0.307248
188.872,81.1353,0.307248
188.902,81.1291,0.307248
188.934,81.1229,0.307248
188.965,81.1167,0.307248
188.996,81.1105,0.307248
189.027,81.1041,0.307248
189.058,81.0981,0.336153
189.088,81.0919,0.336153
189.120,81.0857,0.336153
189.151,81.0793,0.336153
189.182,81.0731,0.336153
189.214,81.0667,0.336153
189.246,81.0604,0.336153
189.277,81.0540,0.336153
189.309,81.0477,0.364870
189.340,81.0416,0.364870
189.371,81.0354,0.364870
189.401,81.0293,0.364870
189.432,81.0231,0.364870
189.463,81.0168,0.364870
189.493,81.0109,0.364870
189.526,81.0044,0.392023
189.556,80.9983,0.392023
189.588,80.9920,0.392023
189.618,80.9859,0.392023
189.649,80.9797,0.392023
189.679,80.9737,0.392023
189.710,80.9675,0.392023
189.741,80.9614,0.392023
189.773,80.9551,0.392023
189.802,80.9491,0.414852
189.834,80.9428,0.414852
189.866,80.9365,0.414852
189.896,80.9303,0.414852
189.928,80.9239,0.414852
189.959,80.9177,0.414852
189.990,80.9117,0.414852
190.020,80.9054,0.414852
190.052,80.8991,0.426356
190.084,80.8929,0.426356
190.114,80.8868,0.426356
190.145,80.8804,0.426356
190.177,80.8742,0.426356
190.209,80.8677,0.426356
190.240,80.8615,0.426356
190.270,80.8555,0.426356
190.301,80.8494,0.244811
190.333,80.8429,0.244811
190.365,80.8366,0.244811
190.396,80.8303,0.244811
190.428,80.8240,0.244811
190.458,80.8179,0.244811
190.490,80.8116,0.244811
190.521,80.8054,0.045186
190.552,80.7990,0.045186
190.583,80.7931,0.045186
190.613,80.7869,0.045186
190.644,80.7808,0.045186
190.675,80.7745,0.045186
190.706,80.7683,0.045186
190.737,80.7621,0.045186
190.768,80.7560,0.026654
190.800,80.7497,0.026654
190.831,80.7435,0.026654
190.862,80.7371,0.026654
190.894,80.7307,0.026654
190.925,80.7246,0.026654
190.956,80.7182,0.026654
190.988,80.7118,0.026654
191.019,80.7058,0.024063
191.050,80.6996,0.024063
191.081,80.6934,0.024063
191.112,80.6872,0.024063
191.143,80.6808,0.024063
191.175,80.6746,0.024063
191.207,80.6682,0.024063
191.238,80.6620,0.024063
191.270,80.6557,0.023328
191.301,80.6495,0.023328
191.331,80.6434,0.023328
191.363,80.6369,0.023328
191.393,80.6310,0.023328
191.424,80.6247,0.023328
191.457,80.6182,0.023328
191.487,80.6121,0.023328
191.518,80.6058,0.023092
191.550,80.5995,0.023092
191.580,80.5935,0.023092
191.612,80.5872,0.023092
191.643,80.5809,0.023092
191.674,80.5749,0.023092
191.704,80.5688,0.023092
191.735,80.5626,0.023092
191.766,80.5564,0.023092
191.797,80.5501,0.023092
191.828,80.5439,0.023111
191.860,80.5375,0.023111
191.893,80.5308,0.023111
191.923,80.5248,0.023111
191.955,80.5187,0.023111
191.984,80.5125,0.023111
192.015,80.5066,0.023139
192.046,80.5003,0.023139
192.077,80.4941,0.023139
192.107,80.4881,0.023139
192.137,80.4822,0.023139
192.168,80.4760,0.023139
192.199,80.4699,0.023139
192.229,80.4638,0.023139
192.261,80.4575,0.023139
192.292,80.4513,0.023139
192.324,80.4447,0.023224
192.354,80.4387,0.023224
192.386,80.4324,0.023224
192.417,80.4262,0.023224
192.448,80.4199,0.023224
192.479,80.4136,0.023224
192.510,80.4076,0.023224
192.541,80.4013,0.023224
192.572,80.3952,0.023318
192.603,80.3888,0.023318
192.634,80.3826,0.023318
192.665,80.3766,0.023318
192.696,80.3703,0.023318
192.726,80.3643,0.023318
192.758,80.3580,0.023318
192.787,80.3521,0.023318
192.818,80.3460,0.023300
192.848,80.3399,0.023300
192.880,80.3336,0.023300
192.911,80.3273,0.023300
192.942,80.3212,0.023300
192.973,80.3150,0.023300
193.004,80.3089,0.023300
193.035,80.3024,0.023347
193.066,80.2962,0.023347
193.097,80.2902,0.023347
193.129,80.2838,0.023347
193.159,80.2779,0.023347
193.190,80.2714,0.023347
193.222,80.2652,0.023347
193.254,80.2588,0.023347
193.283,80.2530,0.023347
193.314,80.2468,0.023460
193.346,80.2404,0.023460
193.377,80.2342,0.023460
193.407,80.2282,0.023460
193.438,80.2220,0.023460
193.469,80.2158,0.023460
193.500,80.2096,0.023460
193.531,80.2034,0.023460
193.562,80.1973,0.023516
193.593,80.1908,0.023516
193.624,80.1847,0.023516
193.655,80.1785,0.023516
193.686,80.1723,0.023516
193.717,80.1660,0.023516
193.748,80.1598,0.023516
193.779,80.1537,0.023554
193.811,80.1473,0.023554
193.841,80.1415,0.023554
193.872,80.1353,0.023554
193.903,80.1289,0.023554
193.935,80.1225,0.023554
193.965,80.1165,0.023554
193.996,80.1105,0.023554
194.027,80.1041,0.023554
194.058,80.0981,0.023554
194.089,80.0917,0.023554
194.121,80.0854,0.023554
194.152,80.0791,0.023554
194.183,80.0730,0.023554
194.214,80.0667,0.023554
194.243,80.0610,0.023554
194.275,80.0546,0.023620
194.307,80.0481,0.023620
194.338,80.0419,0.023620
194.369,80.0357,0.023620
194.400,80.0296,0.023620
194.431,80.0234,0.023620
194.462,80.0172,0.023620
194.493,80.0111,0.023620
194.524,80.0047,0.023620
194.555,79.9987,0.023658
194.587,79.9921,0.023658
194.618,79.9861,0.023658
194.649,79.9797,0.023658
194.680,79.9737,0.023658
194.712,79.9671,0.023658
194.742,79.9613,0.023658
194.773,79.9548,0.023714
194.805,79.9487,0.023714
194.837,79.9422,0.023714
194.867,79.9361,0.023714
194.897,79.9301,0.023714
194.928,79.9239,0.023714
194.959,79.9177,0.023714
194.990,79.9115,0.023714
195.021,79.9054,0.023714
195.053,79.8989,0.023771
195.083,79.8929,0.023771
195.114,79.8866,0.023771
195.145,79.8805,0.023771
195.176,79.8743,0.023771
195.207,79.8682,0.023771
195.237,79.8620,0.023771
195.269,79.8558,0.023827
195.299,79.8499,0.023827
195.330,79.8437,0.023827
195.361,79.8374,0.023827
195.392,79.8310,0.023827
195.425,79.8246,0.023827
195.455,79.8185,0.023827
195.486,79.8124,0.023827
195.517,79.8064,0.023912
195.547,79.8000,0.023912
195.579,79.7940,0.023912
195.609,79.7876,0.023912
195.641,79.7813,0.023912
195.672,79.7750,0.023912
195.704,79.7689,0.023912
195.735,79.7626,0.023912
195.766,79.7565,0.023912
195.798,79.7500,0.023950
195.827,79.7441,0.023950
195.858,79.7381,0.023950
195.888,79.7319,0.023950
195.919,79.7257,0.023950
195.950,79.7195,0.023950
195.981,79.7133,0.023950
196.013,79.7069,0.023978
196.043,79.7011,0.023978
196.074,79.6949,0.023978
196.105,79.6885,0.023978
196.136,79.6823,0.023978
196.167,79.6763,0.023978
196.198,79.6701,0.023978
196.229,79.6639,0.023978
196.260,79.6574,0.023978
196.292,79.6513,0.024034
196.324,79.6449,0.024034
196.355,79.6387,0.024034
196.386,79.6325,0.024034
196.417,79.6261,0.024034
196.449,79.6197,0.024034
196.480,79.6135,0.024034
196.513,79.6069,0.024082
196.543,79.6008,0.024082
196.574,79.5948,0.024082
196.605,79.5886,0.024082
196.637,79.5822,0.024082
196.668,79.5760,0.024082
196.698,79.5698,0.024082
196.730,79.5638,0.024082
196.761,79.5573,0.024129
196.791,79.5515,0.024129
196.822,79.5452,0.024129
196.853,79.5391,0.024129
196.884,79.5328,0.024129
196.914,79.5268,0.024129
196.945,79.5204,0.024129
196.978,79.5142,0.024129
197.009,79.5077,0.024129
197.040,79.5016,0.024148
197.071,79.4953,0.024148
197.103,79.4891,0.024148
197.134,79.4828,0.024148
197.166,79.4763,0.024148
197.197,79.4701,0.024148
197.227,79.4643,0.024148
197.259,79.4577,0.024157
197.289,79.4518,0.024157
197.320,79.4456,0.024157
197.351,79.4394,0.024157
197.382,79.4333,0.024157
197.413,79.4270,0.024157
197.444,79.4209,0.024157
197.474,79.4148,0.024157
197.505,79.4086,0.024157
197.538,79.4020,0.024204
197.567,79.3961,0.024204
197.598,79.3899,0.024204
197.629,79.3838,0.024204
197.661,79.3774,0.024204
197.693,79.3712,0.024204
197.724,79.3647,0.024204
197.754,79.3588,0.024204
197.786,79.3522,0.024242
197.818,79.3461,0.024242
197.848,79.3399,0.024242
197.879,79.3336,0.024242
197.910,79.3276,0.024242
197.941,79.3214,0.024242
197.973,79.3150,0.024242
198.004,79.3089,0.024270
198.036,79.3023,0.024270
198.066,79.2964,0.024270
198.098,79.2900,0.024270
198.128,79.2840,0.024270
198.159,79.2778,0.024270
198.190,79.2717,0.024270
198.220,79.2654,0.024270
198.252,79.2593,0.024270
198.283,79.2530,0.024279
198.313,79.2470,0.024279
198.345,79.2406,0.024279
198.376,79.2345,0.024279
198.408,79.2279,0.024279
198.439,79.2218,0.024279
198.470,79.2156,0.024279
198.501,79.2099,0.024279
198.533,79.2047,0.024289
198.563,79.2005,0.024289
198.594,79.1972,0.024289
198.625,79.1944,0.024289
198.655,79.1923,0.024289
198.687,79.1908,0.024289
198.717,79.1902,0.024289
198.748,79.1902,0.024289
198.778,79.1902,0.024289
198.810,79.1902,0.024176
198.841,79.1902,0.024176
198.872,79.1902,0.024176
198.904,79.1902,0.024176
198.935,79.1902,0.024176
198.966,79.1902,0.024176
198.998,79.1902,0.024176
199.029,79.1902,0.024176
199.061,79.1902,0.024025
199.093,79.1902,0.024025
199.124,79.1902,0.024025
199.155,79.1902,0.024025
199.185,79.1902,0.024025
199.216,79.1905,0.024025
199.247,79.1913,0.024025
199.278,79.1931,0.023969
199.309,79.1954,0.023969
199.340,79.1986,0.023969
199.372,79.2025,0.023969
199.403,79.2072,0.023969
199.434,79.2124,0.023969
199.465,79.2187,0.023969
199.496,79.2247,0.023969
199.528,79.2311,0.023969
199.559,79.2372,0.023771
199.591,79.2437,0.023771
199.622,79.2499,0.023771
199.655,79.2564,0.023771
199.686,79.2625,0.023771
199.717,79.2688,0.023771
199.747,79.2749,0.023771
199.778,79.2811,0.023592
199.808,79.2871,0.023592
199.840,79.2934,0.023592
199.871,79.2997,0.023592
199.902,79.3058,0.023592
199.933,79.3122,0.023592
199.964,79.3183,0.023592
199.996,79.3248,0.023592
200.027,79.3308,0.023592
200.058,79.3373,0.023554
200.089,79.3431,0.023554
200.121,79.3496,0.023554
200.150,79.3554,0.023554
200.181,79.3619,0.023554
200.213,79.3681,0.023554
200.245,79.3748,0.023554
200.275,79.3805,0.023497
200.306,79.3867,0.023497
200.338,79.3930,0.023497
200.369,79.3992,0.023497
200.400,79.4056,0.023497
200.431,79.4116,0.023497
200.463,79.4179,0.023497
200.493,79.4240,0.023497
200.525,79.4304,0.023497
200.557,79.4368,0.023488
200.588,79.4430,0.023488
200.618,79.4490,0.023488
200.650,79.4554,0.023488
200.680,79.4614,0.023488
200.712,79.4678,0.023488
200.744,79.4743,0.023488
200.774,79.4802,0.023488
200.805,79.4865,0.023403
200.837,79.4928,0.023403
200.867,79.4988,0.023403
200.898,79.5050,0.023403
200.929,79.5114,0.023403
200.962,79.5179,0.023403
200.992,79.5238,0.023403
201.023,79.5300,0.023309
201.053,79.5361,0.023309
201.085,79.5426,0.023309
201.117,79.5488,0.023309
201.146,79.5548,0.023309
201.177,79.5609,0.023309
201.209,79.5674,0.023309
201.240,79.5734,0.023309
201.271,79.5798,0.023309
201.302,79.5857,0.023262
201.333,79.5920,0.023262
201.364,79.5982,0.023262
201.395,79.6046,0.023262
201.425,79.6105,0.023262
201.456,79.6167,0.023262
201.487,79.6228,0.023262
201.518,79.6291,0.023205
201.551,79.6357,0.023205
201.580,79.6414,0.023205
201.612,79.6480,0.023205
201.643,79.6541,0.023205
201.675,79.6605,0.023205
201.705,79.6663,0.023205
201.736,79.6727,0.023205
201.767,79.6789,0.023205
201.798,79.6851,0.023121
201.829,79.6913,0.023121
201.862,79.6980,0.023121
201.892,79.7038,0.023121
201.925,79.7104,0.023121
201.954,79.7163,0.023121
201.986,79.7226,0.023121
202.017,79.7288,0.023073
202.048,79.7352,0.023073
202.078,79.7410,0.023073
202.109,79.7473,0.023073
202.139,79.7533,0.023073
202.170,79.7593,0.023073
202.200,79.7655,0.023073
202.231,79.7716,0.023073
202.261,79.7777,0.023073
202.292,79.7838,0.023017
202.323,79.7900,0.023017
202.353,79.7962,0.023017
202.384,79.8021,0.023017
202.415,79.8085,0.023017
202.447,79.8148,0.023017
202.478,79.8210,0.023017
202.509,79.8273,0.022923
202.541,79.8336,0.022923
202.571,79.8396,0.022923
202.602,79.8459,0.022923
202.634,79.8522,0.022923
202.666,79.8587,0.022923
202.696,79.8646,0.022923
202.727,79.8708,0.022923
202.758,79.8770,0.022923
202.790,79.8834,0.022819
202.820,79.8894,0.022819
202.851,79.8957,0.022819
202.882,79.9020,0.022819
202.914,79.9082,0.022819
202.944,79.9144,0.022819
202.976,79.9207,0.022819
203.007,79.9268,0.022697
203.038,79.9330,0.022697
203.069,79.9394,0.022697
203.099,79.9453,0.022697
203.131,79.9517,0.022697
203.163,79.9582,0.022697
203.194,79.9644,0.022697
203.225,79.9704,0.022697
203.257,79.9769,0.022602
203.288,79.9831,0.022602
203.319,79.9894,0.022602
203.349,79.9952,0.022602
203.381,80.0017,0.022602
203.412,80.0078,0.022602
203.443,80.0141,0.022602
203.473,80.0200,0.022602
203.504,80.0264,0.022602
203.536,80.0327,0.022546
203.567,80.0389,0.022546
203.598,80.0450,0.022546
203.629,80.0515,0.022546
203.659,80.0571,0.022546
203.690,80.0633,0.022546
203.720,80.0697,0.022546
203.751,80.0757,0.022546
203.782,80.0818,0.022471
203.814,80.0883,0.022471
203.845,80.0945,0.022471
203.876,80.1007,0.022471
203.908,80.1071,0.022471
203.938,80.1129,0.022471
203.969,80.1193,0.022471
204.000,80.1255,0.022348
204.032,80.1319,0.022348
204.062,80.1377,0.022348
204.093,80.1441,0.022348
204.124,80.1501,0.022348
204.156,80.1566,0.022348
204.186,80.1625,0.022348
204.217,80.1690,0.022348
204.248,80.1750,0.022348
204.280,80.1815,0.022348
204.312,80.1878,0.022235
204.344,80.1943,0.022235
204.375,80.2005,0.022235
204.406,80.2068,0.022235
204.437,80.2127,0.022235
204.468,80.2190,0.022235
204.499,80.2252,0.022235
204.530,80.2314,0.022235
204.561,80.2377,0.022150
204.592,80.2438,0.022150
204.622,80.2499,0.022150
204.653,80.2561,0.022150
204.684,80.2623,0.022150
204.715,80.2685,0.022150
204.746,80.2747,0.022150
204.776,80.2807,0.022150
204.807,80.2868,0.022018
204.838,80.2930,0.022018
204.868,80.2990,0.022018
204.900,80.3053,0.022018
204.932,80.3117,0.022018
204.964,80.3182,0.022018
204.995,80.3243,0.022018
205.025,80.3305,0.022018
205.055,80.3364,0.021886
205.086,80.3428,0.021886
205.117,80.3488,0.021886
205.148,80.3552,0.021886
205.179,80.3614,0.021886
205.210,80.3674,0.021886
205.241,80.3735,0.021886
205.272,80.3798,0.021886
205.302,80.3858,0.021811
205.333,80.3919,0.021811
205.364,80.3982,0.021811
205.394,80.4043,0.021811
205.425,80.4103,0.021811
205.456,80.4167,0.021811
205.487,80.4227,0.021811
205.518,80.4292,0.021811
205.550,80.4354,0.021679
205.582,80.4418,0.021679
205.613,80.4481,0.021679
205.644,80.4541,0.021679
205.675,80.4605,0.021679
205.706,80.4667,0.021679
205.737,80.4729,0.021679
205.768,80.4789,0.021679
205.798,80.4850,0.021575
205.829,80.4913,0.021575
205.860,80.4974,0.021575
205.891,80.5036,0.021575
205.922,80.5098,0.021575
205.952,80.5159,0.021575
205.984,80.5221,0.021575
206.015,80.5284,0.021575
206.044,80.5342,0.021510
206.075,80.5406,0.021510
206.106,80.5466,0.021510
206.137,80.5529,0.021510
206.168,80.5589,0.021510
206.199,80.5651,0.021510
206.229,80.5713,0.021510
206.261,80.5775,0.021510
206.291,80.5837,0.021368
206.322,80.5898,0.021368
206.353,80.5959,0.021368
206.383,80.6021,0.021368
206.414,80.6082,0.021368
206.446,80.6147,0.021368
206.477,80.6207,0.021368
206.508,80.6270,0.021368
206.538,80.6330,0.021255
206.571,80.6395,0.021255
206.601,80.6456,0.021255
206.633,80.6519,0.021255
206.663,80.6580,0.021255
206.694,80.6641,0.021255
206.725,80.6703,0.021255
206.756,80.6767,0.021255
206.787,80.6828,0.021170
206.819,80.6892,0.021170
206.850,80.6955,0.021170
206.881,80.7016,0.021170
206.912,80.7078,0.021170
206.943,80.7138,0.021170
206.975,80.7204,0.021170
207.005,80.7265,0.021170
207.036,80.7328,0.021067
207.068,80.7389,0.021067
207.099,80.7452,0.021067
207.130,80.7515,0.021067
207.161,80.7579,0.021067
207.193,80.7641,0.021067
207.224,80.7704,0.021067
207.255,80.7765,0.021067
207.287,80.7829,0.020935
207.318,80.7890,0.020935
207.349,80.7952,0.020935
207.380,80.8014,0.020935
207.411,80.8075,0.020935
207.442,80.8137,0.020935
207.472,80.8199,0.020935
207.503,80.8261,0.020935
207.534,80.8322,0.020765
207.564,80.8382,0.020765
207.595,80.8444,0.020765
207.626,80.8505,0.020765
207.657,80.8567,0.020765
207.688,80.8630,0.020765
207.719,80.8691,0.020765
207.750,80.8753,0.020765
207.781,80.8816,0.020765
207.813,80.8881,0.020605
207.843,80.8940,0.020605
207.875,80.9004,0.020605
207.905,80.9066,0.020605
207.936,80.9126,0.020605
207.967,80.9188,0.020605
207.998,80.9250,0.020605
208.029,80.9311,0.020454
208.060,80.9374,0.020454
208.092,80.9438,0.020454
208.123,80.9500,0.020454
208.154,80.9563,0.020454
208.187,80.9629,0.020454
208.217,80.9688,0.020454
208.248,80.9749,0.020454
208.278,80.9811,0.020454
208.309,80.9872,0.020341
208.340,80.9934,0.020341
208.371,80.9996,0.020341
208.403,81.0060,0.020341
208.434,81.0122,0.020341
208.465,81.0186,0.020341
208.496,81.0246,0.020341
208.528,81.0311,0.020341
208.557,81.0368,0.020172
208.589,81.0432,0.020172
208.621,81.0496,0.020172
208.650,81.0554,0.020172
208.682,81.0618,0.020172
208.713,81.0679,0.020172
208.743,81.0742,0.020172
208.775,81.0803,0.020172
208.805,81.0865,0.020030
208.838,81.0930,0.020030
208.868,81.0992,0.020030
208.900,81.1054,0.020030
208.931,81.1117,0.020030
208.962,81.1179,0.020030
208.993,81.1241,0.020030
209.024,81.1303,0.020030
209.056,81.1366,0.019870
209.087,81.1428,0.019870
209.119,81.1494,0.019870
209.150,81.1554,0.019870
209.181,81.1616,0.019870
209.212,81.1678,0.019870
209.242,81.1738,0.019870
209.274,81.1803,0.019691
209.305,81.1864,0.019691
209.335,81.1924,0.019691
209.367,81.1988,0.019691
209.398,81.2051,0.019691
209.430,81.2114,0.019691
209.459,81.2171,0.019691
209.491,81.2234,0.019691
209.522,81.2298,0.019691
209.554,81.2361,0.019644
209.585,81.2424,0.019644
209.616,81.2486,0.019644
209.647,81.2549,0.019644
209.678,81.2610,0.019644
209.709,81.2672,0.019644
209.740,81.2734,0.019644
209.771,81.2796,0.019644
209.803,81.2860,0.019465
209.834,81.2922,0.019465
209.866,81.2987,0.019465
209.896,81.3047,0.019465
209.927,81.3110,0.019465
209.958,81.3171,0.019465
209.989,81.3232,0.019465
210.020,81.3295,0.019211
210.051,81.3357,0.019211
210.083,81.3420,0.019211
210.113,81.3481,0.019211
210.145,81.3544,0.019211
210.175,81.3605,0.019211
210.206,81.3668,0.019211
210.238,81.3730,0.019211
210.268,81.3791,0.019060
210.299,81.3853,0.019060
210.330,81.3915,0.019060
210.362,81.3978,0.019060
210.394,81.4041,0.019060
210.425,81.4103,0.019060
210.455,81.4164,0.019060
210.486,81.4226,0.019060
210.518,81.4288,0.018909
210.548,81.4352,0.018909
210.580,81.4412,0.018909
210.611,81.4476,0.018909
210.642,81.4538,0.018909
210.673,81.4600,0.018909
210.704,81.4660,0.018909
210.734,81.4722,0.018909
210.764,81.4782,0.018692
210.795,81.4844,0.018692
210.826,81.4905,0.018692
210.857,81.4968,0.018692
210.888,81.5029,0.018692
210.919,81.5092,0.018692
210.950,81.5154,0.018692
210.982,81.5217,0.018692
211.012,81.5279,0.018466
211.043,81.5340,0.018466
211.074,81.5402,0.018466
211.105,81.5464,0.018466
211.137,81.5526,0.018466
211.167,81.5589,0.018466
211.198,81.5650,0.018466
211.229,81.5712,0.018466
211.261,81.5775,0.018466
211.291,81.5836,0.018174
211.321,81.5896,0.018174
211.352,81.5959,0.018174
211.384,81.6022,0.018174
211.415,81.6085,0.018174
211.447,81.6149,0.018174
211.477,81.6209,0.018174
211.508,81.6270,0.018174
211.539,81.6331,0.017892
211.570,81.6393,0.017892
211.601,81.6455,0.017892
211.632,81.6518,0.017892
211.662,81.6578,0.017892
211.693,81.6640,0.017892
211.724,81.6702,0.017892
211.755,81.6765,0.017892
211.786,81.6825,0.017618
211.816,81.6887,0.017618
211.848,81.6949,0.017618
211.878,81.7009,0.017618
211.909,81.7071,0.017618
211.940,81.7133,0.017618
211.970,81.7194,0.017618
212.002,81.7259,0.017618
212.032,81.7318,0.017289
212.064,81.7383,0.017289
212.095,81.7445,0.017289
212.126,81.7505,0.017289
212.158,81.7569,0.017289
212.189,81.7632,0.017289
212.220,81.7694,0.017289
212.251,81.7757,0.017289
212.282,81.7818,0.016884
212.314,81.7881,0.016884
212.345,81.7942,0.016884
212.375,81.8005,0.016884
212.406,81.8066,0.016884
212.437,81.8131,0.016884
212.468,81.8190,0.016884
212.499,81.8251,0.016884
212.530,81.8313,0.016271
212.561,81.8376,0.016271
212.592,81.8438,0.016271
212.624,81.8503,0.016271
212.656,81.8565,0.016271
212.686,81.8627,0.016271
212.717,81.8689,0.016271
212.749,81.8752,0.016271
212.780,81.8814,0.015489
212.812,81.8877,0.015489
212.843,81.8938,0.015489
212.874,81.9002,0.015489
212.904,81.9062,0.015489
212.935,81.9124,0.015489
212.966,81.9185,0.015489
212.997,81.9249,0.015489
213.028,81.9309,0.014443
213.058,81.9371,0.014443
213.089,81.9432,0.014443
213.121,81.9496,0.014443
213.152,81.9557,0.014443
213.183,81.9620,0.014443
213.214,81.9681,0.014443
213.247,81.9748,0.014443
213.276,81.9807,0.012945
213.307,81.9867,0.012945
213.338,81.9929,0.012945
213.369,81.9992,0.012945
213.400,82.0053,0.012945
213.431,82.0117,0.012945
213.462,82.0178,0.012945
213.493,82.0240,0.012945
213.525,82.0302,0.012945
213.556,82.0365,0.010891
213.587,82.0429,0.010891
213.618,82.0489,0.010891
213.649,82.0551,0.010891
213.681,82.0615,0.010891
213.712,82.0678,0.010891
213.743,82.0739,0.010891
213.773,82.0800,0.008150
213.805,82.0863,0.008150
213.838,82.0928,0.008150
213.868,82.0989,0.008150
213.899,82.1053,0.008150
213.930,82.1113,0.008150
213.961,82.1177,0.008150
213.993,82.1240,0.008150
214.024,82.1301,0.004569
214.055,82.1364,0.004569
214.086,82.1427,0.004569
214.117,82.1488,0.004569
214.148,82.1549,0.004569
214.178,82.1611,0.004569
214.210,82.1671,0.004569
214.241,82.1726,0.004569
214.272,82.1774,0.004569
214.303,82.1813,-0.000075
214.335,82.1846,-0.000075
214.367,82.1872,-0.000075
214.398,82.1890,-0.000075
214.429,82.1900,-0.000075
214.460,82.1902,-0.000075
214.490,82.1902,-0.000075
214.521,82.1902,-0.004080
214.552,82.1902,-0.004080
214.583,82.1902,-0.004080
214.615,82.1902,-0.004080
214.646,82.1902,-0.004080
214.677,82.1902,-0.004080
214.709,82.1902,-0.004080
214.740,82.1902,-0.004080
214.771,82.1902,-0.004372
214.801,82.1902,-0.004372
