Elapsed Time (s),Position (mm),Force (N)
-0.011,63.5504,-0.446659
0.020,63.5504,-0.446659
0.050,63.5504,-0.446659
0.080,63.5504,-0.446659
0.111,63.5504,-0.373809
0.143,63.5504,-0.373809
0.174,63.5504,-0.373809
0.205,63.5504,-0.373809
0.236,63.5504,-0.373809
0.267,63.5504,-0.373809
0.298,63.5504,-0.373809
0.329,63.5504,-0.373809
0.360,63.5504,-0.373809
0.392,63.5504,-0.373809
0.423,63.5504,-0.333611
0.453,63.5504,-0.333611
0.483,63.5504,-0.333611
0.515,63.5504,-0.333611
0.546,63.5504,-0.333611
0.577,63.5504,-0.333611
0.610,63.5504,-0.333611
0.639,63.5504,-0.308299
0.670,63.5504,-0.308299
0.701,63.5504,-0.308299
0.733,63.5504,-0.308299
0.763,63.5504,-0.308299
0.796,63.5504,-0.308299
0.825,63.5504,-0.308299
0.858,63.5504,-0.308299
0.886,63.5504,-0.308299
0.917,63.5504,-0.289959
0.947,63.5504,-0.289959
0.979,63.5504,-0.289959
1.009,63.5504,-0.289959
1.041,63.5504,-0.289959
1.072,63.5504,-0.289959
1.103,63.5504,-0.289959
1.134,63.5504,-0.276118
1.164,63.5504,-0.276118
1.196,63.5504,-0.276118
1.227,63.5504,-0.276118
1.258,63.5504,-0.276118
1.289,63.5504,-0.276118
1.319,63.5504,-0.276118
1.350,63.5504,-0.276118
1.381,63.5504,-0.276118
1.412,63.5504,-0.265052
1.442,63.5504,-0.265052
1.473,63.5504,-0.265052
1.505,63.5504,-0.265052
1.536,63.5504,-0.265052
1.568,63.5504,-0.265052
1.599,63.5504,-0.265052
1.630,63.5504,-0.256056
1.660,63.5504,-0.256056
1.692,63.5504,-0.256056
1.723,63.5504,-0.256056
1.754,63.5504,-0.256056
1.785,63.5504,-0.256056
1.817,63.5504,-0.256056
1.847,63.5504,-0.256056
1.878,63.5504,-0.248783
1.909,63.5504,-0.248783
1.939,63.5504,-0.248783
1.970,63.5504,-0.248783
2.001,63.5504,-0.248783
2.032,63.5504,-0.248783
2.062,63.5504,-0.248783
2.093,63.5504,-0.248783
2.124,63.5504,-0.242535
2.155,63.5504,-0.242535
2.186,63.5504,-0.242535
2.218,63.5504,-0.242535
2.248,63.5504,-0.242535
2.279,63.5504,-0.242535
2.310,63.5504,-0.242535
2.341,63.5504,-0.242535
2.372,63.5504,-0.237256
2.402,63.5504,-0.237256
2.433,63.5504,-0.237256
2.464,63.5504,-0.237256
2.496,63.5504,-0.237256
2.526,63.5504,-0.237256
2.556,63.5504,-0.237256
2.587,63.5504,-0.237256
2.618,63.5504,-0.237256
2.649,63.5504,-0.232692
2.681,63.5504,-0.232692
2.711,63.5504,-0.232692
2.741,63.5504,-0.232692
2.772,63.5504,-0.232692
2.804,63.5504,-0.232692
2.835,63.5504,-0.232692
2.867,63.5504,-0.232692
2.898,63.5504,-0.228476
2.929,63.5504,-0.228476
2.960,63.5504,-0.228476
2.990,63.5504,-0.228476
3.021,63.5504,-0.228476
3.052,63.5504,-0.228476
3.083,63.5504,-0.228476
3.115,63.5504,-0.228476
3.146,63.5504,-0.224741
3.178,63.5504,-0.224741
3.209,63.5504,-0.224741
3.241,63.5504,-0.224741
3.272,63.5504,-0.224741
3.303,63.5504,-0.224741
3.335,63.5504,-0.224741
3.366,63.5504,-0.224741
3.398,63.5504,-0.221654
3.429,63.5504,-0.221654
3.459,63.5504,-0.221654
3.491,63.5504,-0.221654
3.523,63.5504,-0.221654
3.554,63.5504,-0.221654
3.585,63.5504,-0.221654
3.617,63.5504,-0.221654
3.649,63.5504,-0.221654
3.680,63.5504,-0.218530
3.711,63.5504,-0.218530
3.742,63.5504,-0.218530
3.774,63.5504,-0.218530
3.805,63.5504,-0.218530
3.835,63.5504,-0.218530
3.866,63.5504,-0.218530
3.897,63.5504,-0.218530
3.927,63.5504,-0.215435
3.959,63.5504,-0.215435
3.990,63.5504,-0.215435
4.021,63.5504,-0.215435
4.052,63.5504,-0.215435
4.082,63.5504,-0.215435
4.113,63.5504,-0.215435
4.145,63.5496,-0.212631
4.176,63.5482,-0.212631
4.207,63.5461,-0.212631
4.239,63.5432,-0.212631
4.271,63.5394,-0.212631
4.303,63.5351,-0.212631
4.335,63.5299,-0.212631
4.365,63.5242,-0.212631
4.396,63.5176,-0.121949
4.426,63.5103,-0.121949
4.456,63.5029,-0.121949
4.487,63.4937,-0.121949
4.517,63.4850,-0.121949
4.548,63.4747,-0.121949
4.579,63.4638,-0.121949
4.611,63.4520,-0.121949
4.641,63.4403,0.331541
4.672,63.4273,0.331541
4.703,63.4134,0.331541
4.735,63.3985,0.331541
4.767,63.3828,0.331541
4.795,63.3683,0.331541
4.829,63.3499,0.331541
4.860,63.3321,0.331541
4.891,63.3146,0.399949
4.923,63.2947,0.399949
4.953,63.2761,0.399949
4.984,63.2552,0.399949
5.014,63.2351,0.399949
5.045,63.2138,0.399949
5.076,63.1909,0.399949
5.107,63.1682,0.399949
5.138,63.1436,0.399949
5.169,63.1192,0.113321
5.201,63.0931,0.113321
5.231,63.0675,0.113321
5.262,63.0401,0.113321
5.293,63.0128,0.113321
5.324,62.9848,0.113321
5.355,62.9558,0.113321
5.386,62.9260,0.113321
5.418,62.8943,0.138256
5.449,62.8638,0.138256
5.480,62.8316,0.138256
5.510,62.7993,0.138256
5.541,62.7660,0.138256
5.572,62.7317,0.138256
5.603,62.6976,0.138256
5.634,62.6612,0.138256
5.665,62.6250,0.173543
5.697,62.5867,0.173543
5.727,62.5505,0.173543
5.758,62.5113,0.173543
5.789,62.4735,0.173543
5.820,62.4329,0.173543
5.850,62.3936,0.173543
5.882,62.3510,0.173543
5.913,62.3071,0.214625
5.944,62.2657,0.214625
5.975,62.2214,0.214625
6.007,62.1763,0.214625
6.039,62.1302,0.214625
6.069,62.0839,0.214625
6.101,62.0383,0.214625
6.132,61.9898,0.214625
6.163,61.9421,0.241001
6.195,61.8914,0.241001
6.225,61.8435,0.241001
6.256,61.7922,0.241001
6.288,61.7413,0.241001
6.320,61.6874,0.241001
6.350,61.6374,0.241001
6.381,61.5837,0.242290
6.412,61.5299,0.242290
6.443,61.4740,0.242290
6.474,61.4200,0.242290
6.505,61.3627,0.242290
6.537,61.3058,0.242290
6.567,61.2485,0.242290
6.598,61.1913,0.242290
6.629,61.1321,0.242290
6.660,61.0725,0.249357
6.692,61.0113,0.249357
6.723,60.9501,0.249357
6.754,60.8923,0.249357
6.784,60.8352,0.249357
6.815,60.7777,0.249357
6.846,60.7200,0.249357
6.876,60.6636,0.249357
6.908,60.6079,0.249357
6.939,60.5516,0.233906
6.970,60.4986,0.233906
7.000,60.4447,0.233906
7.032,60.3927,0.233906
7.062,60.3401,0.233906
7.094,60.2888,0.233906
7.125,60.2366,0.233906
7.156,60.1882,0.112916
7.186,60.1391,0.112916
7.217,60.0921,0.112916
7.250,60.0385,0.112916
7.278,59.9983,0.112916
7.309,59.9517,0.112916
7.340,59.9074,0.112916
7.370,59.8631,0.112916
7.401,59.8197,0.016166
7.433,59.7738,0.016166
7.463,59.7334,0.016166
7.494,59.6906,0.016166
7.524,59.6506,0.016166
7.555,59.6103,0.016166
7.586,59.5693,0.016166
7.617,59.5315,0.016166
7.649,59.4926,0.013663
7.680,59.4541,0.013663
7.711,59.4174,0.013663
7.743,59.3801,0.013663
7.773,59.3457,0.013663
7.804,59.3116,0.013663
7.834,59.2779,0.013663
7.865,59.2448,0.013663
7.897,59.2116,0.012684
7.928,59.1793,0.012684
7.958,59.1499,0.012684
7.990,59.1181,0.012684
8.020,59.0895,0.012684
8.051,59.0611,0.012684
8.082,59.0318,0.012684
8.113,59.0044,0.012684
8.145,58.9764,0.012167
8.176,58.9509,0.012167
8.208,58.9254,0.012167
8.240,58.9002,0.012167
8.271,58.8757,0.012167
8.302,58.8528,0.012167
8.334,58.8301,0.012167
8.364,58.8091,0.012167
8.396,58.7875,0.012167
8.428,58.7674,0.011790
8.457,58.7488,0.011790
8.488,58.7298,0.011790
8.520,58.7122,0.011790
8.551,58.6943,0.011790
8.581,58.6788,0.011790
8.612,58.6626,0.011790
8.644,58.6478,0.011480
8.676,58.6325,0.011480
8.706,58.6194,0.011480
8.737,58.6067,0.011480
8.768,58.5949,0.011480
8.798,58.5837,0.011480
8.830,58.5725,0.011480
8.861,58.5626,0.011480
8.893,58.5536,0.011160
8.923,58.5451,0.011160
8.955,58.5375,0.011160
8.988,58.5299,0.011160
9.017,58.5241,0.011160
9.049,58.5185,0.011160
9.080,58.5136,0.011160
9.110,58.5098,0.011160
9.141,58.5064,0.011160
9.172,58.5038,0.010943
9.197,58.5022,0.010943
9.235,58.5007,0.010943
9.265,58.5004,0.010943
9.298,58.5004,0.010943
9.326,58.5004,0.010943
9.356,58.5004,0.010943
9.387,58.5004,0.010812
9.417,58.5005,0.010812
9.448,58.5012,0.010812
9.480,58.5027,0.010812
9.510,58.5048,0.010812
9.540,58.5078,0.010812
9.571,58.5114,0.010812
9.603,58.5159,0.010812
9.635,58.5211,0.010812
9.665,58.5269,0.010661
9.696,58.5335,0.010661
9.726,58.5407,0.010661
9.758,58.5489,0.010661
9.790,58.5577,0.010661
9.821,58.5673,0.010661
9.852,58.5774,0.010661
9.882,58.5883,0.010661
9.912,58.5995,0.010398
9.943,58.6117,0.010398
9.976,58.6258,0.010398
10.005,58.6387,0.010398
10.035,58.6533,0.010398
10.066,58.6680,0.010398
10.098,58.6847,0.010398
10.129,58.7017,0.010398
10.161,58.7194,0.010002
10.193,58.7380,0.010002
10.223,58.7571,0.010002
10.255,58.7766,0.010002
10.286,58.7972,0.010002
10.317,58.8186,0.010002
10.350,58.8418,0.010002
10.379,58.8628,0.009588
10.409,58.8868,0.009588
10.440,58.9095,0.009588
10.471,58.9341,0.009588
10.502,58.9593,0.009588
10.533,58.9855,0.009588
10.564,59.0137,0.009588
10.595,59.0402,0.009588
10.626,59.0691,0.009090
10.657,59.0982,0.009090
10.688,59.1282,0.009090
10.719,59.1586,0.009090
10.750,59.1903,0.009090
10.780,59.2211,0.009090
10.811,59.2538,0.009090
10.849,59.2952,0.009090
10.889,59.3398,0.009090
10.920,59.3745,0.008412
10.950,59.4095,0.008412
10.983,59.4494,0.008412
11.013,59.4847,0.008412
11.044,59.5237,0.008412
11.075,59.5619,0.008412
11.110,59.6069,0.008412
11.137,59.6411,0.008412
11.168,59.6827,0.007500
11.198,59.7232,0.007500
11.229,59.7662,0.007500
11.260,59.8088,0.007500
11.291,59.8530,0.007500
11.322,59.8977,0.007500
11.353,59.9436,0.007500
11.384,59.9900,0.006455
11.416,60.0371,0.006455
11.447,60.0861,0.006455
11.477,60.1329,0.006455
11.508,60.1820,0.006455
11.539,60.2312,0.006455
11.570,60.2823,0.006455
11.602,60.3347,0.006455
11.633,60.3859,0.005044
11.663,60.4391,0.005044
11.694,60.4913,0.005044
11.724,60.5459,0.005044
11.754,60.5985,0.005044
11.785,60.6545,0.005044
11.816,60.7086,0.005044
11.848,60.7674,0.005044
11.877,60.8213,0.005044
11.908,60.8793,0.002879
11.939,60.9393,0.002879
11.969,60.9968,0.002879
12.000,61.0587,0.002879
12.030,61.1163,0.002879
12.063,61.1759,0.002879
12.093,61.2340,0.002879
12.125,61.2906,0.002879
12.155,61.3482,-0.000668
12.186,61.4028,-0.000668
12.217,61.4591,-0.000668
12.248,61.5115,-0.000668
12.279,61.5654,-0.000668
12.309,61.6161,-0.000668
12.340,61.6687,-0.000668
12.371,61.7187,-0.000668
12.401,61.7680,-0.006973
12.432,61.8187,-0.006973
12.463,61.8669,-0.006973
12.494,61.9165,-0.006973
12.525,61.9629,-0.006973
12.556,62.0092,-0.006973
12.588,62.0567,-0.006973
12.620,62.1042,-0.006973
12.651,62.1484,-0.020033
12.681,62.1924,-0.020033
12.712,62.2351,-0.020033
12.743,62.2781,-0.020033
12.775,62.3204,-0.020033
12.807,62.3633,-0.020033
12.837,62.4016,-0.020033
12.869,62.4422,-0.020033
12.899,62.4803,-0.020033
12.930,62.5185,-0.046907
12.961,62.5561,-0.046907
12.992,62.5935,-0.046907
13.022,62.6280,-0.046907
13.053,62.6628,-0.046907
13.084,62.6971,-0.046907
13.115,62.7311,-0.046907
13.146,62.7637,-0.089270
13.176,62.7963,-0.089270
13.208,62.8278,-0.089270
13.238,62.8592,-0.089270
13.270,62.8894,-0.089270
13.301,62.9187,-0.089270
13.331,62.9464,-0.089270
13.362,62.9756,-0.089270
13.393,63.0020,-0.140148
13.425,63.0291,-0.140148
13.455,63.0543,-0.140148
13.487,63.0802,-0.140148
13.518,63.1044,-0.140148
13.548,63.1278,-0.140148
13.579,63.1505,-0.140148
13.610,63.1730,-0.140148
13.641,63.1940,-0.201160
13.672,63.2150,-0.201160
13.703,63.2347,-0.201160
13.733,63.2538,-0.201160
13.765,63.2724,-0.201160
13.795,63.2904,-0.201160
13.827,63.3074,-0.201160
13.858,63.3243,-0.201160
13.889,63.3398,-0.318000
13.920,63.3546,-0.318000
13.952,63.3690,-0.318000
13.982,63.3823,-0.318000
14.012,63.3948,-0.318000
14.043,63.4067,-0.318000
14.074,63.4180,-0.318000
14.106,63.4291,-0.318000
14.137,63.4387,-0.522633
14.168,63.4478,-0.522633
14.199,63.4562,-0.522633
14.230,63.4639,-0.522633
14.260,63.4706,-0.522633
14.293,63.4773,-0.522633
14.322,63.4824,-0.522633
14.354,63.4872,-0.522633
14.385,63.4912,-0.756322
14.415,63.4944,-0.756322
14.445,63.4969,-0.756322
14.482,63.4991,-0.756322
14.509,63.5000,-0.756322
14.541,63.5004,-0.756322
14.570,63.5004,-0.756322
14.602,63.5004,-0.756322
14.633,63.5004,-0.846081
14.664,63.5004,-0.846081
14.695,63.5004,-0.846081
14.726,63.5004,-0.846081
14.757,63.5004,-0.846081
14.788,63.5004,-0.846081
14.820,63.5004,-0.846081
14.850,63.5004,-0.846081
14.882,63.5004,-0.689269
14.913,63.5004,-0.689269
14.943,63.5004,-0.689269
14.974,63.5004,-0.689269
15.005,63.5004,-0.689269
15.036,63.5004,-0.689269
15.066,63.5004,-0.689269
15.097,63.5004,-0.689269
15.129,63.5004,-0.689269
15.160,63.5004,-0.492202
15.191,63.5004,-0.492202
15.223,63.5004,-0.492202
15.253,63.5004,-0.492202
15.284,63.5004,-0.492202
15.315,63.5004,-0.492202
15.348,63.5004,-0.492202
15.378,63.5004,-0.397794
15.410,63.5004,-0.397794
15.441,63.5004,-0.397794
15.471,63.5004,-0.397794
15.502,63.5004,-0.397794
15.532,63.5004,-0.397794
15.562,63.5004,-0.397794
15.592,63.5004,-0.397794
15.623,63.5004,-0.397794
15.654,63.5004,-0.345476
15.686,63.5004,-0.345476
15.717,63.5004,-0.345476
15.748,63.5004,-0.345476
15.780,63.5004,-0.345476
15.810,63.5004,-0.345476
15.841,63.5004,-0.345476
15.873,63.5004,-0.313691
15.903,63.5004,-0.313691
15.934,63.5004,-0.313691
15.965,63.5004,-0.313691
15.995,63.5004,-0.313691
16.027,63.5004,-0.313691
16.057,63.5004,-0.313691
16.088,63.5004,-0.313691
16.119,63.5004,-0.292952
16.150,63.5004,-0.292952
16.182,63.5004,-0.292952
16.213,63.5004,-0.292952
16.244,63.5004,-0.292952
16.275,63.5004,-0.292952
16.307,63.5004,-0.292952
16.338,63.5004,-0.292952
16.370,63.5004,-0.292952
16.401,63.5004,-0.277877
16.432,63.5004,-0.277877
16.463,63.5004,-0.277877
16.494,63.5004,-0.277877
16.525,63.5004,-0.277877
16.555,63.5004,-0.277877
16.586,63.5004,-0.277877
16.617,63.5004,-0.277877
16.648,63.5004,-0.266059
16.679,63.5004,-0.266059
16.710,63.5004,-0.266059
16.741,63.5004,-0.266059
16.772,63.5004,-0.266059
16.804,63.5004,-0.266059
16.834,63.5004,-0.266059
16.865,63.5004,-0.266059
16.899,63.5004,-0.266059
16.928,63.5004,-0.256508
16.960,63.5004,-0.256508
16.990,63.5004,-0.256508
17.022,63.5004,-0.256508
17.053,63.5004,-0.256508
17.083,63.5004,-0.256508
17.114,63.5004,-0.256508
17.145,63.5004,-0.248801
17.177,63.5004,-0.248801
17.208,63.5004,-0.248801
17.238,63.5004,-0.248801
17.269,63.5004,-0.248801
17.303,63.5004,-0.248801
17.332,63.5004,-0.248801
17.362,63.5004,-0.248801
17.393,63.5004,-0.242149
17.426,63.5004,-0.242149
17.455,63.5004,-0.242149
17.487,63.5004,-0.242149
17.518,63.5004,-0.242149
17.550,63.5004,-0.242149
17.581,63.5004,-0.242149
17.612,63.5004,-0.242149
17.643,63.5004,-0.236541
17.678,63.5004,-0.236541
17.704,63.5004,-0.236541
17.736,63.5004,-0.236541
17.767,63.5004,-0.236541
17.798,63.5004,-0.236541
17.832,63.5004,-0.236541
17.860,63.5004,-0.236541
17.892,63.5004,-0.231657
17.922,63.5004,-0.231657
17.953,63.5004,-0.231657
17.985,63.5004,-0.231657
18.015,63.5004,-0.231657
18.046,63.5004,-0.231657
18.076,63.5004,-0.231657
18.108,63.5004,-0.231657
18.139,63.5004,-0.227291
18.170,63.5004,-0.227291
18.202,63.5004,-0.227291
18.233,63.5004,-0.227291
18.264,63.5004,-0.227291
18.296,63.5004,-0.227291
18.330,63.5004,-0.227291
18.356,63.5004,-0.227291
18.387,63.5004,-0.223536
18.419,63.5004,-0.223536
18.450,63.5004,-0.223536
18.481,63.5004,-0.223536
18.513,63.5004,-0.223536
18.544,63.5004,-0.223536
18.575,63.5004,-0.223536
18.606,63.5004,-0.223536
18.637,63.5004,-0.223536
18.668,63.5004,-0.220177
18.700,63.5004,-0.220177
18.730,63.5004,-0.220177
18.762,63.5004,-0.220177
18.792,63.5004,-0.220177
18.819,63.5004,-0.220177
18.853,63.5004,-0.220177
18.884,63.5004,-0.220177
18.915,63.5004,-0.217298
18.946,63.5004,-0.217298
18.978,63.5004,-0.217298
19.010,63.5004,-0.217298
19.041,63.5004,-0.217298
19.072,63.5004,-0.217298
19.103,63.5004,-0.217298
19.134,63.5004,-0.214371
19.165,63.5004,-0.214371
19.197,63.5004,-0.214371
19.226,63.5004,-0.214371
19.256,63.5004,-0.214371
19.288,63.5004,-0.214371
19.319,63.5004,-0.214371
19.350,63.5004,-0.214371
19.382,63.5004,-0.211332
19.413,63.5004,-0.211332
19.444,63.5004,-0.211332
19.474,63.5004,-0.211332
19.506,63.5004,-0.211332
19.538,63.5004,-0.211332
19.567,63.5004,-0.211332
19.599,63.5004,-0.211332
19.629,63.5004,-0.208810
19.660,63.5004,-0.208810
19.691,63.4998,-0.208810
19.723,63.4985,-0.208810
19.754,63.4964,-0.208810
19.785,63.4937,-0.208810
19.816,63.4902,-0.208810
19.848,63.4860,-0.208810
19.879,63.4810,-0.208810
19.910,63.4753,-0.179960
19.941,63.4689,-0.179960
19.971,63.4620,-0.179960
20.002,63.4541,-0.179960
20.033,63.4457,-0.179960
20.065,63.4359,-0.179960
20.095,63.4261,-0.179960
20.126,63.4157,0.356185
20.157,63.4039,0.356185
20.187,63.3921,0.356185
20.220,63.3786,0.356185
20.250,63.3651,0.356185
20.281,63.3506,0.356185
20.312,63.3359,0.356185
20.342,63.3200,0.356185
20.374,63.3034,0.480769
20.405,63.2861,0.480769
20.435,63.2688,0.480769
20.467,63.2495,0.480769
20.498,63.2301,0.480769
20.529,63.2097,0.480769
20.559,63.1898,0.480769
20.590,63.1677,0.480769
20.621,63.1450,0.107534
20.652,63.1225,0.107534
20.683,63.0989,0.107534
20.714,63.0737,0.107534
20.745,63.0489,0.107534
20.776,63.0226,0.107534
20.807,62.9961,0.107534
20.839,62.9678,0.107534
20.870,62.9395,0.132592
20.900,62.9113,0.132592
20.931,62.8816,0.132592
20.963,62.8507,0.132592
20.994,62.8199,0.132592
21.024,62.7880,0.132592
21.055,62.7556,0.132592
21.086,62.7232,0.132592
21.117,62.6889,0.132592
21.148,62.6535,0.165394
21.179,62.6181,0.165394
21.209,62.5827,0.165394
21.241,62.5446,0.165394
21.272,62.5084,0.165394
21.303,62.4690,0.165394
21.334,62.4300,0.165394
21.365,62.3895,0.165394
21.396,62.3502,0.165394
21.426,62.3086,0.203117
21.455,62.2701,0.203117
21.489,62.2242,0.203117
21.520,62.1814,0.203117
21.551,62.1370,0.203117
21.581,62.0918,0.203117
21.613,62.0466,0.203117
21.644,61.9997,0.229135
21.675,61.9526,0.229135
21.707,61.9033,0.229135
21.738,61.8535,0.229135
21.769,61.8050,0.229135
21.800,61.7540,0.229135
21.832,61.7025,0.229135
21.863,61.6507,0.229135
21.894,61.5988,0.229135
21.925,61.5439,0.234386
21.956,61.4902,0.234386
21.988,61.4361,0.234386
22.019,61.3808,0.234386
22.049,61.3271,0.234386
22.080,61.2687,0.234386
22.112,61.2119,0.234386
22.143,61.1529,0.244511
22.174,61.0941,0.244511
22.205,61.0357,0.244511
22.237,60.9739,0.244511
22.268,60.9123,0.244511
22.299,60.8540,0.244511
22.328,60.7974,0.244511
22.359,60.7394,0.253657
22.390,60.6813,0.253657
22.421,60.6246,0.253657
22.453,60.5682,0.253657
22.482,60.5146,0.253657
22.513,60.4604,0.253657
22.544,60.4069,0.253657
22.575,60.3553,0.253657
22.606,60.3029,0.253657
22.637,60.2507,0.253657
22.669,60.1996,0.135951
22.699,60.1499,0.135951
22.731,60.1003,0.135951
22.761,60.0510,0.135951
22.792,60.0044,0.135951
22.823,59.9575,0.135951
22.854,59.9103,0.135951
22.885,59.8654,0.135951
22.917,59.8195,0.017662
22.948,59.7738,0.017662
22.979,59.7317,0.017662
23.010,59.6883,0.017662
23.041,59.6462,0.017662
23.075,59.6017,0.017662
23.103,59.5636,0.017662
23.134,59.5244,0.014039
23.165,59.4849,0.014039
23.196,59.4465,0.014039
23.226,59.4088,0.014039
23.257,59.3732,0.014039
23.288,59.3360,0.014039
23.321,59.2996,0.014039
23.351,59.2641,0.014039
23.382,59.2317,0.014039
23.413,59.1982,0.012948
23.444,59.1658,0.012948
23.475,59.1335,0.012948
23.506,59.1014,0.012948
23.538,59.0709,0.012948
23.569,59.0415,0.012948
23.600,59.0122,0.012948
23.631,58.9838,0.012948
23.663,58.9555,0.012948
23.695,58.9281,0.012223
23.725,58.9027,0.012223
23.756,58.8770,0.012223
23.788,58.8525,0.012223
23.819,58.8274,0.012223
23.850,58.8056,0.012223
23.881,58.7824,0.012223
23.912,58.7612,0.011819
23.942,58.7407,0.011819
23.974,58.7205,0.011819
24.005,58.7002,0.011819
24.037,58.6814,0.011819
24.066,58.6641,0.011819
24.097,58.6473,0.011819
24.128,58.6306,0.011819
24.160,58.6143,0.011527
24.191,58.5995,0.011527
24.222,58.5847,0.011527
24.253,58.5713,0.011527
24.284,58.5580,0.011527
24.315,58.5461,0.011527
24.347,58.5345,0.011527
24.376,58.5244,0.011339
24.407,58.5143,0.011339
24.437,58.5055,0.011339
24.470,58.4964,0.011339
24.500,58.4886,0.011339
24.532,58.4814,0.011339
24.562,58.4751,0.011339
24.593,58.4696,0.011339
24.624,58.4646,0.011132
24.654,58.4606,0.011132
24.684,58.4570,0.011132
24.715,58.4544,0.011132
24.746,58.4522,0.011132
24.777,58.4509,0.011132
24.808,58.4503,0.011132
24.839,58.4503,0.011132
24.870,58.4503,0.010878
24.901,58.4503,0.010878
24.932,58.4503,0.010878
24.963,58.4503,0.010878
24.994,58.4503,0.010878
25.025,58.4508,0.010878
25.057,58.4519,0.010878
25.088,58.4539,0.010878
25.120,58.4566,0.010812
25.151,58.4599,0.010812
25.181,58.4640,0.010812
25.212,58.4689,0.010812
25.242,58.4742,0.010812
25.273,58.4804,0.010812
25.303,58.4873,0.010812
25.334,58.4949,0.010812
25.366,58.5037,0.010812
25.397,58.5128,0.010529
25.428,58.5227,0.010529
25.459,58.5335,0.010529
25.490,58.5448,0.010529
25.521,58.5567,0.010529
25.552,58.5697,0.010529
25.584,58.5835,0.010529
25.613,58.5970,0.010529
25.645,58.6124,0.010529
25.675,58.6279,0.010106
25.706,58.6442,0.010106
25.737,58.6609,0.010106
25.769,58.6796,0.010106
25.799,58.6974,0.010106
25.830,58.7168,0.010106
25.860,58.7366,0.010106
25.893,58.7582,0.009739
25.923,58.7800,0.009739
25.954,58.8017,0.009739
25.986,58.8251,0.009739
26.016,58.8479,0.009739
26.050,58.8748,0.009739
26.078,58.8984,0.009739
26.109,58.9233,0.009739
26.141,58.9508,0.009739
26.171,58.9772,0.009353
26.202,59.0064,0.009353
26.233,59.0345,0.009353
26.264,59.0647,0.009353
26.295,59.0941,0.009353
26.325,59.1246,0.009353
26.356,59.1555,0.009353
26.386,59.1877,0.009353
26.417,59.2208,0.008732
26.449,59.2550,0.008732
26.480,59.2895,0.008732
26.512,59.3260,0.008732
26.542,59.3607,0.008732
26.572,59.3977,0.008732
26.604,59.4351,0.008732
26.635,59.4740,0.007857
26.666,59.5123,0.007857
26.697,59.5525,0.007857
26.727,59.5916,0.007857
26.759,59.6343,0.007857
26.791,59.6764,0.007857
26.823,59.7208,0.007857
26.853,59.7628,0.007857
26.886,59.8093,0.006756
26.917,59.8541,0.006756
26.948,59.9012,0.006756
26.979,59.9464,0.006756
27.010,59.9941,0.006756
27.040,60.0404,0.006756
27.071,60.0894,0.006756
27.101,60.1361,0.006756
27.132,60.1856,0.005523
27.164,60.2387,0.005523
27.194,60.2880,0.005523
27.225,60.3403,0.005523
27.257,60.3945,0.005523
27.288,60.4477,0.005523
27.319,60.5012,0.005523
27.349,60.5553,0.005523
27.380,60.6117,0.005523
27.412,60.6682,0.003886
27.442,60.7242,0.003886
27.473,60.7829,0.003886
27.504,60.8423,0.003886
27.537,60.9047,0.003886
27.567,60.9615,0.003886
27.598,61.0218,0.003886
27.629,61.0830,0.000932
27.659,61.1391,0.000932
27.692,61.2002,0.000932
27.721,61.2520,0.000932
27.752,61.3091,0.000932
27.782,61.3641,0.000932
27.814,61.4184,0.000932
27.845,61.4726,0.000932
27.877,61.5283,-0.004084
27.907,61.5794,-0.004084
27.938,61.6296,-0.004084
27.969,61.6822,-0.004084
28.000,61.7332,-0.004084
28.033,61.7846,-0.004084
28.063,61.8318,-0.004084
28.094,61.8815,-0.004084
28.125,61.9279,-0.013973
28.155,61.9734,-0.013973
28.186,62.0180,-0.013973
28.216,62.0634,-0.013973
28.248,62.1093,-0.013973
28.279,62.1517,-0.013973
28.310,62.1958,-0.013973
28.341,62.2378,-0.013973
28.372,62.2800,-0.013973
28.403,62.3213,-0.013973
28.435,62.3623,-0.035042
28.466,62.4020,-0.035042
28.497,62.4400,-0.035042
28.523,62.4718,-0.035042
28.557,62.5126,-0.035042
28.589,62.5508,-0.035042
28.621,62.5871,-0.035042
28.653,62.6234,-0.072031
28.684,62.6576,-0.072031
28.714,62.6905,-0.072031
28.746,62.7240,-0.072031
28.776,62.7561,-0.072031
28.807,62.7879,-0.072031
28.838,62.8182,-0.072031
28.869,62.8476,-0.072031
28.899,62.8764,-0.072031
28.931,62.9056,-0.120482
28.962,62.9340,-0.120482
28.994,62.9611,-0.120482
29.024,62.9868,-0.120482
29.055,63.0123,-0.120482
29.086,63.0374,-0.120482
29.116,63.0610,-0.120482
29.148,63.0848,-0.175265
29.179,63.1073,-0.175265
29.209,63.1287,-0.175265
29.240,63.1503,-0.175265
29.272,63.1708,-0.175265
29.302,63.1908,-0.175265
29.333,63.2094,-0.175265
29.364,63.2278,-0.175265
29.394,63.2450,-0.263565
29.426,63.2626,-0.263565
29.456,63.2780,-0.263565
29.488,63.2937,-0.263565
29.518,63.3079,-0.263565
29.550,63.3226,-0.263565
29.580,63.3353,-0.263565
29.611,63.3482,-0.263565
29.642,63.3597,-0.436346
29.673,63.3713,-0.436346
29.704,63.3813,-0.436346
29.736,63.3912,-0.436346
29.767,63.4002,-0.436346
29.798,63.4085,-0.436346
29.829,63.4157,-0.436346
29.859,63.4224,-0.436346
29.890,63.4282,-0.670553
29.920,63.4335,-0.670553
29.951,63.4381,-0.670553
29.982,63.4418,-0.670553
30.013,63.4451,-0.670553
30.048,63.4477,-0.670553
30.074,63.4490,-0.670553
30.105,63.4500,-0.670553
30.136,63.4503,-0.670553
30.167,63.4503,-0.838534
30.197,63.4503,-0.838534
30.228,63.4503,-0.838534
30.259,63.4503,-0.838534
30.291,63.4503,-0.838534
30.321,63.4503,-0.838534
30.352,63.4503,-0.838534
30.383,63.4503,-0.751918
30.415,63.4503,-0.751918
30.446,63.4503,-0.751918
30.477,63.4503,-0.751918
30.508,63.4503,-0.751918
30.539,63.4503,-0.751918
30.571,63.4503,-0.751918
30.602,63.4503,-0.751918
30.634,63.4503,-0.537142
30.664,63.4503,-0.537142
30.695,63.4503,-0.537142
30.726,63.4503,-0.537142
30.757,63.4503,-0.537142
30.787,63.4503,-0.537142
30.818,63.4503,-0.537142
30.848,63.4503,-0.537142
30.878,63.4503,-0.416811
30.910,63.4503,-0.416811
30.941,63.4503,-0.416811
30.972,63.4503,-0.416811
31.002,63.4503,-0.416811
31.033,63.4503,-0.416811
31.064,63.4503,-0.416811
31.095,63.4503,-0.416811
31.126,63.4503,-0.354623
31.157,63.4503,-0.354623
31.189,63.4503,-0.354623
31.220,63.4503,-0.354623
31.249,63.4503,-0.354623
31.281,63.4503,-0.354623
31.312,63.4503,-0.354623
31.343,63.4503,-0.354623
31.374,63.4503,-0.318264
31.405,63.4503,-0.318264
31.436,63.4503,-0.318264
31.467,63.4503,-0.318264
31.498,63.4503,-0.318264
31.532,63.4503,-0.318264
31.561,63.4503,-0.318264
31.593,63.4503,-0.318264
31.627,63.4503,-0.295295
31.656,63.4503,-0.295295
31.687,63.4503,-0.295295
31.718,63.4503,-0.295295
31.750,63.4503,-0.295295
31.781,63.4503,-0.295295
31.812,63.4503,-0.295295
31.843,63.4503,-0.295295
31.874,63.4503,-0.295295
31.905,63.4503,-0.278959
31.936,63.4503,-0.278959
31.967,63.4503,-0.278959
31.998,63.4503,-0.278959
32.029,63.4503,-0.278959
32.059,63.4503,-0.278959
32.089,63.4503,-0.278959
32.120,63.4503,-0.278959
32.151,63.4503,-0.266379
32.183,63.4503,-0.266379
32.213,63.4503,-0.266379
32.244,63.4503,-0.266379
32.275,63.4503,-0.266379
32.306,63.4503,-0.266379
32.337,63.4503,-0.266379
32.370,63.4503,-0.266379
32.399,63.4503,-0.266379
32.431,63.4503,-0.256395
32.462,63.4503,-0.256395
32.492,63.4503,-0.256395
32.522,63.4503,-0.256395
32.554,63.4503,-0.256395
32.585,63.4503,-0.256395
32.616,63.4503,-0.248303
32.647,63.4503,-0.248303
32.679,63.4503,-0.248303
32.709,63.4503,-0.248303
32.740,63.4503,-0.248303
32.773,63.4503,-0.248303
32.803,63.4503,-0.248303
32.834,63.4503,-0.248303
32.865,63.4503,-0.248303
32.896,63.4503,-0.241509
32.927,63.4503,-0.241509
32.959,63.4503,-0.241509
32.989,63.4503,-0.241509
33.021,63.4503,-0.241509
33.052,63.4503,-0.241509
33.083,63.4503,-0.241509
33.114,63.4503,-0.235675
33.145,63.4503,-0.235675
33.177,63.4503,-0.235675
33.207,63.4503,-0.235675
33.239,63.4503,-0.235675
33.270,63.4503,-0.235675
33.301,63.4503,-0.235675
33.332,63.4503,-0.235675
33.363,63.4503,-0.235675
33.394,63.4503,-0.235675
33.425,63.4503,-0.230631
33.456,63.4503,-0.230631
33.487,63.4503,-0.230631
33.519,63.4503,-0.230631
33.549,63.4503,-0.230631
33.581,63.4503,-0.230631
33.612,63.4503,-0.230631
33.644,63.4503,-0.226209
33.675,63.4503,-0.226209
33.707,63.4503,-0.226209
33.739,63.4503,-0.226209
33.771,63.4503,-0.226209
33.802,63.4503,-0.226209
33.833,63.4503,-0.226209
33.864,63.4503,-0.226209
33.894,63.4503,-0.226209
33.925,63.4503,-0.222323
33.956,63.4503,-0.222323
33.987,63.4503,-0.222323
34.019,63.4503,-0.222323
34.050,63.4503,-0.222323
34.081,63.4503,-0.222323
34.112,63.4503,-0.222323
34.143,63.4503,-0.218841
34.174,63.4503,-0.218841
34.204,63.4503,-0.218841
34.235,63.4503,-0.218841
34.266,63.4503,-0.218841
34.297,63.4503,-0.218841
34.327,63.4503,-0.218841
34.359,63.4503,-0.218841
34.391,63.4503,-0.215745
34.421,63.4503,-0.215745
34.451,63.4503,-0.215745
34.483,63.4503,-0.215745
34.514,63.4503,-0.215745
34.544,63.4503,-0.215745
34.575,63.4503,-0.215745
34.605,63.4503,-0.215745
34.636,63.4503,-0.215745
34.667,63.4503,-0.212932
34.698,63.4503,-0.212932
34.730,63.4503,-0.212932
34.760,63.4503,-0.212932
34.791,63.4503,-0.212932
34.822,63.4503,-0.212932
34.853,63.4503,-0.212932
34.885,63.4503,-0.212932
34.916,63.4503,-0.210043
34.947,63.4503,-0.210043
34.978,63.4503,-0.210043
35.009,63.4503,-0.210043
35.041,63.4503,-0.210043
35.072,63.4503,-0.210043
35.103,63.4503,-0.210043
35.134,63.4503,-0.210043
35.165,63.4503,-0.207276
35.196,63.4500,-0.207276
35.227,63.4490,-0.207276
35.257,63.4473,-0.207276
35.288,63.4448,-0.207276
35.319,63.4416,-0.207276
35.349,63.4377,-0.207276
35.382,63.4329,-0.207276
35.411,63.4278,-0.189059
35.442,63.4216,-0.189059
35.473,63.4148,-0.189059
35.504,63.4074,-0.189059
35.535,63.3988,-0.189059
35.567,63.3900,-0.189059
35.598,63.3802,-0.189059
35.629,63.3699,-0.189059
35.659,63.3589,0.326958
35.691,63.3467,0.326958
35.722,63.3343,0.326958
35.753,63.3203,0.326958
35.785,63.3063,0.326958
35.815,63.2916,0.326958
35.846,63.2765,0.326958
35.876,63.2599,0.326958
35.908,63.2430,0.469186
35.939,63.2253,0.469186
35.971,63.2062,0.469186
36.002,63.1867,0.469186
36.033,63.1667,0.469186
36.063,63.1467,0.469186
36.095,63.1250,0.469186
36.127,63.1024,0.469186
36.158,63.0789,0.113942
36.190,63.0546,0.113942
36.222,63.0296,0.113942
36.253,63.0039,0.113942
36.284,62.9786,0.113942
36.315,62.9514,0.113942
36.346,62.9253,0.113942
36.376,62.8971,0.113942
36.407,62.8692,0.129863
36.439,62.8388,0.129863
36.470,62.8092,0.129863
36.502,62.7764,0.129863
36.532,62.7462,0.129863
36.563,62.7125,0.129863
36.595,62.6798,0.129863
36.627,62.6444,0.129863
36.657,62.6110,0.162392
36.688,62.5761,0.162392
36.720,62.5386,0.162392
36.752,62.5005,0.162392
36.782,62.4628,0.162392
36.813,62.4247,0.162392
36.845,62.3860,0.162392
36.874,62.3478,0.162392
36.906,62.3074,0.199749
36.936,62.2658,0.199749
36.967,62.2259,0.199749
36.998,62.1818,0.199749
37.030,62.1385,0.199749
37.060,62.0939,0.199749
37.091,62.0503,0.199749
37.123,62.0033,0.199749
37.154,61.9576,0.226303
37.184,61.9103,0.226303
37.215,61.8630,0.226303
37.246,61.8159,0.226303
37.277,61.7669,0.226303
37.308,61.7169,0.226303
37.339,61.6659,0.226303
37.369,61.6166,0.226303
37.399,61.5651,0.226303
37.429,61.5153,0.231770
37.460,61.4613,0.231770
37.490,61.4090,0.231770
37.522,61.3529,0.231770
37.552,61.2987,0.231770
37.583,61.2408,0.231770
37.614,61.1839,0.231770
37.646,61.1253,0.240634
37.676,61.0681,0.240634
37.708,61.0064,0.240634
37.742,60.9408,0.240634
37.769,60.8889,0.240634
37.799,60.8308,0.240634
37.831,60.7711,0.240634
37.862,60.7118,0.252217
37.894,60.6530,0.252217
37.925,60.5960,0.252217
37.957,60.5388,0.252217
37.988,60.4825,0.252217
38.020,60.4261,0.252217
38.051,60.3716,0.252217
38.082,60.3198,0.252217
38.113,60.2677,0.252217
38.144,60.2149,0.137306
38.177,60.1607,0.137306
38.206,60.1138,0.137306
38.233,60.0690,0.137306
38.269,60.0136,0.137306
38.299,59.9672,0.137306
38.329,59.9211,0.137306
38.360,59.8747,0.018217
38.391,59.8287,0.018217
38.422,59.7829,0.018217
38.453,59.7381,0.018217
38.485,59.6936,0.018217
38.516,59.6503,0.018217
38.547,59.6085,0.018217
38.578,59.5665,0.018217
38.609,59.5254,0.018217
38.641,59.4841,0.014058
38.672,59.4449,0.014058
38.703,59.4064,0.014058
38.734,59.3684,0.014058
38.766,59.3302,0.014058
38.797,59.2931,0.014058
38.830,59.2559,0.014058
38.860,59.2227,0.014058
38.890,59.1886,0.012938
38.921,59.1561,0.012938
38.951,59.1235,0.012938
38.983,59.0905,0.012938
39.013,59.0603,0.012938
39.044,59.0303,0.012938
39.074,59.0002,0.012938
39.105,58.9717,0.012938
39.136,58.9431,0.012938
39.167,58.9158,0.012374
39.198,58.8886,0.012374
39.228,58.8634,0.012374
39.258,58.8376,0.012374
39.289,58.8134,0.012374
39.320,58.7891,0.012374
39.351,58.7660,0.012374
39.382,58.7430,0.012374
39.414,58.7208,0.011931
39.444,58.7002,0.011931
39.475,58.6791,0.011931
39.505,58.6600,0.011931
39.537,58.6401,0.011931
39.567,58.6223,0.011931
39.599,58.6044,0.011931
39.631,58.5869,0.011931
39.661,58.5713,0.011546
39.692,58.5558,0.011546
39.724,58.5408,0.011546
39.755,58.5269,0.011546
39.786,58.5140,0.011546
39.817,58.5015,0.011546
39.848,58.4893,0.011546
39.879,58.4783,0.011245
39.912,58.4677,0.011245
39.941,58.4584,0.011245
39.972,58.4499,0.011245
40.003,58.4416,0.011245
40.034,58.4341,0.011245
40.066,58.4273,0.011245
40.097,58.4215,0.011245
40.129,58.4162,0.011245
40.159,58.4118,0.011028
40.191,58.4080,0.011028
40.222,58.4050,0.011028
40.254,58.4028,0.011028
40.285,58.4011,0.011028
40.316,58.4004,0.011028
40.347,58.4003,0.011028
40.378,58.4003,0.011028
40.408,58.4003,0.010859
40.440,58.4003,0.010859
40.471,58.4003,0.010859
40.502,58.4003,0.010859
40.533,58.4003,0.010859
40.563,58.4007,0.010859
40.594,58.4018,0.010859
40.626,58.4038,0.010859
40.657,58.4065,0.010746
40.689,58.4098,0.010746
40.720,58.4139,0.010746
40.751,58.4188,0.010746
40.782,58.4243,0.010746
40.813,58.4308,0.010746
40.843,58.4374,0.010746
40.873,58.4452,0.010746
40.904,58.4535,0.010492
40.935,58.4627,0.010492
40.967,58.4726,0.010492
40.998,58.4833,0.010492
41.031,58.4957,0.010492
41.060,58.5066,0.010492
41.090,58.5196,0.010492
41.122,58.5331,0.010492
41.153,58.5476,0.010191
41.184,58.5623,0.010191
41.215,58.5786,0.010191
41.246,58.5945,0.010191
41.277,58.6119,0.010191
41.307,58.6296,0.010191
41.339,58.6486,0.010191
41.370,58.6679,0.010191
41.402,58.6879,0.009918
41.433,58.7095,0.009918
41.467,58.7330,0.009918
41.496,58.7537,0.009918
41.526,58.7766,0.009918
41.558,58.8003,0.009918
41.589,58.8249,0.009918
41.619,58.8497,0.009918
41.650,58.8760,0.009457
41.681,58.9022,0.009457
41.713,58.9305,0.009457
41.744,58.9586,0.009457
41.776,58.9883,0.009457
41.806,59.0168,0.009457
41.837,59.0478,0.009457
41.867,59.0774,0.008873
41.899,59.1108,0.008873
41.931,59.1432,0.008873
41.961,59.1759,0.008873
41.992,59.2093,0.008873
42.023,59.2440,0.008873
42.055,59.2810,0.008873
42.086,59.3169,0.008873
42.118,59.3553,0.008111
42.149,59.3925,0.008111
42.179,59.4303,0.008111
42.211,59.4701,0.008111
42.243,59.5119,0.008111
42.273,59.5507,0.008111
42.305,59.5926,0.008111
42.338,59.6373,0.008111
42.368,59.6786,0.007133
42.399,59.7234,0.007133
42.429,59.7660,0.007133
42.460,59.8119,0.007133
42.492,59.8567,0.007133
42.522,59.9026,0.007133
42.553,59.9491,0.007133
42.584,59.9973,0.007133
42.615,60.0459,0.005853
42.646,60.0969,0.005853
42.678,60.1470,0.005853
42.708,60.1955,0.005853
42.738,60.2477,0.005853
42.769,60.2991,0.005853
42.801,60.3533,0.005853
42.831,60.4052,0.005853
42.862,60.4607,0.005853
42.893,60.5162,0.005853
42.925,60.5724,0.004121
42.956,60.6287,0.004121
42.991,60.6935,0.004121
43.018,60.7444,0.004121
43.049,60.8031,0.004121
43.080,60.8621,0.004121
43.111,60.9234,0.004121
43.143,60.9839,0.004121
43.174,61.0435,0.001308
43.205,61.1016,0.001308
43.237,61.1608,0.001308
43.267,61.2157,0.001308
43.298,61.2715,0.001308
43.329,61.3262,0.001308
43.360,61.3799,0.001308
43.391,61.4341,-0.003312
43.421,61.4866,-0.003312
43.452,61.5401,-0.003312
43.484,61.5920,-0.003312
43.515,61.6432,-0.003312
43.548,61.6973,-0.003312
43.575,61.7406,-0.003312
43.607,61.7902,-0.003312
43.637,61.8370,-0.003312
43.671,61.8892,-0.011913
43.700,61.9317,-0.011913
43.731,61.9782,-0.011913
43.762,62.0233,-0.011913
43.792,62.0673,-0.011913
43.825,62.1112,-0.011913
43.856,62.1556,-0.011913
43.887,62.1973,-0.030421
43.918,62.2394,-0.030421
43.949,62.2800,-0.030421
43.981,62.3203,-0.030421
44.011,62.3592,-0.030421
44.043,62.3981,-0.030421
44.074,62.4370,-0.030421
44.100,62.4680,-0.030421
44.136,62.5098,-0.064786
44.167,62.5449,-0.064786
44.198,62.5814,-0.064786
44.229,62.6153,-0.064786
44.260,62.6477,-0.064786
44.291,62.6811,-0.064786
44.323,62.7138,-0.064786
44.354,62.7449,-0.064786
44.385,62.7763,-0.111919
44.417,62.8062,-0.111919
44.449,62.8360,-0.111919
44.480,62.8644,-0.111919
44.511,62.8927,-0.111919
44.542,62.9186,-0.111919
44.573,62.9452,-0.111919
44.604,62.9699,-0.111919
44.635,62.9953,-0.165714
44.666,63.0188,-0.165714
44.696,63.0415,-0.165714
44.728,63.0643,-0.165714
44.759,63.0863,-0.165714
44.791,63.1077,-0.165714
44.823,63.1287,-0.165714
44.854,63.1488,-0.165714
44.886,63.1677,-0.165714
44.916,63.1857,-0.244078
44.947,63.2026,-0.244078
44.978,63.2191,-0.244078
45.010,63.2352,-0.244078
45.040,63.2502,-0.244078
45.072,63.2652,-0.244078
45.103,63.2789,-0.244078
45.134,63.2914,-0.244078
45.165,63.3038,-0.244078
45.195,63.3150,-0.402349
45.225,63.3255,-0.402349
45.257,63.3357,-0.402349
45.287,63.3450,-0.402349
45.320,63.3540,-0.402349
45.350,63.3617,-0.402349
45.381,63.3688,-0.402349
45.412,63.3752,-0.630138
45.444,63.3811,-0.630138
45.476,63.3860,-0.630138
45.506,63.3901,-0.630138
45.538,63.3937,-0.630138
45.569,63.3964,-0.630138
45.600,63.3984,-0.630138
45.630,63.3997,-0.630138
45.661,63.4003,-0.821079
45.692,63.4003,-0.821079
45.723,63.4003,-0.821079
45.755,63.4003,-0.821079
45.787,63.4003,-0.821079
45.818,63.4003,-0.821079
45.849,63.4003,-0.821079
45.880,63.4003,-0.776929
45.910,63.4003,-0.776929
45.942,63.4003,-0.776929
45.976,63.4003,-0.776929
46.003,63.4003,-0.776929
46.034,63.4003,-0.776929
46.065,63.4003,-0.776929
46.096,63.4003,-0.776929
46.127,63.4003,-0.566811
46.158,63.4003,-0.566811
46.189,63.4003,-0.566811
46.224,63.4003,-0.566811
46.251,63.4003,-0.566811
46.281,63.4003,-0.566811
46.312,63.4003,-0.566811
46.344,63.4003,-0.566811
46.375,63.4003,-0.428507
46.409,63.4003,-0.428507
46.436,63.4003,-0.428507
46.468,63.4003,-0.428507
46.499,63.4003,-0.428507
46.530,63.4003,-0.428507
46.561,63.4003,-0.428507
46.592,63.4003,-0.428507
46.624,63.4003,-0.359949
46.655,63.4003,-0.359949
46.685,63.4003,-0.359949
46.717,63.4003,-0.359949
46.748,63.4003,-0.359949
46.779,63.4003,-0.359949
46.810,63.4003,-0.359949
46.840,63.4003,-0.359949
46.872,63.4003,-0.320927
46.903,63.4003,-0.320927
46.934,63.4003,-0.320927
46.966,63.4003,-0.320927
46.997,63.4003,-0.320927
47.027,63.4003,-0.320927
47.059,63.4003,-0.320927
47.089,63.4003,-0.320927
47.120,63.4003,-0.296998
47.151,63.4003,-0.296998
47.181,63.4003,-0.296998
47.212,63.4003,-0.296998
47.243,63.4003,-0.296998
47.273,63.4003,-0.296998
47.304,63.4003,-0.296998
47.336,63.4003,-0.296998
47.367,63.4003,-0.296998
47.398,63.4003,-0.279985
47.429,63.4003,-0.279985
47.459,63.4003,-0.279985
47.490,63.4003,-0.279985
47.521,63.4003,-0.279985
47.552,63.4003,-0.279985
47.583,63.4003,-0.279985
47.614,63.4003,-0.279985
47.644,63.4003,-0.266971
47.675,63.4003,-0.266971
47.705,63.4003,-0.266971
47.736,63.4003,-0.266971
47.768,63.4003,-0.266971
47.799,63.4003,-0.266971
47.830,63.4003,-0.266971
47.861,63.4003,-0.266971
47.892,63.4003,-0.266971
47.923,63.4003,-0.256583
47.955,63.4003,-0.256583
47.986,63.4003,-0.256583
48.016,63.4003,-0.256583
48.048,63.4003,-0.256583
48.078,63.4003,-0.256583
48.109,63.4003,-0.256583
48.140,63.4003,-0.256583
48.170,63.4003,-0.248218
48.202,63.4003,-0.248218
48.233,63.4003,-0.248218
48.264,63.4003,-0.248218
48.295,63.4003,-0.248218
48.326,63.4003,-0.248218
48.358,63.4003,-0.248218
48.390,63.4003,-0.241245
48.421,63.4003,-0.241245
48.451,63.4003,-0.241245
48.483,63.4003,-0.241245
48.513,63.4003,-0.241245
48.544,63.4003,-0.241245
48.575,63.4003,-0.241245
48.606,63.4003,-0.241245
48.638,63.4003,-0.235308
48.669,63.4003,-0.235308
48.701,63.4003,-0.235308
48.731,63.4003,-0.235308
48.763,63.4003,-0.235308
48.794,63.4003,-0.235308
48.825,63.4003,-0.235308
48.855,63.4003,-0.235308
48.887,63.4003,-0.235308
48.917,63.4003,-0.230264
48.947,63.4003,-0.230264
48.978,63.4003,-0.230264
49.009,63.4003,-0.230264
49.041,63.4003,-0.230264
49.071,63.4003,-0.230264
49.102,63.4003,-0.230264
49.134,63.4003,-0.225804
49.163,63.4003,-0.225804
49.194,63.4003,-0.225804
49.224,63.4003,-0.225804
49.255,63.4003,-0.225804
49.286,63.4003,-0.225804
49.318,63.4003,-0.225804
49.348,63.4003,-0.225804
49.379,63.4003,-0.221890
49.411,63.4003,-0.221890
49.442,63.4003,-0.221890
49.473,63.4003,-0.221890
49.504,63.4003,-0.221890
49.535,63.4003,-0.221890
49.566,63.4003,-0.221890
49.597,63.4003,-0.221890
49.628,63.4003,-0.218408
49.658,63.4003,-0.218408
49.688,63.4003,-0.218408
49.719,63.4003,-0.218408
49.751,63.4003,-0.218408
49.782,63.4003,-0.218408
49.813,63.4003,-0.218408
49.844,63.4003,-0.218408
49.874,63.4003,-0.215294
49.907,63.4003,-0.215294
49.937,63.4003,-0.215294
49.970,63.4003,-0.215294
50.000,63.4003,-0.215294
50.031,63.4003,-0.215294
50.062,63.4003,-0.215294
50.093,63.4003,-0.215294
50.123,63.4003,-0.212480
50.156,63.4003,-0.212480
50.185,63.4003,-0.212480
50.216,63.4003,-0.212480
50.248,63.4003,-0.212480
50.279,63.4003,-0.212480
50.310,63.4003,-0.212480
50.341,63.4003,-0.212480
50.373,63.4003,-0.209554
50.403,63.4003,-0.209554
50.435,63.4003,-0.209554
50.466,63.4003,-0.209554
50.498,63.4003,-0.209554
50.530,63.4003,-0.209554
50.560,63.4003,-0.209554
50.591,63.4003,-0.209554
50.622,63.4003,-0.209554
50.654,63.4003,-0.206750
50.685,63.4003,-0.206750
50.715,63.4000,-0.206750
50.747,63.3992,-0.206750
50.778,63.3974,-0.206750
50.809,63.3952,-0.206750
50.840,63.3921,-0.206750
50.870,63.3884,-0.194846
50.901,63.3838,-0.194846
50.931,63.3787,-0.194846
50.962,63.3726,-0.194846
50.993,63.3662,-0.194846
51.024,63.3586,-0.194846
51.056,63.3502,-0.194846
51.087,63.3415,-0.194846
51.118,63.3318,0.270773
51.150,63.3212,0.270773
51.180,63.3102,0.270773
51.211,63.2983,0.270773
51.241,63.2863,0.270773
51.272,63.2732,0.270773
51.303,63.2590,0.270773
51.334,63.2448,0.270773
51.364,63.2294,0.270773
51.395,63.2130,0.419512
51.427,63.1963,0.419512
51.458,63.1788,0.419512
51.489,63.1605,0.419512
51.520,63.1412,0.419512
51.551,63.1210,0.419512
51.583,63.1004,0.419512
51.614,63.0789,0.419512
51.645,63.0571,0.113744
51.675,63.0349,0.113744
51.706,63.0116,0.113744
51.737,62.9873,0.113744
51.767,62.9632,0.113744
51.798,62.9376,0.113744
51.829,62.9111,0.113744
51.859,62.8845,0.113744
51.891,62.8571,0.127943
51.924,62.8254,0.127943
51.953,62.7986,0.127943
51.985,62.7675,0.127943
52.016,62.7361,0.127943
52.047,62.7053,0.127943
52.078,62.6739,0.127943
52.109,62.6409,0.127943
52.140,62.6077,0.159899
52.171,62.5727,0.159899
52.201,62.5387,0.159899
52.232,62.5021,0.159899
52.263,62.4669,0.159899
52.294,62.4289,0.159899
52.325,62.3915,0.159899
52.356,62.3528,0.159899
52.387,62.3140,0.198751
52.418,62.2734,0.198751
52.449,62.2335,0.198751
52.480,62.1904,0.198751
52.511,62.1488,0.198751
52.542,62.1049,0.198751
52.572,62.0636,0.198751
52.601,62.0210,0.198751
52.633,61.9756,0.231855
52.664,61.9294,0.231855
52.695,61.8820,0.231855
52.725,61.8363,0.231855
52.757,61.7864,0.231855
52.789,61.7368,0.231855
52.819,61.6873,0.231855
52.851,61.6378,0.231855
52.882,61.5869,0.241885
52.913,61.5347,0.241885
52.943,61.4841,0.241885
52.974,61.4305,0.241885
53.005,61.3765,0.241885
53.036,61.3212,0.241885
53.067,61.2667,0.241885
53.099,61.2073,0.241885
53.129,61.1538,0.246844
53.161,61.0942,0.246844
53.191,61.0384,0.246844
53.222,60.9777,0.246844
53.253,60.9189,0.246844
53.284,60.8583,0.246844
53.315,60.7983,0.246844
53.345,60.7409,0.246844
53.377,60.6813,0.246844
53.409,60.6214,0.262398
53.439,60.5661,0.262398
53.470,60.5087,0.262398
53.501,60.4539,0.262398
53.534,60.3956,0.262398
53.563,60.3440,0.262398
53.594,60.2901,0.262398
53.625,60.2377,0.151035
53.658,60.1827,0.151035
53.687,60.1347,0.151035
53.718,60.0837,0.151035
53.750,60.0327,0.151035
53.781,59.9843,0.151035
53.812,59.9351,0.151035
53.843,59.8871,0.151035
53.877,59.8359,0.023468
53.905,59.7946,0.023468
53.937,59.7482,0.023468
53.968,59.7029,0.023468
53.999,59.6579,0.023468
54.030,59.6153,0.023468
54.061,59.5727,0.023468
54.092,59.5312,0.023468
54.123,59.4897,0.023468
54.153,59.4504,0.023468
54.184,59.4101,0.014387
54.216,59.3710,0.014387
54.248,59.3311,0.014387
54.280,59.2930,0.014387
54.311,59.2559,0.014387
54.342,59.2203,0.014387
54.373,59.1842,0.014387
54.405,59.1493,0.012948
54.437,59.1145,0.012948
54.469,59.0810,0.012948
54.498,59.0507,0.012948
54.530,59.0180,0.012948
54.560,58.9874,0.012948
54.593,58.9562,0.012948
54.622,58.9286,0.012317
54.653,58.9007,0.012317
54.683,58.8727,0.012317
54.714,58.8455,0.012317
54.745,58.8187,0.012317
54.777,58.7933,0.012317
54.807,58.7684,0.012317
54.838,58.7437,0.012317
54.869,58.7209,0.012317
54.900,58.6974,0.012317
54.930,58.6760,0.011969
54.960,58.6551,0.011969
54.993,58.6336,0.011969
55.022,58.6143,0.011969
55.053,58.5957,0.011969
55.084,58.5771,0.011969
55.114,58.5598,0.011969
55.145,58.5430,0.011969
55.176,58.5265,0.011612
55.207,58.5110,0.011612
55.238,58.4962,0.011612
55.269,58.4818,0.011612
55.300,58.4685,0.011612
55.330,58.4557,0.011612
55.361,58.4437,0.011612
55.393,58.4323,0.011301
55.424,58.4216,0.011301
55.455,58.4118,0.011301
55.486,58.4028,0.011301
55.517,58.3943,0.011301
55.548,58.3865,0.011301
55.579,58.3798,0.011301
55.611,58.3734,0.011301
55.644,58.3677,0.011301
55.673,58.3633,0.011103
55.704,58.3592,0.011103
55.735,58.3560,0.011103
55.765,58.3536,0.011103
55.796,58.3518,0.011103
55.827,58.3507,0.011103
55.861,58.3503,0.011103
55.889,58.3503,0.011103
55.920,58.3503,0.010906
55.951,58.3503,0.010906
55.981,58.3503,0.010906
56.012,58.3505,0.010906
56.046,58.3518,0.010906
56.074,58.3534,0.010906
56.106,58.3559,0.010906
56.136,58.3590,0.010906
56.163,58.3625,0.010774
56.198,58.3675,0.010774
56.230,58.3730,0.010774
56.260,58.3788,0.010774
56.291,58.3858,0.010774
56.321,58.3931,0.010774
56.353,58.4016,0.010774
56.384,58.4105,0.010511
56.414,58.4198,0.010511
56.445,58.4304,0.010511
56.475,58.4411,0.010511
56.506,58.4532,0.010511
56.537,58.4654,0.010511
56.568,58.4792,0.010511
56.599,58.4928,0.010511
56.630,58.5079,0.010200
56.661,58.5229,0.010200
56.691,58.5388,0.010200
56.723,58.5564,0.010200
56.754,58.5740,0.010200
56.785,58.5926,0.010200
56.815,58.6115,0.010200
56.846,58.6307,0.010200
56.878,58.6522,0.009965
56.909,58.6731,0.009965
56.940,58.6958,0.009965
56.972,58.7188,0.009965
57.004,58.7435,0.009965
57.034,58.7665,0.009965
57.065,58.7922,0.009965
57.097,58.8181,0.009965
57.129,58.8454,0.009965
57.159,58.8724,0.009523
57.190,58.9006,0.009523
57.222,58.9290,0.009523
57.252,58.9585,0.009523
57.283,58.9883,0.009523
57.314,59.0195,0.009523
57.345,59.0504,0.009523
57.377,59.0835,0.008939
57.407,59.1160,0.008939
57.439,59.1500,0.008939
57.468,59.1827,0.008939
57.499,59.2180,0.008939
57.531,59.2552,0.008939
57.563,59.2925,0.008939
57.595,59.3310,0.008939
57.626,59.3695,0.008168
57.657,59.4077,0.008168
57.688,59.4474,0.008168
57.719,59.4875,0.008168
57.750,59.5288,0.008168
57.780,59.5708,0.008168
57.812,59.6134,0.008168
57.842,59.6559,0.008168
57.874,59.7007,0.007198
57.905,59.7452,0.007198
57.936,59.7922,0.007198
57.968,59.8392,0.007198
57.998,59.8842,0.007198
58.029,59.9313,0.007198
58.061,59.9811,0.007198
58.092,60.0304,0.007198
58.123,60.0798,0.005881
58.154,60.1302,0.005881
58.185,60.1825,0.005881
58.216,60.2332,0.005881
58.247,60.2873,0.005881
58.277,60.3389,0.005881
58.309,60.3933,0.005881
58.339,60.4474,0.005881
58.371,60.5038,0.003896
58.402,60.5609,0.003896
58.433,60.6171,0.003896
58.464,60.6762,0.003896
58.495,60.7349,0.003896
58.526,60.7942,0.003896
58.557,60.8536,0.003896
58.588,60.9139,0.003896
58.619,60.9727,0.000602
58.650,61.0314,0.000602
58.681,61.0885,0.000602
58.711,61.1458,0.000602
58.742,61.2017,0.000602
58.774,61.2573,0.000602
58.805,61.3125,0.000602
58.836,61.3674,0.000602
58.863,61.4136,0.000602
58.898,61.4718,-0.004630
58.928,61.5246,-0.004630
58.959,61.5745,-0.004630
58.991,61.6258,-0.004630
59.021,61.6744,-0.004630
59.052,61.7239,-0.004630
59.083,61.7722,-0.004630
59.113,61.8177,-0.004630
59.144,61.8648,-0.004630
59.176,61.9125,-0.014472
59.206,61.9559,-0.014472
59.237,62.0002,-0.014472
59.267,62.0437,-0.014472
59.298,62.0869,-0.014472
59.329,62.1300,-0.014472
59.361,62.1713,-0.014472
59.392,62.2131,-0.014472
59.422,62.2523,-0.035729
59.453,62.2921,-0.035729
59.484,62.3311,-0.035729
59.515,62.3694,-0.035729
59.548,62.4081,-0.035729
59.579,62.4459,-0.035729
59.610,62.4807,-0.035729
59.641,62.5164,-0.073198
59.671,62.5499,-0.073198
59.703,62.5846,-0.073198
59.734,62.6172,-0.073198
59.765,62.6501,-0.073198
59.796,62.6807,-0.073198
59.827,62.7121,-0.073198
59.858,62.7422,-0.073198
59.889,62.7722,-0.121799
59.921,62.8010,-0.121799
59.951,62.8289,-0.121799
59.981,62.8551,-0.121799
60.013,62.8819,-0.121799
60.044,62.9080,-0.121799
60.076,62.9332,-0.121799
60.108,62.9588,-0.121799
60.139,62.9820,-0.177194
60.170,63.0045,-0.177194
60.200,63.0264,-0.177194
60.232,63.0483,-0.177194
60.263,63.0688,-0.177194
60.294,63.0886,-0.177194
60.324,63.1073,-0.177194
60.356,63.1259,-0.177194
60.388,63.1442,-0.266397
60.419,63.1614,-0.266397
60.450,63.1775,-0.266397
60.481,63.1934,-0.266397
60.512,63.2077,-0.266397
60.543,63.2221,-0.266397
60.574,63.2352,-0.266397
60.605,63.2481,-0.266397
60.637,63.2600,-0.442641
60.668,63.2713,-0.442641
60.699,63.2815,-0.442641
60.730,63.2913,-0.442641
60.762,63.3003,-0.442641
60.792,63.3085,-0.442641
60.824,63.3158,-0.442641
60.855,63.3228,-0.442641
60.886,63.3286,-0.676904
60.917,63.3338,-0.676904
60.947,63.3384,-0.676904
60.979,63.3422,-0.676904
61.010,63.3453,-0.676904
61.041,63.3476,-0.676904
61.072,63.3492,-0.676904
61.103,63.3502,-0.676904
61.134,63.3503,-0.838835
61.166,63.3503,-0.838835
61.197,63.3503,-0.838835
61.229,63.3503,-0.838835
61.259,63.3503,-0.838835
61.290,63.3503,-0.838835
61.322,63.3503,-0.838835
61.354,63.3503,-0.838835
61.384,63.3503,-0.750102
61.415,63.3503,-0.750102
61.448,63.3503,-0.750102
61.477,63.3503,-0.750102
61.508,63.3503,-0.750102
61.539,63.3503,-0.750102
61.570,63.3503,-0.750102
61.600,63.3503,-0.750102
61.625,63.3503,-0.750102
61.663,63.3503,-0.539673
61.694,63.3503,-0.539673
61.725,63.3503,-0.539673
61.756,63.3503,-0.539673
61.788,63.3503,-0.539673
61.819,63.3503,-0.539673
61.850,63.3503,-0.539673
61.881,63.3503,-0.539673
61.912,63.3503,-0.423934
61.943,63.3503,-0.423934
61.974,63.3503,-0.423934
62.006,63.3503,-0.423934
62.037,63.3503,-0.423934
62.067,63.3503,-0.423934
62.098,63.3503,-0.423934
62.130,63.3503,-0.362668
62.160,63.3503,-0.362668
62.192,63.3503,-0.362668
62.223,63.3503,-0.362668
62.254,63.3503,-0.362668
62.285,63.3503,-0.362668
62.315,63.3503,-0.362668
62.347,63.3503,-0.362668
62.379,63.3503,-0.362668
62.408,63.3503,-0.324756
62.439,63.3503,-0.324756
62.471,63.3503,-0.324756
62.502,63.3503,-0.324756
62.533,63.3503,-0.324756
62.564,63.3503,-0.324756
62.595,63.3503,-0.324756
62.627,63.3503,-0.324756
62.658,63.3503,-0.324756
62.689,63.3503,-0.298936
62.720,63.3503,-0.298936
62.752,63.3503,-0.298936
62.781,63.3503,-0.298936
62.814,63.3503,-0.298936
62.844,63.3503,-0.298936
62.875,63.3503,-0.298936
62.905,63.3503,-0.280211
62.936,63.3503,-0.280211
62.967,63.3503,-0.280211
62.999,63.3503,-0.280211
63.029,63.3503,-0.280211
63.060,63.3503,-0.280211
63.091,63.3503,-0.280211
63.122,63.3503,-0.280211
63.154,63.3503,-0.266040
63.185,63.3503,-0.266040
63.215,63.3503,-0.266040
63.247,63.3503,-0.266040
63.278,63.3503,-0.266040
63.308,63.3503,-0.266040
63.340,63.3503,-0.266040
63.371,63.3503,-0.266040
63.402,63.3503,-0.266040
63.433,63.3503,-0.254786
63.463,63.3503,-0.254786
63.494,63.3503,-0.254786
63.525,63.3503,-0.254786
63.555,63.3503,-0.254786
63.586,63.3503,-0.254786
63.618,63.3503,-0.254786
63.648,63.3503,-0.254786
63.680,63.3503,-0.245649
63.711,63.3503,-0.245649
63.744,63.3503,-0.245649
63.774,63.3503,-0.245649
63.805,63.3503,-0.245649
63.836,63.3503,-0.245649
63.867,63.3503,-0.245649
63.899,63.3503,-0.238150
63.929,63.3503,-0.238150
63.960,63.3503,-0.238150
63.991,63.3503,-0.238150
64.022,63.3503,-0.238150
64.053,63.3503,-0.238150
64.084,63.3503,-0.238150
64.115,63.3503,-0.238150
64.147,63.3503,-0.231742
64.178,63.3503,-0.231742
64.208,63.3503,-0.231742
64.239,63.3503,-0.231742
64.270,63.3503,-0.231742
64.301,63.3503,-0.231742
64.332,63.3503,-0.231742
64.363,63.3503,-0.231742
64.393,63.3503,-0.226237
64.425,63.3503,-0.226237
64.456,63.3503,-0.226237
64.487,63.3503,-0.226237
64.518,63.3503,-0.226237
64.548,63.3503,-0.226237
64.579,63.3503,-0.226237
64.610,63.3503,-0.226237
64.640,63.3503,-0.221551
64.672,63.3503,-0.221551
64.703,63.3503,-0.221551
64.734,63.3503,-0.221551
64.765,63.3503,-0.221551
64.796,63.3503,-0.221551
64.826,63.3503,-0.221551
64.857,63.3503,-0.221551
64.889,63.3503,-0.217288
64.919,63.3503,-0.217288
64.950,63.3503,-0.217288
64.981,63.3503,-0.217288
65.012,63.3503,-0.217288
65.043,63.3503,-0.217288
65.074,63.3503,-0.217288
65.106,63.3503,-0.217288
65.136,63.3503,-0.213402
65.167,63.3503,-0.213402
65.199,63.3503,-0.213402
65.233,63.3503,-0.213402
65.260,63.3503,-0.213402
65.292,63.3503,-0.213402
65.322,63.3503,-0.213402
65.354,63.3503,-0.213402
65.384,63.3503,-0.210212
65.416,63.3499,-0.210212
65.447,63.3489,-0.210212
65.477,63.3471,-0.210212
65.509,63.3445,-0.210212
65.539,63.3414,-0.210212
65.570,63.3374,-0.210212
65.601,63.3327,-0.210212
65.632,63.3272,-0.199730
65.663,63.3210,-0.199730
65.694,63.3140,-0.199730
65.725,63.3068,-0.199730
65.755,63.2983,-0.199730
65.787,63.2892,-0.199730
65.818,63.2794,-0.199730
65.849,63.2691,-0.199730
65.880,63.2578,0.347876
65.911,63.2456,0.347876
65.942,63.2331,0.347876
65.972,63.2200,0.347876
66.003,63.2057,0.347876
66.033,63.1914,0.347876
66.065,63.1757,0.347876
66.096,63.1587,0.347876
66.128,63.1416,0.493820
66.159,63.1236,0.493820
66.190,63.1056,0.493820
66.221,63.0859,0.493820
66.251,63.0665,0.493820
66.283,63.0450,0.493820
66.314,63.0239,0.493820
66.345,63.0015,0.493820
66.376,62.9792,0.493820
66.407,62.9553,0.107901
66.437,62.9315,0.107901
66.468,62.9064,0.107901
66.499,62.8809,0.107901
66.530,62.8545,0.107901
66.560,62.8280,0.107901
66.590,62.8008,0.107901
66.621,62.7722,0.129722
66.652,62.7431,0.129722
66.683,62.7131,0.129722
66.714,62.6817,0.129722
66.745,62.6502,0.129722
66.776,62.6181,0.129722
66.808,62.5846,0.129722
66.839,62.5501,0.129722
66.871,62.5146,0.164171
66.901,62.4809,0.164171
66.932,62.4442,0.164171
66.962,62.4090,0.164171
66.994,62.3715,0.164171
67.024,62.3334,0.164171
67.055,62.2955,0.164171
67.086,62.2552,0.164171
67.118,62.2145,0.164171
67.149,62.1723,0.206053
67.181,62.1298,0.206053
67.212,62.0879,0.206053
67.243,62.0451,0.206053
67.274,61.9997,0.206053
67.305,61.9558,0.206053
67.335,61.9115,0.206053
67.366,61.8655,0.206053
67.397,61.8176,0.243278
67.428,61.7704,0.243278
67.458,61.7240,0.243278
67.489,61.6749,0.243278
67.520,61.6256,0.243278
67.553,61.5707,0.243278
67.582,61.5252,0.243278
67.614,61.4711,0.243278
67.643,61.4214,0.259848
67.674,61.3673,0.259848
67.707,61.3107,0.259848
67.735,61.2609,0.259848
67.766,61.2051,0.259848
67.795,61.1515,0.259848
67.826,61.0942,0.259848
67.857,61.0383,0.259848
67.888,60.9776,0.259848
67.919,60.9208,0.266087
67.950,60.8604,0.266087
67.982,60.7979,0.266087
68.011,60.7422,0.266087
68.043,60.6814,0.266087
68.074,60.6235,0.266087
68.107,60.5624,0.266087
68.136,60.5078,0.271987
68.168,60.4504,0.271987
68.200,60.3904,0.271987
68.229,60.3403,0.271987
68.260,60.2862,0.271987
68.290,60.2345,0.271987
68.323,60.1778,0.271987
68.353,60.1300,0.271987
68.384,60.0773,0.148090
68.415,60.0270,0.148090
68.446,59.9772,0.148090
68.476,59.9299,0.148090
68.507,59.8820,0.148090
68.538,59.8350,0.148090
68.568,59.7881,0.148090
68.601,59.7400,0.148090
68.631,59.6950,0.018659
68.663,59.6498,0.018659
68.693,59.6070,0.018659
68.725,59.5626,0.018659
68.756,59.5192,0.018659
68.787,59.4785,0.018659
68.819,59.4361,0.018659
68.849,59.3971,0.018659
68.880,59.3563,0.018659
68.911,59.3183,0.013945
68.942,59.2790,0.013945
68.973,59.2429,0.013945
69.004,59.2056,0.013945
69.035,59.1710,0.013945
69.065,59.1361,0.013945
69.097,59.1011,0.013945
69.128,59.0669,0.013945
69.159,59.0334,0.012901
69.190,59.0007,0.012901
69.221,58.9703,0.012901
69.251,58.9399,0.012901
69.282,58.9098,0.012901
69.313,58.8798,0.012901
69.345,58.8514,0.012901
69.374,58.8246,0.012901
69.405,58.7977,0.012298
69.436,58.7704,0.012298
69.468,58.7446,0.012298
69.498,58.7198,0.012298
69.529,58.6957,0.012298
69.561,58.6715,0.012298
69.592,58.6486,0.012298
69.623,58.6259,0.012298
69.655,58.6041,0.012016
69.686,58.5836,0.012016
69.717,58.5640,0.012016
69.748,58.5443,0.012016
69.779,58.5258,0.012016
69.810,58.5078,0.012016
69.841,58.4913,0.012016
69.871,58.4753,0.012016
69.902,58.4599,0.012016
69.933,58.4449,0.011772
69.964,58.4310,0.011772
69.995,58.4171,0.011772
70.028,58.4038,0.011772
70.057,58.3927,0.011772
70.094,58.3791,0.011772
70.134,58.3660,0.011772
70.165,58.3567,0.011414
70.195,58.3484,0.011414
70.226,58.3403,0.011414
70.258,58.3329,0.011414
70.288,58.3264,0.011414
70.315,58.3214,0.011414
70.351,58.3154,0.011414
70.382,58.3112,0.011414
70.416,58.3071,0.011113
70.443,58.3048,0.011113
70.474,58.3025,0.011113
70.505,58.3012,0.011113
70.536,58.3004,0.011113
70.566,58.3003,0.011113
70.598,58.3003,0.011113
70.629,58.3003,0.011113
70.657,58.3003,0.010878
70.691,58.3007,0.010878
70.722,58.3017,0.010878
70.754,58.3035,0.010878
70.784,58.3060,0.010878
70.816,58.3094,0.010878
70.846,58.3132,0.010878
70.877,58.3179,0.010878
70.909,58.3236,0.010802
70.939,58.3295,0.010802
70.970,58.3365,0.010802
71.000,58.3437,0.010802
71.032,58.3525,0.010802
71.064,58.3615,0.010802
71.095,58.3716,0.010802
71.126,58.3822,0.010576
71.157,58.3936,0.010576
71.188,58.4057,0.010576
71.220,58.4183,0.010576
71.250,58.4317,0.010576
71.282,58.4464,0.010576
71.312,58.4609,0.010576
71.344,58.4768,0.010576
71.375,58.4929,0.010576
71.407,58.5104,0.010285
71.437,58.5285,0.010285
71.469,58.5470,0.010285
71.500,58.5667,0.010285
71.530,58.5861,0.010285
71.561,58.6072,0.010285
71.593,58.6291,0.010285
71.624,58.6514,0.009927
71.655,58.6744,0.009927
71.686,58.6979,0.009927
71.717,58.7215,0.009927
71.747,58.7469,0.009927
71.778,58.7722,0.009927
71.809,58.7985,0.009927
71.840,58.8258,0.009927
71.871,58.8542,0.009372
71.902,58.8825,0.009372
71.933,58.9124,0.009372
71.963,58.9415,0.009372
71.994,58.9722,0.009372
72.025,59.0049,0.009372
72.056,59.0374,0.009372
72.087,59.0710,0.009372
72.118,59.1037,0.008713
72.149,59.1390,0.008713
72.180,59.1734,0.008713
72.213,59.2118,0.008713
72.242,59.2459,0.008713
72.273,59.2830,0.008713
72.304,59.3213,0.008713
72.334,59.3597,0.008713
72.366,59.4000,0.007895
72.397,59.4397,0.007895
72.428,59.4809,0.007895
72.459,59.5236,0.007895
72.491,59.5680,0.007895
72.522,59.6096,0.007895
72.552,59.6525,0.007895
72.583,59.6972,0.007895
72.615,59.7442,0.006803
72.646,59.7916,0.006803
72.678,59.8387,0.006803
72.708,59.8868,0.006803
72.739,59.9333,0.006803
72.770,59.9836,0.006803
72.801,60.0329,0.006803
72.831,60.0823,0.006803
72.862,60.1323,0.006803
72.893,60.1856,0.005335
72.923,60.2362,0.005335
72.954,60.2893,0.005335
72.987,60.3487,0.005335
73.015,60.3979,0.005335
73.046,60.4535,0.005335
73.077,60.5086,0.005335
73.108,60.5666,0.005335
73.134,60.6146,0.005335
73.170,60.6828,0.003049
73.200,60.7401,0.003049
73.233,60.8040,0.003049
73.263,60.8607,0.003049
73.293,60.9197,0.003049
73.325,60.9789,0.003049
73.355,61.0355,0.003049
73.387,61.0933,-0.000885
73.418,61.1501,-0.000885
73.448,61.2053,-0.000885
73.479,61.2590,-0.000885
73.509,61.3114,-0.000885
73.541,61.3670,-0.000885
73.571,61.4176,-0.000885
73.603,61.4720,-0.000885
73.633,61.5211,-0.007396
73.668,61.5784,-0.007396
73.694,61.6193,-0.007396
73.726,61.6698,-0.007396
73.757,61.7188,-0.007396
73.788,61.7664,-0.007396
73.820,61.8137,-0.007396
73.850,61.8582,-0.007396
73.881,61.9042,-0.020428
73.912,61.9493,-0.020428
73.943,61.9925,-0.020428
73.974,62.0370,-0.020428
74.004,62.0779,-0.020428
74.036,62.1204,-0.020428
74.065,62.1594,-0.020428
74.096,62.1999,-0.020428
74.128,62.2402,-0.047161
74.158,62.2779,-0.047161
74.189,62.3174,-0.047161
74.221,62.3551,-0.047161
74.252,62.3912,-0.047161
74.283,62.4272,-0.047161
74.314,62.4623,-0.047161
74.345,62.4975,-0.047161
74.376,62.5308,-0.047161
74.406,62.5642,-0.089317
74.438,62.5961,-0.089317
74.468,62.6279,-0.089317
74.499,62.6583,-0.089317
74.530,62.6886,-0.089317
74.561,62.7178,-0.089317
74.592,62.7471,-0.089317
74.623,62.7748,-0.140439
74.654,62.8019,-0.140439
74.685,62.8285,-0.140439
74.716,62.8545,-0.140439
74.748,62.8799,-0.140439
74.779,62.9046,-0.140439
74.810,62.9283,-0.140439
74.841,62.9509,-0.140439
74.872,62.9736,-0.200567
74.902,62.9939,-0.200567
74.932,63.0158,-0.200567
74.964,63.0352,-0.200567
74.994,63.0535,-0.200567
75.026,63.0726,-0.200567
75.056,63.0901,-0.200567
75.088,63.1076,-0.200567
75.120,63.1245,-0.315365
75.150,63.1395,-0.315365
75.181,63.1547,-0.315365
75.212,63.1687,-0.315365
75.243,63.1823,-0.315365
75.274,63.1953,-0.315365
75.305,63.2072,-0.315365
75.337,63.2187,-0.315365
75.367,63.2291,-0.315365
75.398,63.2387,-0.519603
75.430,63.2484,-0.519603
75.460,63.2560,-0.519603
75.492,63.2641,-0.519603
75.522,63.2708,-0.519603
75.553,63.2770,-0.519603
75.585,63.2826,-0.519603
75.615,63.2872,-0.519603
75.645,63.2911,-0.752925
75.681,63.2949,-0.752925
75.708,63.2970,-0.752925
75.739,63.2988,-0.752925
75.770,63.3000,-0.752925
75.801,63.3003,-0.752925
75.832,63.3003,-0.752925
75.863,63.3003,-0.752925
75.894,63.3003,-0.851905
75.925,63.3003,-0.851905
75.954,63.3003,-0.851905
75.985,63.3003,-0.851905
76.016,63.3003,-0.851905
76.047,63.3003,-0.851905
76.078,63.3003,-0.851905
76.109,63.3003,-0.851905
76.140,63.3003,-0.703327
76.171,63.3003,-0.703327
76.202,63.3003,-0.703327
76.233,63.3003,-0.703327
76.265,63.3003,-0.703327
76.297,63.3003,-0.703327
76.327,63.3003,-0.703327
76.357,63.3003,-0.504820
76.389,63.3003,-0.504820
76.419,63.3003,-0.504820
76.450,63.3003,-0.504820
76.482,63.3003,-0.504820
76.513,63.3003,-0.504820
76.543,63.3003,-0.504820
76.574,63.3003,-0.504820
76.606,63.3003,-0.504820
76.636,63.3003,-0.410921
76.667,63.3003,-0.410921
76.698,63.3003,-0.410921
76.730,63.3003,-0.410921
76.763,63.3003,-0.410921
76.792,63.3003,-0.410921
76.822,63.3003,-0.410921
76.853,63.3003,-0.410921
76.883,63.3003,-0.358584
76.913,63.3003,-0.358584
76.945,63.3003,-0.358584
76.976,63.3003,-0.358584
77.006,63.3003,-0.358584
77.037,63.3003,-0.358584
77.069,63.3003,-0.358584
77.099,63.3003,-0.358584
77.132,63.3003,-0.325311
77.161,63.3003,-0.325311
77.193,63.3003,-0.325311
77.223,63.3003,-0.325311
77.254,63.3003,-0.325311
77.285,63.3003,-0.325311
77.317,63.3003,-0.325311
77.348,63.3003,-0.325311
77.378,63.3003,-0.302324
77.409,63.3003,-0.302324
77.440,63.3003,-0.302324
77.470,63.3003,-0.302324
77.501,63.3003,-0.302324
77.532,63.3003,-0.302324
77.562,63.3003,-0.302324
77.590,63.3003,-0.302324
77.623,63.3003,-0.285527
77.655,63.3003,-0.285527
77.687,63.3003,-0.285527
77.715,63.3003,-0.285527
77.747,63.3003,-0.285527
77.778,63.3003,-0.285527
77.809,63.3003,-0.285527
77.839,63.3003,-0.285527
77.876,63.3003,-0.285527
77.918,63.3003,-0.272570
77.947,63.3003,-0.272570
77.980,63.3003,-0.272570
78.010,63.3003,-0.272570
78.043,63.3003,-0.272570
78.072,63.3003,-0.272570
78.103,63.3003,-0.272570
78.135,63.3003,-0.262173
78.166,63.3003,-0.262173
78.198,63.3003,-0.262173
78.229,63.3003,-0.262173
78.260,63.3003,-0.262173
78.291,63.3003,-0.262173
78.322,63.3003,-0.262173
78.353,63.3003,-0.262173
78.385,63.3003,-0.253751
78.416,63.3003,-0.253751
78.447,63.3003,-0.253751
78.478,63.3003,-0.253751
78.509,63.3003,-0.253751
78.540,63.3003,-0.253751
78.570,63.3003,-0.253751
78.602,63.3003,-0.253751
78.633,63.3003,-0.253751
78.664,63.3003,-0.246844
78.696,63.3003,-0.246844
78.727,63.3003,-0.246844
78.759,63.3003,-0.246844
78.790,63.3003,-0.246844
78.821,63.3003,-0.246844
78.853,63.3003,-0.246844
78.884,63.3003,-0.240756
78.915,63.3003,-0.240756
78.946,63.3003,-0.240756
78.977,63.3003,-0.240756
79.009,63.3003,-0.240756
79.040,63.3003,-0.240756
79.071,63.3003,-0.240756
79.102,63.3003,-0.240756
79.132,63.3003,-0.240756
79.163,63.3003,-0.235468
79.194,63.3003,-0.235468
79.225,63.3003,-0.235468
79.257,63.3003,-0.235468
79.288,63.3003,-0.235468
79.319,63.3003,-0.235468
79.350,63.3003,-0.235468
79.381,63.3003,-0.230998
79.413,63.3003,-0.230998
79.443,63.3003,-0.230998
79.474,63.3003,-0.230998
79.506,63.3003,-0.230998
79.537,63.3003,-0.230998
79.568,63.3003,-0.230998
79.599,63.3003,-0.230998
79.631,63.3003,-0.226933
79.660,63.3003,-0.226933
79.691,63.3003,-0.226933
79.722,63.3003,-0.226933
79.753,63.3003,-0.226933
79.785,63.3003,-0.226933
79.816,63.3003,-0.226933
79.847,63.3003,-0.226933
79.878,63.3003,-0.223292
79.908,63.3003,-0.223292
79.939,63.3003,-0.223292
79.970,63.3003,-0.223292
80.002,63.3003,-0.223292
80.033,63.3003,-0.223292
80.064,63.3003,-0.223292
80.095,63.3000,-0.223292
80.125,63.2988,-0.220309
80.157,63.2968,-0.220309
80.187,63.2944,-0.220309
80.218,63.2910,-0.220309
80.248,63.2872,-0.220309
80.280,63.2822,-0.220309
80.311,63.2768,-0.220309
80.343,63.2704,-0.220309
80.373,63.2637,-0.141889
80.405,63.2555,-0.141889
80.436,63.2472,-0.141889
80.466,63.2381,-0.141889
80.498,63.2284,-0.141889
80.529,63.2175,-0.141889
80.560,63.2062,-0.141889
80.595,63.1925,-0.141889
80.623,63.1811,0.223433
80.654,63.1675,0.223433
80.685,63.1532,0.223433
80.720,63.1361,0.223433
80.747,63.1226,0.223433
80.777,63.1067,0.223433
80.807,63.0900,0.223433
80.838,63.0722,0.223433
80.869,63.0536,0.223433
80.900,63.0344,0.307847
80.931,63.0147,0.307847
80.961,62.9937,0.307847
80.993,62.9723,0.307847
81.023,62.9506,0.307847
81.054,62.9276,0.307847
81.086,62.9027,0.307847
81.117,62.8789,0.113236
81.149,62.8526,0.113236
81.179,62.8270,0.113236
81.211,62.8003,0.113236
81.241,62.7736,0.113236
81.272,62.7454,0.113236
81.304,62.7154,0.113236
81.335,62.6858,0.113236
81.366,62.6556,0.113236
81.398,62.6239,0.138981
81.429,62.5930,0.138981
81.461,62.5589,0.138981
81.492,62.5249,0.138981
81.523,62.4911,0.138981
81.554,62.4576,0.138981
81.585,62.4216,0.138981
81.616,62.3860,0.138981
81.647,62.3482,0.176591
81.678,62.3105,0.176591
81.709,62.2730,0.176591
81.741,62.2326,0.176591
81.772,62.1927,0.176591
81.803,62.1519,0.176591
81.834,62.1108,0.176591
81.866,62.0684,0.176591
81.897,62.0257,0.221636
81.927,61.9827,0.221636
81.958,61.9383,0.221636
81.989,61.8946,0.221636
82.020,61.8474,0.221636
82.051,61.8025,0.221636
82.082,61.7546,0.221636
82.114,61.7055,0.221636
82.145,61.6563,0.257120
82.177,61.6073,0.257120
82.208,61.5563,0.257120
82.238,61.5063,0.257120
82.270,61.4529,0.257120
82.301,61.4023,0.257120
82.332,61.3494,0.257120
82.363,61.2956,0.257120
82.395,61.2398,0.268298
82.425,61.1851,0.268298
82.456,61.1310,0.268298
82.487,61.0743,0.268298
82.518,61.0175,0.268298
82.548,60.9607,0.268298
82.579,60.9008,0.268298
82.611,60.8418,0.268298
82.641,60.7817,0.268298
82.673,60.7204,0.273634
82.702,60.6638,0.273634
82.733,60.6052,0.273634
82.765,60.5449,0.273634
82.797,60.4867,0.273634
82.828,60.4281,0.273634
82.859,60.3727,0.273634
82.891,60.3166,0.259792
82.921,60.2632,0.259792
82.953,60.2084,0.259792
82.982,60.1569,0.259792
83.015,60.1036,0.259792
83.045,60.0528,0.259792
83.077,60.0004,0.259792
83.108,59.9506,0.259792
83.139,59.8995,0.129327
83.171,59.8517,0.129327
83.201,59.8034,0.129327
83.232,59.7565,0.129327
83.264,59.7103,0.129327
83.295,59.6632,0.129327
83.326,59.6183,0.129327
83.359,59.5721,0.129327
83.387,59.5317,0.129327
83.419,59.4881,0.016382
83.449,59.4473,0.016382
83.480,59.4056,0.016382
83.508,59.3687,0.016382
83.542,59.3250,0.016382
83.573,59.2866,0.016382
83.604,59.2484,0.016382
83.636,59.2094,0.013748
83.667,59.1725,0.013748
83.698,59.1351,0.013748
83.729,59.0996,0.013748
83.760,59.0658,0.013748
83.790,59.0321,0.013748
83.821,58.9978,0.013748
83.853,58.9657,0.013748
83.884,58.9341,0.013748
83.915,58.9016,0.012778
83.945,58.8727,0.012778
83.977,58.8428,0.012778
84.007,58.8140,0.012778
84.038,58.7860,0.012778
84.070,58.7577,0.012778
84.101,58.7308,0.012778
84.132,58.7048,0.012233
84.163,58.6783,0.012233
84.194,58.6549,0.012233
84.225,58.6310,0.012233
84.256,58.6070,0.012233
84.288,58.5843,0.012233
84.319,58.5624,0.012233
84.349,58.5422,0.012233
84.381,58.5213,0.011828
84.412,58.5021,0.011828
84.444,58.4828,0.011828
84.474,58.4653,0.011828
84.505,58.4477,0.011828
84.535,58.4317,0.011828
84.568,58.4152,0.011828
84.598,58.4004,0.011828
84.629,58.3858,0.011828
84.660,58.3724,0.011546
84.691,58.3591,0.011546
84.723,58.3467,0.011546
84.753,58.3357,0.011546
84.782,58.3252,0.011546
84.813,58.3152,0.011546
84.844,58.3059,0.011546
84.875,58.2973,0.011339
84.906,58.2894,0.011339
84.937,58.2822,0.011339
84.968,58.2756,0.011339
84.999,58.2699,0.011339
85.030,58.2650,0.011339
85.060,58.2609,0.011339
85.092,58.2573,0.011339
85.123,58.2544,0.011066
85.153,58.2524,0.011066
85.184,58.2511,0.011066
85.216,58.2503,0.011066
85.247,58.2503,0.011066
85.278,58.2503,0.011066
85.308,58.2503,0.011066
85.339,58.2506,0.011066
85.370,58.2516,0.010953
85.402,58.2533,0.010953
85.433,58.2558,0.010953
85.463,58.2590,0.010953
85.496,58.2631,0.010953
85.524,58.2673,0.010953
85.555,58.2727,0.010953
85.586,58.2789,0.010953
85.617,58.2854,0.010953
85.649,58.2932,0.010680
85.679,58.3012,0.010680
85.710,58.3101,0.010680
85.743,58.3207,0.010680
85.772,58.3302,0.010680
85.806,58.3426,0.010680
85.834,58.3532,0.010680
85.865,58.3659,0.010680
85.896,58.3791,0.010680
85.926,58.3931,0.010369
85.957,58.4075,0.010369
85.988,58.4229,0.010369
86.018,58.4389,0.010369
86.050,58.4561,0.010369
86.081,58.4740,0.010369
86.112,58.4922,0.010369
86.143,58.5115,0.010369
86.174,58.5312,0.010153
86.206,58.5526,0.010153
86.237,58.5742,0.010153
86.267,58.5950,0.010153
86.300,58.6199,0.010153
86.328,58.6409,0.010153
86.359,58.6653,0.010153
86.390,58.6902,0.010153
86.424,58.7183,0.009701
86.452,58.7417,0.009701
86.482,58.7683,0.009701
86.514,58.7963,0.009701
86.545,58.8252,0.009701
86.574,58.8526,0.009701
86.605,58.8832,0.009701
86.636,58.9137,0.009156
86.668,58.9455,0.009156
86.699,58.9779,0.009156
86.730,59.0110,0.009156
86.761,59.0448,0.009156
86.792,59.0786,0.009156
86.823,59.1145,0.009156
86.854,59.1494,0.009156
86.885,59.1875,0.009156
86.917,59.2249,0.008497
86.950,59.2651,0.008497
86.980,59.3033,0.008497
87.012,59.3437,0.008497
87.043,59.3832,0.008497
87.073,59.4246,0.008497
87.104,59.4656,0.008497
87.136,59.5103,0.007631
87.167,59.5522,0.007631
87.199,59.5995,0.007631
87.229,59.6403,0.007631
87.259,59.6850,0.007631
87.291,59.7317,0.007631
87.322,59.7790,0.007631
87.352,59.8252,0.007631
87.383,59.8727,0.007631
87.414,59.9229,0.006380
87.445,59.9708,0.006380
87.475,60.0199,0.006380
87.506,60.0710,0.006380
87.537,60.1232,0.006380
87.567,60.1756,0.006380
87.598,60.2271,0.006380
87.629,60.2823,0.006380
87.660,60.3353,0.004583
87.691,60.3922,0.004583
87.722,60.4482,0.004583
87.754,60.5068,0.004583
87.785,60.5632,0.004583
87.817,60.6238,0.004583
87.848,60.6826,0.004583
87.879,60.7440,0.004583
87.910,60.8024,0.001760
87.940,60.8626,0.001760
87.971,60.9199,0.001760
88.003,60.9800,0.001760
88.034,61.0362,0.001760
88.067,61.0962,0.001760
88.098,61.1512,0.001760
88.130,61.2095,0.001760
88.161,61.2626,-0.003086
88.192,61.3167,-0.003086
88.221,61.3661,-0.003086
88.252,61.4181,-0.003086
88.283,61.4682,-0.003086
88.314,61.5200,-0.003086
88.345,61.5717,-0.003086
88.376,61.6186,-0.003086
88.406,61.6658,-0.003086
88.437,61.7131,-0.011734
88.468,61.7604,-0.011734
88.499,61.8057,-0.011734
88.531,61.8533,-0.011734
88.562,61.8975,-0.011734
88.593,61.9425,-0.011734
88.625,61.9865,-0.029650
88.655,62.0286,-0.029650
88.687,62.0703,-0.029650
88.718,62.1123,-0.029650
88.749,62.1515,-0.029650
88.780,62.1919,-0.029650
88.812,62.2311,-0.029650
88.843,62.2692,-0.029650
88.875,62.3086,-0.029650
88.904,62.3430,-0.063412
88.936,62.3794,-0.063412
88.967,62.4149,-0.063412
88.998,62.4490,-0.063412
89.029,62.4836,-0.063412
89.060,62.5157,-0.063412
89.090,62.5482,-0.063412
89.122,62.5797,-0.063412
89.153,62.6106,-0.110037
89.185,62.6419,-0.110037
89.215,62.6705,-0.110037
89.247,62.7008,-0.110037
89.278,62.7276,-0.110037
89.309,62.7550,-0.110037
89.339,62.7812,-0.110037
89.370,62.8072,-0.110037
89.402,62.8326,-0.110037
89.432,62.8562,-0.163616
89.463,62.8796,-0.163616
89.495,62.9032,-0.163616
89.526,62.9255,-0.163616
89.557,62.9470,-0.163616
89.591,62.9696,-0.163616
89.620,62.9878,-0.237500
89.650,63.0070,-0.237500
89.681,63.0251,-0.237500
89.712,63.0430,-0.237500
89.744,63.0603,-0.237500
89.776,63.0770,-0.237500
89.806,63.0926,-0.237500
89.838,63.1073,-0.237500
89.869,63.1212,-0.389476
89.900,63.1345,-0.389476
89.931,63.1474,-0.389476
89.963,63.1594,-0.389476
89.994,63.1707,-0.389476
90.025,63.1813,-0.389476
90.056,63.1907,-0.389476
90.087,63.1997,-0.389476
90.118,63.2078,-0.619251
90.149,63.2155,-0.619251
90.179,63.2219,-0.619251
90.210,63.2280,-0.619251
90.242,63.2336,-0.619251
90.272,63.2381,-0.619251
90.305,63.2422,-0.619251
90.335,63.2451,-0.619251
90.366,63.2475,-0.619251
90.396,63.2491,-0.828927
90.427,63.2501,-0.828927
90.459,63.2503,-0.828927
90.491,63.2503,-0.828927
90.522,63.2503,-0.828927
90.553,63.2503,-0.828927
