Elapsed Time (s),Position (mm),Force (N)
-0.018,70.4902,0.015932
0.013,70.4902,0.015932
0.044,70.4902,0.015932
0.074,70.4902,0.015932
0.105,70.4902,0.015923
0.138,70.4902,0.015923
0.166,70.4902,0.015923
0.196,70.4902,0.015923
0.228,70.4902,0.015923
0.258,70.4902,0.015923
0.289,70.4902,0.015923
0.320,70.4902,0.015923
0.351,70.4902,0.015923
0.382,70.4902,0.015838
0.413,70.4902,0.015838
0.444,70.4902,0.015838
0.475,70.4902,0.015838
0.507,70.4902,0.015838
0.537,70.4902,0.015838
0.568,70.4902,0.015838
0.599,70.4902,0.015838
0.630,70.4902,0.015875
0.661,70.4902,0.015875
0.693,70.4902,0.015875
0.724,70.4902,0.015875
0.755,70.4902,0.015875
0.786,70.4902,0.015875
0.817,70.4902,0.015875
0.848,70.4902,0.015875
0.878,70.4902,0.015828
0.909,70.4902,0.015828
0.940,70.4902,0.015828
0.972,70.4902,0.015828
1.003,70.4902,0.015828
1.035,70.4902,0.015828
1.066,70.4902,0.015828
1.097,70.4902,0.015828
1.129,70.4902,0.015791
1.159,70.4902,0.015791
1.191,70.4902,0.015791
1.221,70.4902,0.015791
1.252,70.4902,0.015791
1.282,70.4902,0.015791
1.313,70.4902,0.015791
1.344,70.4902,0.015791
1.375,70.4902,0.015800
1.406,70.4902,0.015800
1.438,70.4902,0.015800
1.468,70.4902,0.015800
1.501,70.4902,0.015800
1.530,70.4902,0.015800
1.561,70.4902,0.015800
1.592,70.4902,0.015800
1.623,70.4902,0.015809
1.654,70.4902,0.015809
1.685,70.4902,0.015809
1.717,70.4902,0.015809
1.747,70.4902,0.015809
1.778,70.4902,0.015809
1.808,70.4902,0.015809
1.839,70.4902,0.015809
1.870,70.4902,0.015866
1.901,70.4902,0.015866
1.932,70.4902,0.015866
1.963,70.4902,0.015866
1.994,70.4902,0.015866
2.025,70.4902,0.015866
2.056,70.4902,0.015866
2.087,70.4902,0.015875
2.119,70.4902,0.015875
2.150,70.4902,0.015875
2.182,70.4902,0.015875
2.213,70.4902,0.015875
2.244,70.4902,0.015875
2.277,70.4902,0.015875
2.307,70.4902,0.015875
2.337,70.4902,0.015875
2.368,70.4902,0.015875
2.399,70.4902,0.015857
2.430,70.4902,0.015857
2.461,70.4902,0.015857
2.493,70.4902,0.015857
2.523,70.4902,0.015857
2.554,70.4902,0.015857
2.585,70.4902,0.015857
2.615,70.4902,0.015828
2.645,70.4902,0.015828
2.676,70.4902,0.015828
2.708,70.4902,0.015828
2.739,70.4902,0.015828
2.770,70.4902,0.015828
2.800,70.4902,0.015828
2.832,70.4902,0.015828
2.862,70.4902,0.015847
2.893,70.4902,0.015847
2.923,70.4902,0.015847
2.955,70.4902,0.015847
2.986,70.4902,0.015847
3.017,70.4902,0.015847
3.048,70.4902,0.015847
3.078,70.4902,0.015847
3.110,70.4902,0.015866
3.141,70.4902,0.015866
3.171,70.4902,0.015866
3.203,70.4902,0.015866
3.235,70.4902,0.015866
3.265,70.4902,0.015866
3.296,70.4902,0.015866
3.327,70.4902,0.015866
3.358,70.4902,0.015847
3.389,70.4902,0.015847
3.420,70.4902,0.015847
3.451,70.4902,0.015847
3.483,70.4902,0.015847
3.513,70.4902,0.015847
3.543,70.4902,0.015847
3.574,70.4902,0.015847
3.605,70.4902,0.015847
3.636,70.4902,0.015800
3.667,70.4902,0.015800
3.698,70.4902,0.015800
3.730,70.4902,0.015800
3.762,70.4902,0.015800
3.793,70.4902,0.015800
3.825,70.4902,0.015800
3.857,70.4902,0.015800
3.888,70.4902,0.015791
3.919,70.4902,0.015791
3.950,70.4902,0.015791
3.981,70.4902,0.015791
4.012,70.4902,0.015791
4.044,70.4902,0.015791
4.075,70.4902,0.015791
4.107,70.4902,0.015791
4.136,70.4902,0.015772
4.167,70.4898,0.015772
4.197,70.4888,0.015772
4.228,70.4871,0.015772
4.260,70.4846,0.015772
4.291,70.4813,0.015772
4.322,70.4773,0.015772
4.353,70.4726,0.015772
4.384,70.4673,0.015866
4.415,70.4612,0.015866
4.446,70.4550,0.015866
4.477,70.4488,0.015866
4.507,70.4427,0.015866
4.537,70.4366,0.015866
4.568,70.4304,0.015866
4.599,70.4244,0.015913
4.629,70.4180,0.015913
4.661,70.4120,0.015913
4.693,70.4055,0.015913
4.724,70.3994,0.015913
4.755,70.3930,0.015913
4.787,70.3868,0.015913
4.818,70.3803,0.015913
4.849,70.3744,0.015875
4.880,70.3679,0.015875
4.910,70.3621,0.015875
4.941,70.3559,0.015875
4.972,70.3497,0.015875
5.002,70.3436,0.015875
5.034,70.3373,0.015875
5.065,70.3310,0.015875
5.097,70.3246,0.015819
5.128,70.3186,0.015819
5.158,70.3124,0.015819
5.189,70.3063,0.015819
5.221,70.2998,0.015819
5.252,70.2938,0.015819
5.283,70.2876,0.015819
5.314,70.2814,0.015819
5.345,70.2750,0.015753
5.377,70.2688,0.015753
5.407,70.2626,0.015753
5.438,70.2565,0.015753
5.469,70.2503,0.015753
5.500,70.2441,0.015753
5.532,70.2378,0.015753
5.563,70.2314,0.015753
5.593,70.2255,0.015819
5.624,70.2192,0.015819
5.655,70.2133,0.015819
5.686,70.2069,0.015819
5.717,70.2009,0.015819
5.748,70.1945,0.015819
5.779,70.1883,0.015819
5.810,70.1821,0.015819
5.841,70.1759,0.015819
5.873,70.1696,0.015819
5.904,70.1633,0.015819
5.936,70.1571,0.015819
5.967,70.1506,0.015819
5.998,70.1447,0.015819
6.029,70.1384,0.015819
6.059,70.1323,0.015819
6.090,70.1262,0.015819
6.121,70.1200,0.015809
6.151,70.1139,0.015809
6.183,70.1076,0.015809
6.214,70.1014,0.015809
6.245,70.0951,0.015809
6.276,70.0890,0.015809
6.307,70.0827,0.015809
6.339,70.0763,0.015809
6.371,70.0699,0.015819
6.402,70.0637,0.015819
6.433,70.0574,0.015819
6.465,70.0510,0.015819
6.497,70.0446,0.015819
6.528,70.0384,0.015819
6.559,70.0323,0.015819
6.591,70.0260,0.015819
6.621,70.0199,0.015819
6.651,70.0138,0.015819
6.682,70.0078,0.015819
6.714,70.0012,0.015819
6.745,69.9951,0.015819
6.776,69.9889,0.015819
6.808,69.9826,0.015819
6.838,69.9765,0.015819
6.869,69.9703,0.015819
6.901,69.9640,0.015819
6.931,69.9579,0.015819
6.963,69.9516,0.015819
6.993,69.9455,0.015819
7.025,69.9392,0.015819
7.056,69.9328,0.015819
7.087,69.9265,0.015819
7.119,69.9203,0.015809
7.150,69.9141,0.015809
7.181,69.9079,0.015809
7.212,69.9018,0.015809
7.243,69.8955,0.015809
7.274,69.8894,0.015809
7.305,69.8830,0.015809
7.339,69.8765,0.015809
7.366,69.8707,0.015809
7.398,69.8645,0.015838
7.428,69.8586,0.015838
7.459,69.8522,0.015838
7.490,69.8463,0.015838
7.521,69.8397,0.015838
7.553,69.8335,0.015838
7.583,69.8274,0.015838
7.615,69.8211,0.015838
7.646,69.8149,0.015847
7.677,69.8087,0.015847
7.709,69.8021,0.015847
7.740,69.7960,0.015847
7.770,69.7901,0.015847
7.801,69.7840,0.015847
7.831,69.7779,0.015847
7.863,69.7715,0.015875
7.896,69.7649,0.015875
7.925,69.7591,0.015875
7.956,69.7528,0.015875
7.987,69.7467,0.015875
8.019,69.7402,0.015875
8.050,69.7343,0.015875
8.081,69.7277,0.015875
8.113,69.7216,0.015875
8.144,69.7152,0.015857
8.176,69.7091,0.015857
8.207,69.7025,0.015857
8.239,69.6965,0.015857
8.272,69.6899,0.015857
8.302,69.6838,0.015857
8.333,69.6775,0.015857
8.365,69.6712,0.015857
8.396,69.6650,0.015828
8.426,69.6590,0.015828
8.459,69.6524,0.015828
8.488,69.6465,0.015828
8.519,69.6404,0.015828
8.550,69.6342,0.015828
8.580,69.6281,0.015828
8.612,69.6219,0.015828
8.643,69.6156,0.015828
8.674,69.6093,0.015828
8.705,69.6032,0.015828
8.736,69.5969,0.015828
8.768,69.5905,0.015828
8.797,69.5847,0.015828
8.828,69.5784,0.015828
8.859,69.5723,0.015828
8.891,69.5659,0.015857
8.922,69.5598,0.015857
8.953,69.5536,0.015857
8.983,69.5475,0.015857
9.015,69.5411,0.015857
9.046,69.5350,0.015857
9.077,69.5287,0.015857
9.108,69.5227,0.015894
9.138,69.5165,0.015894
9.170,69.5102,0.015894
9.201,69.5040,0.015894
9.232,69.4978,0.015894
9.263,69.4916,0.015894
9.295,69.4851,0.015894
9.326,69.4789,0.015894
9.357,69.4727,0.015857
9.388,69.4665,0.015857
9.419,69.4604,0.015857
9.449,69.4544,0.015857
9.480,69.4480,0.015857
9.511,69.4418,0.015857
9.542,69.4359,0.015857
9.573,69.4294,0.015857
9.604,69.4234,0.015838
9.636,69.4170,0.015838
9.667,69.4108,0.015838
9.699,69.4044,0.015838
9.729,69.3983,0.015838
9.760,69.3921,0.015838
9.792,69.3858,0.015838
9.823,69.3796,0.015838
9.854,69.3735,0.015847
9.884,69.3672,0.015847
9.915,69.3611,0.015847
9.946,69.3549,0.015847
9.978,69.3484,0.015847
10.009,69.3425,0.015847
10.039,69.3362,0.015847
10.070,69.3302,0.015847
10.102,69.3238,0.015847
10.132,69.3177,0.015866
10.163,69.3114,0.015866
10.194,69.3054,0.015866
10.226,69.2990,0.015866
10.256,69.2930,0.015866
10.287,69.2868,0.015866
10.318,69.2805,0.015866
10.349,69.2744,0.015875
10.380,69.2682,0.015875
10.411,69.2619,0.015875
10.443,69.2554,0.015875
10.474,69.2495,0.015875
10.505,69.2433,0.015875
10.535,69.2372,0.015875
10.566,69.2310,0.015875
10.597,69.2248,0.015894
10.629,69.2183,0.015894
10.660,69.2121,0.015894
10.691,69.2059,0.015894
10.722,69.1999,0.015894
10.753,69.1937,0.015894
10.784,69.1875,0.015894
10.815,69.1811,0.015894
10.845,69.1752,0.015866
10.877,69.1689,0.015866
10.907,69.1628,0.015866
10.938,69.1566,0.015866
10.969,69.1503,0.015866
11.000,69.1442,0.015866
11.031,69.1380,0.015866
11.062,69.1318,0.015866
11.093,69.1257,0.015809
11.123,69.1194,0.015809
11.154,69.1132,0.015809
11.185,69.1070,0.015809
11.216,69.1008,0.015809
11.248,69.0944,0.015809
11.279,69.0884,0.015809
11.311,69.0819,0.015809
11.340,69.0761,0.015838
11.372,69.0696,0.015838
11.403,69.0636,0.015838
11.435,69.0571,0.015838
11.466,69.0510,0.015838
11.498,69.0445,0.015838
11.529,69.0384,0.015838
11.560,69.0322,0.015838
11.591,69.0260,0.015838
11.623,69.0195,0.015838
11.653,69.0133,0.015838
11.684,69.0074,0.015838
11.715,69.0012,0.015838
11.745,68.9951,0.015838
11.778,68.9885,0.015838
11.808,68.9827,0.015838
11.838,68.9765,0.015838
11.871,68.9701,0.015838
11.902,68.9639,0.015828
11.933,68.9577,0.015828
11.965,68.9513,0.015828
11.995,68.9451,0.015828
12.026,68.9389,0.015828
12.058,68.9327,0.015828
12.088,68.9265,0.015828
12.120,68.9201,0.015809
12.151,68.9140,0.015809
12.182,68.9078,0.015809
12.213,68.9017,0.015809
12.243,68.8956,0.015809
12.274,68.8893,0.015809
12.306,68.8829,0.015809
12.336,68.8769,0.015809
12.367,68.8708,0.015809
12.398,68.8645,0.015809
12.430,68.8582,0.015809
12.462,68.8517,0.015809
12.492,68.8458,0.015809
12.523,68.8395,0.015809
12.554,68.8334,0.015809
12.586,68.8269,0.015809
12.617,68.8209,0.015847
12.648,68.8144,0.015847
12.678,68.8087,0.015847
12.708,68.8025,0.015847
12.740,68.7963,0.015847
12.770,68.7901,0.015847
12.801,68.7836,0.015847
12.833,68.7776,0.015847
12.864,68.7715,0.015847
12.894,68.7654,0.015838
12.926,68.7590,0.015838
12.957,68.7529,0.015838
12.988,68.7466,0.015838
13.021,68.7400,0.015838
13.052,68.7338,0.015838
13.083,68.7276,0.015838
13.114,68.7211,0.015838
13.146,68.7149,0.015838
13.177,68.7086,0.015838
13.208,68.7027,0.015838
13.239,68.6965,0.015838
13.270,68.6901,0.015838
13.301,68.6841,0.015838
13.332,68.6777,0.015838
13.363,68.6717,0.015838
13.394,68.6653,0.015885
13.425,68.6593,0.015885
13.456,68.6530,0.015885
13.486,68.6470,0.015885
13.517,68.6408,0.015885
13.548,68.6346,0.015885
13.580,68.6282,0.015885
13.611,68.6220,0.015875
13.642,68.6156,0.015875
13.673,68.6096,0.015875
13.705,68.6032,0.015875
13.736,68.5971,0.015875
13.767,68.5908,0.015875
13.798,68.5845,0.015875
13.829,68.5783,0.015875
13.861,68.5721,0.015838
13.893,68.5656,0.015838
13.923,68.5597,0.015838
13.953,68.5535,0.015838
13.985,68.5473,0.015838
14.016,68.5411,0.015838
14.047,68.5349,0.015838
14.079,68.5285,0.015838
14.110,68.5223,0.015857
14.140,68.5161,0.015857
14.171,68.5099,0.015857
14.203,68.5036,0.015857
14.234,68.4974,0.015857
14.266,68.4911,0.015857
14.297,68.4849,0.015857
14.328,68.4785,0.015857
14.359,68.4725,0.015847
14.390,68.4663,0.015847
14.421,68.4599,0.015847
14.451,68.4540,0.015847
14.482,68.4475,0.015847
14.514,68.4415,0.015847
14.545,68.4351,0.015847
14.576,68.4289,0.015847
14.607,68.4229,0.015781
14.638,68.4167,0.015781
14.668,68.4106,0.015781
14.700,68.4043,0.015781
14.732,68.3979,0.015781
14.762,68.3917,0.015781
14.793,68.3857,0.015781
14.824,68.3792,0.015781
14.856,68.3731,0.015791
14.887,68.3668,0.015791
14.919,68.3605,0.015791
14.950,68.3542,0.015791
14.980,68.3481,0.015791
15.012,68.3419,0.015791
15.042,68.3354,0.015791
15.073,68.3295,0.015791
15.104,68.3233,0.015819
15.136,68.3171,0.015819
15.166,68.3109,0.015819
15.198,68.3045,0.015819
15.229,68.2982,0.015819
15.261,68.2920,0.015819
15.292,68.2857,0.015819
15.323,68.2795,0.015819
15.354,68.2732,0.015838
15.386,68.2671,0.015838
15.418,68.2604,0.015838
15.449,68.2544,0.015838
15.480,68.2482,0.015838
15.511,68.2420,0.015838
15.542,68.2357,0.015838
15.573,68.2294,0.015838
15.604,68.2233,0.015838
15.635,68.2171,0.015828
15.666,68.2110,0.015828
15.697,68.2047,0.015828
15.728,68.1986,0.015828
15.759,68.1923,0.015828
15.791,68.1860,0.015828
15.823,68.1795,0.015828
15.853,68.1736,0.015828
15.885,68.1671,0.015828
15.916,68.1610,0.015828
15.948,68.1545,0.015828
15.979,68.1484,0.015828
16.010,68.1421,0.015828
16.042,68.1359,0.015828
16.073,68.1297,0.015828
16.104,68.1235,0.015828
16.135,68.1173,0.015828
16.165,68.1112,0.015800
16.196,68.1050,0.015800
16.227,68.0988,0.015800
16.258,68.0926,0.015800
16.290,68.0861,0.015800
16.321,68.0801,0.015800
16.353,68.0736,0.015800
16.384,68.0675,0.015772
16.416,68.0611,0.015772
16.447,68.0549,0.015772
16.477,68.0488,0.015772
16.508,68.0427,0.015772
16.539,68.0364,0.015772
16.571,68.0300,0.015772
16.601,68.0240,0.015772
16.632,68.0178,0.015791
16.663,68.0116,0.015791
16.694,68.0054,0.015791
16.724,67.9993,0.015791
16.757,67.9926,0.015791
16.788,67.9867,0.015791
16.818,67.9807,0.015791
16.849,67.9745,0.015791
16.881,67.9681,0.015791
16.912,67.9617,0.015791
16.943,67.9555,0.015791
16.974,67.9493,0.015791
17.006,67.9431,0.015791
17.038,67.9366,0.015791
17.068,67.9306,0.015791
17.100,67.9242,0.015791
17.130,67.9182,0.015838
17.162,67.9119,0.015838
17.193,67.9057,0.015838
17.224,67.8992,0.015838
17.255,67.8928,0.015838
17.286,67.8870,0.015838
17.317,67.8808,0.015838
17.348,67.8747,0.015838
17.378,67.8685,0.015828
17.409,67.8623,0.015828
17.441,67.8560,0.015828
17.472,67.8497,0.015828
17.503,67.8435,0.015828
17.534,67.8375,0.015828
17.566,67.8309,0.015828
17.596,67.8249,0.015828
17.627,67.8189,0.015828
17.658,67.8127,0.015828
17.689,67.8063,0.015828
17.720,67.8001,0.015828
17.752,67.7938,0.015828
17.784,67.7875,0.015828
17.815,67.7813,0.015828
17.847,67.7748,0.015819
17.877,67.7688,0.015819
17.908,67.7627,0.015819
17.939,67.7562,0.015819
17.970,67.7503,0.015819
18.001,67.7438,0.015819
18.033,67.7376,0.015819
18.064,67.7313,0.015819
18.095,67.7251,0.015819
18.126,67.7189,0.015800
18.158,67.7127,0.015800
18.189,67.7063,0.015800
18.220,67.7001,0.015800
18.252,67.6937,0.015800
18.285,67.6872,0.015800
18.315,67.6813,0.015800
18.346,67.6750,0.015800
18.376,67.6692,0.015791
18.406,67.6628,0.015791
18.437,67.6568,0.015791
18.468,67.6507,0.015791
18.499,67.6445,0.015791
18.530,67.6382,0.015791
18.562,67.6320,0.015791
18.592,67.6258,0.015791
18.624,67.6194,0.015753
18.655,67.6132,0.015753
18.685,67.6073,0.015753
18.717,67.6010,0.015753
18.747,67.5948,0.015753
18.779,67.5884,0.015753
18.811,67.5821,0.015753
18.843,67.5758,0.015781
18.874,67.5692,0.015781
18.905,67.5631,0.015781
18.936,67.5569,0.015781
18.968,67.5506,0.015781
18.998,67.5445,0.015781
19.030,67.5381,0.015781
19.061,67.5320,0.015781
19.092,67.5258,0.015838
19.123,67.5196,0.015838
19.155,67.5133,0.015838
19.185,67.5072,0.015838
19.216,67.5010,0.015838
19.247,67.4948,0.015838
19.277,67.4887,0.015838
19.309,67.4824,0.015838
19.341,67.4761,0.015838
19.371,67.4700,0.015857
19.403,67.4637,0.015857
19.434,67.4583,0.015857
19.466,67.4534,0.015857
19.496,67.4494,0.015857
19.527,67.4462,0.015857
19.559,67.4436,0.015857
19.590,67.4417,0.015781
19.620,67.4406,0.015781
19.651,67.4402,0.015781
19.682,67.4402,0.015781
19.713,67.4402,0.015781
19.744,67.4402,0.015781
19.776,67.4402,0.015781
19.806,67.4403,0.015781
19.837,67.4411,0.015781
19.868,67.4426,0.015762
19.900,67.4448,0.015762
19.932,67.4479,0.015762
19.964,67.4516,0.015762
19.995,67.4562,0.015762
20.026,67.4613,0.015762
20.058,67.4675,0.015762
20.087,67.4733,0.015762
20.118,67.4794,0.015687
20.149,67.4856,0.015687
20.181,67.4919,0.015687
20.212,67.4981,0.015687
20.244,67.5045,0.015687
20.275,67.5108,0.015687
20.306,67.5169,0.015687
20.337,67.5232,0.015734
20.367,67.5291,0.015734
20.399,67.5355,0.015734
20.430,67.5418,0.015734
20.461,67.5481,0.015734
20.492,67.5543,0.015734
20.523,67.5605,0.015734
20.554,67.5666,0.015734
20.586,67.5729,0.015734
20.617,67.5793,0.015857
20.648,67.5855,0.015857
20.679,67.5918,0.015857
20.711,67.5979,0.015857
20.742,67.6043,0.015857
20.773,67.6104,0.015857
20.804,67.6167,0.015857
20.836,67.6229,0.015819
20.868,67.6295,0.015819
20.898,67.6354,0.015819
20.929,67.6415,0.015819
20.961,67.6480,0.015819
20.991,67.6539,0.015819
21.021,67.6602,0.015819
21.052,67.6663,0.015819
21.083,67.6724,0.015819
21.114,67.6787,0.015819
21.145,67.6850,0.015819
21.177,67.6911,0.015819
21.208,67.6973,0.015819
21.237,67.7033,0.015819
21.269,67.7096,0.015819
21.301,67.7159,0.015819
21.333,67.7225,0.015819
21.364,67.7286,0.015819
21.396,67.7349,0.015847
21.428,67.7414,0.015847
21.459,67.7476,0.015847
21.490,67.7538,0.015847
21.521,67.7600,0.015847
21.551,67.7660,0.015847
21.582,67.7721,0.015847
21.612,67.7783,0.015828
21.644,67.7844,0.015828
21.676,67.7910,0.015828
21.706,67.7972,0.015828
21.738,67.8035,0.015828
21.770,67.8099,0.015828
21.801,67.8159,0.015828
21.832,67.8223,0.015828
21.863,67.8284,0.015828
21.895,67.8349,0.015772
21.926,67.8408,0.015772
21.956,67.8471,0.015772
21.988,67.8532,0.015772
22.019,67.8597,0.015772
22.050,67.8659,0.015772
22.081,67.8721,0.015772
22.113,67.8784,0.015819
22.146,67.8848,0.015819
22.176,67.8910,0.015819
22.209,67.8976,0.015819
22.239,67.9035,0.015819
22.269,67.9097,0.015819
22.301,67.9160,0.015819
22.331,67.9219,0.015819
22.362,67.9281,0.015819
22.392,67.9342,0.015819
22.423,67.9404,0.015819
22.454,67.9465,0.015819
22.485,67.9529,0.015819
22.517,67.9591,0.015819
22.548,67.9653,0.015819
22.579,67.9717,0.015819
22.611,67.9779,0.015857
22.642,67.9842,0.015857
22.672,67.9903,0.015857
22.704,67.9966,0.015857
22.735,68.0028,0.015857
22.766,68.0090,0.015857
22.796,68.0149,0.015857
22.828,68.0213,0.015857
22.858,68.0274,0.015866
22.889,68.0337,0.015866
22.920,68.0398,0.015866
22.952,68.0461,0.015866
22.982,68.0522,0.015866
23.013,68.0585,0.015866
23.044,68.0647,0.015866
23.076,68.0709,0.015866
23.107,68.0772,0.015847
23.138,68.0834,0.015847
23.169,68.0895,0.015847
23.200,68.0959,0.015847
23.231,68.1020,0.015847
23.262,68.1082,0.015847
23.292,68.1142,0.015847
23.325,68.1207,0.015847
23.356,68.1268,0.015809
23.386,68.1331,0.015809
23.417,68.1391,0.015809
23.448,68.1455,0.015809
23.480,68.1516,0.015809
23.511,68.1581,0.015809
23.542,68.1641,0.015809
23.573,68.1704,0.015809
23.604,68.1767,0.015781
23.635,68.1829,0.015781
23.667,68.1892,0.015781
23.698,68.1954,0.015781
23.730,68.2017,0.015781
23.761,68.2079,0.015781
23.791,68.2140,0.015781
23.822,68.2203,0.015781
23.853,68.2264,0.015819
23.884,68.2326,0.015819
23.915,68.2388,0.015819
23.946,68.2451,0.015819
23.977,68.2512,0.015819
24.008,68.2574,0.015819
24.039,68.2635,0.015819
24.069,68.2696,0.015819
24.100,68.2758,0.015857
24.131,68.2818,0.015857
24.162,68.2882,0.015857
24.193,68.2944,0.015857
24.224,68.3006,0.015857
24.256,68.3070,0.015857
24.287,68.3132,0.015857
24.319,68.3196,0.015857
24.350,68.3258,0.015847
24.380,68.3320,0.015847
24.412,68.3383,0.015847
24.442,68.3442,0.015847
24.472,68.3502,0.015847
24.503,68.3564,0.015847
24.534,68.3626,0.015847
24.566,68.3690,0.015847
24.598,68.3755,0.015857
24.629,68.3819,0.015857
24.659,68.3875,0.015857
24.691,68.3938,0.015857
24.722,68.4002,0.015857
24.753,68.4064,0.015857
24.785,68.4128,0.015857
24.815,68.4189,0.015857
24.846,68.4250,0.015838
24.877,68.4312,0.015838
24.908,68.4374,0.015838
24.939,68.4437,0.015838
24.970,68.4498,0.015838
25.002,68.4561,0.015838
25.033,68.4623,0.015838
25.064,68.4686,0.015838
25.095,68.4747,0.015838
25.126,68.4808,0.015781
25.157,68.4871,0.015781
25.188,68.4932,0.015781
25.219,68.4995,0.015781
25.250,68.5058,0.015781
25.281,68.5119,0.015781
25.312,68.5181,0.015781
25.344,68.5244,0.015781
25.375,68.5306,0.015791
25.406,68.5371,0.015791
25.437,68.5432,0.015791
25.468,68.5495,0.015791
25.499,68.5556,0.015791
25.530,68.5618,0.015791
25.561,68.5678,0.015791
25.591,68.5742,0.015791
25.622,68.5801,0.015800
25.654,68.5866,0.015800
25.684,68.5925,0.015800
25.715,68.5987,0.015800
25.746,68.6048,0.015800
25.777,68.6113,0.015800
25.808,68.6176,0.015800
25.839,68.6234,0.015791
25.872,68.6301,0.015791
25.901,68.6359,0.015791
25.932,68.6421,0.015791
25.964,68.6485,0.015791
25.995,68.6547,0.015791
26.025,68.6607,0.015791
26.056,68.6669,0.015791
26.088,68.6733,0.015791
26.119,68.6796,0.015791
26.151,68.6859,0.015791
26.180,68.6917,0.015791
26.212,68.6981,0.015791
26.243,68.7044,0.015791
26.274,68.7106,0.015791
26.305,68.7167,0.015791
26.337,68.7230,0.015791
26.368,68.7294,0.015838
26.399,68.7356,0.015838
26.430,68.7419,0.015838
26.460,68.7478,0.015838
26.492,68.7541,0.015838
26.522,68.7602,0.015838
26.553,68.7664,0.015838
26.585,68.7726,0.015838
26.616,68.7791,0.015838
26.647,68.7850,0.015857
26.678,68.7913,0.015857
26.708,68.7974,0.015857
26.740,68.8037,0.015857
26.771,68.8099,0.015857
26.803,68.8164,0.015857
26.834,68.8225,0.015857
26.865,68.8287,0.015857
26.896,68.8352,0.015857
26.928,68.8412,0.015857
26.959,68.8475,0.015857
26.989,68.8535,0.015857
27.021,68.8599,0.015857
27.050,68.8659,0.015857
27.081,68.8720,0.015857
27.111,68.8780,0.015857
27.143,68.8842,0.015847
27.174,68.8906,0.015847
27.206,68.8969,0.015847
27.236,68.9031,0.015847
27.267,68.9093,0.015847
27.299,68.9156,0.015847
27.330,68.9218,0.015847
27.361,68.9279,0.015838
27.392,68.9341,0.015838
27.422,68.9402,0.015838
27.454,68.9466,0.015838
27.485,68.9527,0.015838
27.516,68.9588,0.015838
27.547,68.9651,0.015838
27.578,68.9713,0.015838
27.608,68.9772,0.015838
27.639,68.9837,0.015847
27.670,68.9898,0.015847
27.701,68.9960,0.015847
27.733,69.0022,0.015847
27.764,69.0085,0.015847
27.794,69.0145,0.015847
27.825,69.0207,0.015847
27.856,69.0271,0.015838
27.887,69.0332,0.015838
27.919,69.0394,0.015838
27.950,69.0457,0.015838
27.981,69.0519,0.015838
28.012,69.0581,0.015838
28.042,69.0642,0.015838
28.074,69.0704,0.015838
28.105,69.0767,0.015857
28.136,69.0829,0.015857
28.167,69.0890,0.015857
28.198,69.0953,0.015857
28.230,69.1018,0.015857
28.260,69.1077,0.015857
28.291,69.1139,0.015857
28.323,69.1202,0.015857
28.354,69.1264,0.015866
28.386,69.1329,0.015866
28.417,69.1391,0.015866
28.448,69.1453,0.015866
28.480,69.1516,0.015866
28.510,69.1577,0.015866
28.541,69.1640,0.015866
28.572,69.1701,0.015866
28.603,69.1764,0.015866
28.633,69.1825,0.015866
28.665,69.1886,0.015866
28.696,69.1950,0.015866
28.727,69.2011,0.015866
28.758,69.2074,0.015866
28.789,69.2134,0.015866
28.819,69.2197,0.015866
28.851,69.2260,0.015847
28.882,69.2322,0.015847
28.913,69.2383,0.015847
28.944,69.2446,0.015847
28.975,69.2507,0.015847
29.006,69.2572,0.015847
29.037,69.2632,0.015847
29.068,69.2694,0.015847
29.101,69.2758,0.015847
29.132,69.2821,0.015828
29.163,69.2883,0.015828
29.194,69.2945,0.015828
29.225,69.3008,0.015828
29.256,69.3069,0.015828
29.288,69.3134,0.015828
29.319,69.3194,0.015828
29.350,69.3258,0.015828
29.382,69.3321,0.015809
29.412,69.3383,0.015809
29.443,69.3445,0.015809
29.474,69.3506,0.015809
29.506,69.3570,0.015809
29.537,69.3631,0.015809
29.569,69.3695,0.015809
29.599,69.3755,0.015809
29.630,69.3819,0.015762
29.661,69.3880,0.015762
29.691,69.3938,0.015762
29.722,69.4000,0.015762
29.753,69.4062,0.015762
29.783,69.4126,0.015762
29.814,69.4185,0.015762
29.845,69.4247,0.015762
29.877,69.4310,0.015791
29.908,69.4374,0.015791
29.938,69.4433,0.015791
29.970,69.4497,0.015791
30.001,69.4559,0.015791
30.032,69.4621,0.015791
30.063,69.4683,0.015791
30.094,69.4743,0.015791
30.125,69.4807,0.015819
30.155,69.4867,0.015819
30.186,69.4931,0.015819
30.216,69.4990,0.015819
30.247,69.5052,0.015819
30.279,69.5117,0.015819
30.311,69.5179,0.015819
30.342,69.5242,0.015885
30.372,69.5300,0.015885
30.403,69.5363,0.015885
30.435,69.5428,0.015885
30.465,69.5487,0.015885
30.496,69.5549,0.015885
30.527,69.5611,0.015885
30.558,69.5674,0.015885
30.589,69.5736,0.015885
30.620,69.5796,0.015875
30.651,69.5860,0.015875
30.682,69.5922,0.015875
30.714,69.5985,0.015875
30.745,69.6048,0.015875
30.777,69.6110,0.015875
30.809,69.6178,0.015875
30.839,69.6235,0.015828
30.870,69.6296,0.015828
30.901,69.6361,0.015828
30.932,69.6420,0.015828
30.963,69.6485,0.015828
30.995,69.6547,0.015828
31.027,69.6611,0.015828
31.058,69.6672,0.015828
31.089,69.6736,0.015828
31.121,69.6798,0.015857
31.152,69.6862,0.015857
31.183,69.6924,0.015857
31.215,69.6988,0.015857
31.246,69.7049,0.015857
31.277,69.7112,0.015857
31.308,69.7173,0.015857
31.340,69.7237,0.015857
31.371,69.7299,0.015875
31.403,69.7363,0.015875
31.433,69.7423,0.015875
31.465,69.7487,0.015875
31.495,69.7547,0.015875
31.527,69.7611,0.015875
31.556,69.7672,0.015875
31.588,69.7732,0.015819
31.619,69.7794,0.015819
31.651,69.7859,0.015819
31.681,69.7920,0.015819
31.712,69.7982,0.015819
31.744,69.8044,0.015819
31.774,69.8106,0.015819
31.805,69.8166,0.015819
31.836,69.8228,0.015819
31.867,69.8293,0.015800
31.898,69.8354,0.015800
31.929,69.8414,0.015800
31.959,69.8476,0.015800
31.991,69.8540,0.015800
32.020,69.8598,0.015800
32.051,69.8659,0.015800
32.082,69.8721,0.015838
32.113,69.8784,0.015838
32.144,69.8845,0.015838
32.175,69.8908,0.015838
32.207,69.8970,0.015838
32.238,69.9036,0.015838
32.269,69.9094,0.015838
32.300,69.9157,0.015838
32.331,69.9218,0.015838
32.364,69.9285,0.015809
32.394,69.9345,0.015809
32.426,69.9409,0.015809
32.458,69.9472,0.015809
32.489,69.9537,0.015809
32.521,69.9600,0.015809
32.554,69.9666,0.015809
32.584,69.9725,0.015809
32.615,69.9786,0.015800
32.646,69.9849,0.015800
32.677,69.9911,0.015800
32.709,69.9975,0.015800
32.741,70.0040,0.015800
32.771,70.0099,0.015800
32.805,70.0166,0.015800
32.833,70.0224,0.015800
32.865,70.0286,0.015819
32.896,70.0348,0.015819
32.928,70.0414,0.015819
32.959,70.0474,0.015819
32.990,70.0538,0.015819
33.021,70.0598,0.015819
33.052,70.0660,0.015819
33.083,70.0722,0.015819
33.113,70.0785,0.015809
33.145,70.0847,0.015809
33.175,70.0907,0.015809
33.206,70.0968,0.015809
33.237,70.1033,0.015809
33.268,70.1092,0.015809
33.299,70.1155,0.015809
33.330,70.1216,0.015809
33.361,70.1278,0.015809
33.392,70.1343,0.015809
33.423,70.1403,0.015809
33.454,70.1465,0.015809
33.486,70.1529,0.015809
33.517,70.1591,0.015809
33.549,70.1655,0.015809
33.579,70.1716,0.015819
33.610,70.1778,0.015819
33.641,70.1839,0.015819
33.672,70.1902,0.015819
33.703,70.1964,0.015819
33.734,70.2025,0.015819
33.764,70.2084,0.015819
33.797,70.2151,0.015819
33.827,70.2211,0.015819
33.858,70.2273,0.015828
33.889,70.2334,0.015828
33.920,70.2396,0.015828
33.951,70.2460,0.015828
33.982,70.2522,0.015828
34.013,70.2583,0.015828
34.045,70.2646,0.015828
34.075,70.2707,0.015828
34.107,70.2771,0.015828
34.139,70.2835,0.015847
34.170,70.2897,0.015847
34.201,70.2959,0.015847
34.232,70.3021,0.015847
34.262,70.3080,0.015847
34.293,70.3143,0.015847
34.325,70.3205,0.015847
34.356,70.3267,0.015847
34.388,70.3332,0.015838
34.418,70.3393,0.015838
34.449,70.3455,0.015838
34.479,70.3517,0.015838
34.510,70.3578,0.015838
34.540,70.3637,0.015838
34.571,70.3699,0.015838
34.603,70.3762,0.015809
34.634,70.3824,0.015809
34.665,70.3888,0.015809
34.696,70.3948,0.015809
34.727,70.4013,0.015809
34.758,70.4074,0.015809
34.789,70.4136,0.015809
34.819,70.4191,0.015809
34.851,70.4245,0.015828
34.881,70.4288,0.015828
34.913,70.4327,0.015828
34.943,70.4355,0.015828
34.974,70.4377,0.015828
35.004,70.4392,0.015828
35.035,70.4401,0.015828
35.066,70.4402,0.015828
35.096,70.4402,0.015904
35.127,70.4402,0.015904
35.158,70.4402,0.015904
35.189,70.4402,0.015904
35.220,70.4402,0.015904
35.251,70.4402,0.015904
35.282,70.4402,0.015904
35.314,70.4402,0.015904
35.346,70.4402,0.015904
35.376,70.4402,0.015904
35.407,70.4402,0.015904
35.439,70.4402,0.015904
35.469,70.4402,0.015904
35.500,70.4402,0.015904
35.531,70.4402,0.015904
35.562,70.4402,0.015904
35.593,70.4402,0.015819
35.624,70.4402,0.015819
35.656,70.4402,0.015819
35.687,70.4402,0.015819
35.719,70.4402,0.015819
35.750,70.4402,0.015819
35.781,70.4402,0.015819
35.813,70.4402,0.015819
35.844,70.4402,0.015819
35.875,70.4402,0.015791
35.908,70.4402,0.015791
35.937,70.4402,0.015791
35.968,70.4402,0.015791
35.999,70.4402,0.015791
36.030,70.4402,0.015791
36.061,70.4402,0.015791
36.092,70.4402,0.015857
36.123,70.4402,0.015857
36.153,70.4402,0.015857
36.185,70.4402,0.015857
36.216,70.4402,0.015857
36.248,70.4402,0.015857
36.278,70.4402,0.015857
36.309,70.4402,0.015857
36.340,70.4402,0.015894
36.371,70.4402,0.015894
36.402,70.4402,0.015894
36.434,70.4402,0.015894
36.464,70.4402,0.015894
36.494,70.4402,0.015894
36.526,70.4402,0.015894
36.557,70.4402,0.015894
36.587,70.4402,0.015894
36.618,70.4402,0.015894
36.650,70.4402,0.015847
36.681,70.4402,0.015847
36.712,70.4402,0.015847
36.743,70.4402,0.015847
36.773,70.4402,0.015847
36.805,70.4402,0.015847
36.836,70.4402,0.015847
36.868,70.4402,0.015838
36.900,70.4402,0.015838
36.930,70.4402,0.015838
36.962,70.4402,0.015838
36.993,70.4402,0.015838
37.025,70.4402,0.015838
37.055,70.4402,0.015838
37.086,70.4402,0.015838
37.117,70.4402,0.015838
37.148,70.4402,0.015857
37.179,70.4402,0.015857
37.211,70.4402,0.015857
37.241,70.4402,0.015857
37.273,70.4402,0.015857
37.304,70.4402,0.015857
37.335,70.4402,0.015857
37.366,70.4402,0.015857
37.398,70.4402,0.015838
37.429,70.4402,0.015838
37.460,70.4402,0.015838
37.490,70.4402,0.015838
37.522,70.4402,0.015838
37.552,70.4402,0.015838
37.585,70.4402,0.015838
37.615,70.4402,0.015847
37.646,70.4402,0.015847
37.677,70.4402,0.015847
37.708,70.4402,0.015847
37.739,70.4402,0.015847
37.771,70.4402,0.015847
37.802,70.4402,0.015847
37.833,70.4402,0.015847
37.864,70.4402,0.015847
37.896,70.4402,0.015857
37.928,70.4402,0.015857
37.959,70.4402,0.015857
37.990,70.4402,0.015857
38.022,70.4402,0.015857
38.053,70.4402,0.015857
38.085,70.4402,0.015857
38.116,70.4402,0.015857
38.146,70.4402,0.015857
38.177,70.4402,0.015857
38.209,70.4402,0.015857
38.241,70.4402,0.015857
38.272,70.4402,0.015857
38.302,70.4402,0.015857
38.333,70.4402,0.015857
38.364,70.4402,0.015800
38.395,70.4402,0.015800
38.426,70.4402,0.015800
38.457,70.4402,0.015800
38.489,70.4402,0.015800
38.520,70.4402,0.015800
38.551,70.4402,0.015800
38.582,70.4402,0.015800
38.614,70.4402,0.015772
38.645,70.4402,0.015772
38.676,70.4402,0.015772
38.706,70.4402,0.015772
38.737,70.4402,0.015772
38.769,70.4402,0.015772
38.800,70.4402,0.015772
38.831,70.4402,0.015772
38.861,70.4402,0.015791
38.893,70.4402,0.015791
38.923,70.4402,0.015791
38.955,70.4402,0.015791
38.985,70.4402,0.015791
39.016,70.4402,0.015791
39.047,70.4402,0.015791
39.079,70.4402,0.015791
39.110,70.4402,0.015791
39.141,70.4402,0.015828
39.172,70.4402,0.015828
39.202,70.4402,0.015828
39.233,70.4402,0.015828
39.265,70.4400,0.015828
39.295,70.4390,0.015828
39.327,70.4373,0.015828
39.358,70.4349,0.015866
39.390,70.4315,0.015866
39.420,70.4277,0.015866
39.453,70.4227,0.015866
39.485,70.4174,0.015866
39.515,70.4113,0.015866
39.545,70.4054,0.015866
39.576,70.3992,0.015866
39.607,70.3929,0.015951
39.638,70.3866,0.015951
39.669,70.3804,0.015951
39.700,70.3742,0.015951
39.731,70.3682,0.015951
39.763,70.3617,0.015951
39.794,70.3555,0.015951
39.825,70.3493,0.015951
39.856,70.3432,0.015894
39.886,70.3372,0.015894
39.917,70.3311,0.015894
39.947,70.3249,0.015894
39.978,70.3187,0.015894
40.010,70.3125,0.015894
40.040,70.3064,0.015894
40.071,70.3002,0.015894
40.102,70.2938,0.015743
40.133,70.2878,0.015743
40.163,70.2816,0.015743
40.194,70.2755,0.015743
40.225,70.2693,0.015743
40.256,70.2631,0.015743
40.288,70.2568,0.015743
40.318,70.2507,0.015743
40.349,70.2445,0.015743
40.380,70.2384,0.015762
40.412,70.2319,0.015762
40.444,70.2257,0.015762
40.474,70.2195,0.015762
40.506,70.2133,0.015762
40.537,70.2069,0.015762
40.568,70.2009,0.015762
40.600,70.1943,0.015762
40.632,70.1878,0.015800
40.663,70.1816,0.015800
40.695,70.1754,0.015800
40.727,70.1690,0.015800
40.758,70.1628,0.015800
40.789,70.1566,0.015800
40.820,70.1504,0.015800
40.851,70.1442,0.015800
40.882,70.1381,0.015781
40.914,70.1317,0.015781
40.945,70.1255,0.015781
40.976,70.1191,0.015781
41.007,70.1129,0.015781
41.038,70.1069,0.015781
41.069,70.1005,0.015781
41.100,70.0945,0.015781
41.131,70.0881,0.015800
41.163,70.0818,0.015800
41.193,70.0758,0.015800
41.223,70.0698,0.015800
41.254,70.0634,0.015800
41.285,70.0574,0.015800
41.317,70.0510,0.015800
41.348,70.0448,0.015800
41.379,70.0385,0.015819
41.410,70.0322,0.015819
41.441,70.0262,0.015819
41.473,70.0197,0.015819
41.504,70.0137,0.015819
41.535,70.0073,0.015819
41.566,70.0012,0.015819
41.599,69.9946,0.015819
41.629,69.9887,0.015857
41.659,69.9825,0.015857
41.690,69.9764,0.015857
41.722,69.9699,0.015857
41.752,69.9640,0.015857
41.783,69.9577,0.015857
41.814,69.9516,0.015857
41.846,69.9451,0.015857
41.876,69.9390,0.015857
41.909,69.9327,0.015857
41.939,69.9266,0.015857
41.971,69.9202,0.015857
42.003,69.9137,0.015857
42.032,69.9079,0.015857
42.064,69.9016,0.015857
42.095,69.8954,0.015857
42.126,69.8892,0.015838
42.157,69.8831,0.015838
42.189,69.8767,0.015838
42.220,69.8705,0.015838
42.250,69.8644,0.015838
42.282,69.8581,0.015838
42.314,69.8516,0.015838
42.345,69.8454,0.015838
42.376,69.8391,0.015762
42.406,69.8330,0.015762
42.438,69.8269,0.015762
42.469,69.8206,0.015762
42.501,69.8143,0.015762
42.532,69.8081,0.015762
42.562,69.8019,0.015762
42.593,69.7959,0.015762
42.623,69.7897,0.015781
42.654,69.7835,0.015781
42.685,69.7774,0.015781
42.716,69.7712,0.015781
42.747,69.7650,0.015781
42.778,69.7588,0.015781
42.809,69.7526,0.015781
42.840,69.7464,0.015781
42.871,69.7402,0.015847
42.902,69.7338,0.015847
42.933,69.7277,0.015847
42.965,69.7213,0.015847
42.997,69.7151,0.015847
43.028,69.7087,0.015847
43.060,69.7023,0.015847
43.091,69.6962,0.015847
43.122,69.6900,0.015847
43.153,69.6838,0.015847
43.183,69.6777,0.015847
43.215,69.6713,0.015847
43.246,69.6652,0.015847
43.277,69.6590,0.015847
43.308,69.6528,0.015847
43.339,69.6465,0.015847
43.370,69.6404,0.015875
43.400,69.6342,0.015875
43.432,69.6280,0.015875
43.464,69.6215,0.015875
43.495,69.6153,0.015875
43.527,69.6090,0.015875
43.559,69.6024,0.015875
43.590,69.5965,0.015875
43.620,69.5903,0.015838
43.651,69.5841,0.015838
43.683,69.5779,0.015838
43.715,69.5713,0.015838
43.745,69.5655,0.015838
43.776,69.5590,0.015838
43.807,69.5530,0.015838
43.838,69.5469,0.015838
43.869,69.5407,0.015838
43.900,69.5345,0.015838
43.931,69.5282,0.015838
43.963,69.5220,0.015838
43.994,69.5156,0.015838
44.024,69.5097,0.015838
44.056,69.5031,0.015838
44.086,69.4970,0.015838
44.117,69.4910,0.015838
44.148,69.4849,0.015838
44.179,69.4787,0.015838
44.210,69.4725,0.015838
44.241,69.4663,0.015838
44.272,69.4601,0.015838
44.303,69.4537,0.015838
44.334,69.4475,0.015819
44.366,69.4412,0.015819
44.397,69.4350,0.015819
44.428,69.4289,0.015819
44.458,69.4226,0.015819
44.489,69.4164,0.015819
44.521,69.4103,0.015819
44.552,69.4039,0.015819
44.583,69.3979,0.015819
44.614,69.3915,0.015819
44.645,69.3854,0.015819
44.676,69.3791,0.015819
44.708,69.3728,0.015819
44.739,69.3666,0.015819
44.770,69.3602,0.015819
44.802,69.3540,0.015819
44.833,69.3478,0.015819
44.865,69.3414,0.015800
44.896,69.3353,0.015800
44.927,69.3289,0.015800
44.958,69.3228,0.015800
44.988,69.3169,0.015800
45.019,69.3107,0.015800
45.049,69.3045,0.015800
45.080,69.2983,0.015800
45.111,69.2923,0.015838
45.142,69.2859,0.015838
45.173,69.2797,0.015838
45.205,69.2734,0.015838
45.235,69.2675,0.015838
45.266,69.2611,0.015838
45.296,69.2553,0.015838
45.327,69.2489,0.015838
45.358,69.2428,0.015847
45.389,69.2367,0.015847
45.420,69.2305,0.015847
45.451,69.2241,0.015847
45.483,69.2177,0.015847
45.514,69.2117,0.015847
45.545,69.2055,0.015847
45.577,69.1991,0.015847
45.608,69.1929,0.015838
45.638,69.1868,0.015838
45.669,69.1804,0.015838
45.700,69.1744,0.015838
45.730,69.1685,0.015838
45.761,69.1623,0.015838
45.792,69.1560,0.015838
45.824,69.1496,0.015838
45.854,69.1437,0.015809
45.886,69.1370,0.015809
45.916,69.1310,0.015809
45.947,69.1251,0.015809
45.978,69.1188,0.015809
46.009,69.1126,0.015809
46.041,69.1062,0.015809
46.073,69.0998,0.015809
46.104,69.0936,0.015809
46.135,69.0874,0.015772
46.166,69.0812,0.015772
46.198,69.0750,0.015772
46.229,69.0685,0.015772
46.260,69.0626,0.015772
46.290,69.0562,0.015772
46.322,69.0500,0.015772
46.353,69.0437,0.015772
46.384,69.0376,0.015762
46.415,69.0313,0.015762
46.446,69.0252,0.015762
46.477,69.0189,0.015762
46.508,69.0127,0.015762
46.539,69.0066,0.015762
46.570,69.0004,0.015762
46.601,68.9942,0.015791
46.633,68.9879,0.015791
46.664,68.9817,0.015791
46.695,68.9753,0.015791
46.726,68.9692,0.015791
46.757,68.9630,0.015791
46.788,68.9569,0.015791
46.818,68.9507,0.015791
46.850,68.9445,0.015847
46.880,68.9383,0.015847
46.912,68.9321,0.015847
46.943,68.9259,0.015847
46.974,68.9197,0.015847
47.005,68.9135,0.015847
47.036,68.9073,0.015847
47.067,68.9011,0.015847
47.098,68.8948,0.015809
47.129,68.8887,0.015809
47.159,68.8826,0.015809
47.190,68.8763,0.015809
47.221,68.8702,0.015809
47.253,68.8638,0.015809
47.284,68.8576,0.015809
47.315,68.8514,0.015809
47.346,68.8452,0.015819
47.376,68.8391,0.015819
47.407,68.8331,0.015819
47.438,68.8268,0.015819
47.469,68.8207,0.015819
47.500,68.8143,0.015819
47.532,68.8081,0.015819
47.564,68.8016,0.015819
47.595,68.7954,0.015809
47.627,68.7891,0.015809
47.660,68.7824,0.015809
47.690,68.7763,0.015809
47.722,68.7700,0.015809
47.753,68.7638,0.015809
47.783,68.7578,0.015809
47.814,68.7516,0.015809
47.845,68.7454,0.015781
47.876,68.7390,0.015781
47.907,68.7332,0.015781
47.938,68.7268,0.015781
47.969,68.7208,0.015781
48.000,68.7144,0.015781
48.031,68.7084,0.015781
48.061,68.7020,0.015781
48.093,68.6960,0.015847
48.125,68.6894,0.015847
48.156,68.6833,0.015847
48.186,68.6771,0.015847
48.217,68.6712,0.015847
48.249,68.6647,0.015847
48.280,68.6584,0.015847
48.312,68.6521,0.015847
48.343,68.6457,0.015838
48.374,68.6397,0.015838
48.405,68.6335,0.015838
48.437,68.6270,0.015838
48.468,68.6208,0.015838
48.499,68.6147,0.015838
48.529,68.6088,0.015838
48.559,68.6026,0.015838
48.591,68.5964,0.015838
48.622,68.5900,0.015838
48.653,68.5838,0.015857
48.685,68.5774,0.015857
48.716,68.5711,0.015857
48.748,68.5649,0.015857
48.778,68.5588,0.015857
48.810,68.5526,0.015857
48.841,68.5463,0.015857
48.870,68.5404,0.015828
48.902,68.5340,0.015828
48.933,68.5278,0.015828
48.964,68.5217,0.015828
48.995,68.5154,0.015828
49.025,68.5094,0.015828
49.056,68.5032,0.015828
49.086,68.4972,0.015828
49.116,68.4912,0.015828
49.148,68.4849,0.015791
49.178,68.4788,0.015791
49.210,68.4725,0.015791
49.241,68.4663,0.015791
49.273,68.4599,0.015791
49.304,68.4535,0.015791
49.335,68.4475,0.015791
49.366,68.4413,0.015847
49.396,68.4351,0.015847
49.428,68.4289,0.015847
49.459,68.4226,0.015847
49.490,68.4164,0.015847
49.522,68.4101,0.015847
49.552,68.4040,0.015847
49.583,68.3978,0.015847
49.613,68.3919,0.015885
49.643,68.3857,0.015885
49.675,68.3795,0.015885
49.705,68.3734,0.015885
49.736,68.3672,0.015885
49.768,68.3606,0.015885
49.800,68.3545,0.015885
49.831,68.3482,0.015885
49.862,68.3421,0.015838
49.892,68.3360,0.015838
49.923,68.3297,0.015838
49.955,68.3235,0.015838
49.986,68.3172,0.015838
50.018,68.3109,0.015838
50.049,68.3048,0.015838
50.080,68.2985,0.015838
50.111,68.2923,0.015838
50.143,68.2859,0.015725
50.174,68.2797,0.015725
50.205,68.2734,0.015725
50.236,68.2672,0.015725
50.267,68.2609,0.015725
50.299,68.2547,0.015725
50.330,68.2484,0.015725
50.362,68.2420,0.015753
50.393,68.2360,0.015753
50.424,68.2296,0.015753
50.455,68.2233,0.015753
50.487,68.2171,0.015753
50.519,68.2107,0.015753
50.550,68.2046,0.015753
50.581,68.1983,0.015753
50.612,68.1921,0.015847
50.643,68.1857,0.015847
50.674,68.1795,0.015847
50.706,68.1733,0.015847
50.738,68.1668,0.015847
50.768,68.1608,0.015847
50.799,68.1545,0.015847
50.831,68.1483,0.015847
50.863,68.1418,0.015838
50.894,68.1357,0.015838
50.925,68.1293,0.015838
50.957,68.1231,0.015838
50.989,68.1168,0.015838
51.020,68.1104,0.015838
51.050,68.1044,0.015838
51.082,68.0979,0.015838
51.113,68.0918,0.015772
51.145,68.0854,0.015772
51.176,68.0792,0.015772
51.208,68.0730,0.015772
51.238,68.0668,0.015772
51.270,68.0606,0.015772
51.301,68.0541,0.015772
51.332,68.0482,0.015772
51.363,68.0417,0.015781
51.395,68.0355,0.015781
51.425,68.0293,0.015781
51.456,68.0233,0.015781
51.486,68.0172,0.015781
51.517,68.0111,0.015781
51.547,68.0050,0.015781
51.579,67.9987,0.015781
51.608,67.9929,0.015781
51.639,67.9865,0.015781
51.670,67.9805,0.015781
51.701,67.9743,0.015781
51.732,67.9681,0.015781
51.763,67.9617,0.015781
51.795,67.9554,0.015781
51.825,67.9495,0.015781
51.856,67.9433,0.015762
51.888,67.9368,0.015762
51.918,67.9309,0.015762
51.949,67.9247,0.015762
51.980,67.9183,0.015762
52.011,67.9124,0.015762
52.041,67.9061,0.015762
52.073,67.9000,0.015762
52.104,67.8937,0.015762
52.135,67.8875,0.015885
52.167,67.8810,0.015885
52.198,67.8748,0.015885
52.228,67.8687,0.015885
52.259,67.8628,0.015885
52.291,67.8563,0.015885
52.323,67.8497,0.015885
52.354,67.8438,0.015885
52.384,67.8376,0.015866
52.415,67.8314,0.015866
52.446,67.8252,0.015866
52.477,67.8190,0.015866
52.508,67.8128,0.015866
52.540,67.8065,0.015866
52.572,67.8001,0.015866
52.603,67.7938,0.015866
52.634,67.7877,0.015762
52.665,67.7813,0.015762
52.695,67.7755,0.015762
52.726,67.7693,0.015762
52.757,67.7632,0.015762
52.789,67.7567,0.015762
52.819,67.7505,0.015762
52.849,67.7446,0.015762
52.883,67.7379,0.015781
52.911,67.7322,0.015781
52.943,67.7259,0.015781
52.975,67.7195,0.015781
53.006,67.7132,0.015781
53.036,67.7071,0.015781
53.067,67.7009,0.015781
53.099,67.6947,0.015781
53.130,67.6884,0.015809
53.163,67.6818,0.015809
53.193,67.6760,0.015809
53.224,67.6698,0.015809
53.255,67.6636,0.015809
53.285,67.6573,0.015809
53.316,67.6513,0.015809
53.346,67.6452,0.015809
53.377,67.6390,0.015857
53.407,67.6330,0.015857
53.439,67.6265,0.015857
53.469,67.6207,0.015857
53.500,67.6145,0.015857
53.531,67.6083,0.015857
53.563,67.6017,0.015857
53.594,67.5957,0.015857
53.625,67.5895,0.015847
53.657,67.5830,0.015847
53.687,67.5769,0.015847
53.718,67.5708,0.015847
53.752,67.5641,0.015847
53.781,67.5582,0.015847
53.813,67.5518,0.015847
53.844,67.5458,0.015819
53.875,67.5396,0.015819
53.907,67.5330,0.015819
53.940,67.5264,0.015819
53.968,67.5208,0.015819
53.998,67.5148,0.015819
54.029,67.5086,0.015819
54.059,67.5025,0.015819
54.091,67.4963,0.015819
54.122,67.4900,0.015819
54.153,67.4839,0.015819
54.185,67.4774,0.015819
54.215,67.4715,0.015819
54.247,67.4650,0.015819
54.278,67.4588,0.015819
54.310,67.4523,0.015819
54.339,67.4467,0.015791
54.371,67.4402,0.015791
54.401,67.4343,0.015791
54.434,67.4277,0.015791
54.463,67.4219,0.015791
54.494,67.4158,0.015791
54.524,67.4101,0.015791
54.556,67.4050,0.015791
54.586,67.4008,0.015791
54.618,67.3972,0.015791
54.649,67.3943,0.015791
54.679,67.3924,0.015791
54.710,67.3910,0.015791
54.741,67.3902,0.015791
54.773,67.3902,0.015791
54.805,67.3902,0.015791
54.837,67.3902,0.015791
54.868,67.3902,0.015753
54.899,67.3902,0.015753
54.930,67.3902,0.015753
54.961,67.3902,0.015753
54.992,67.3902,0.015753
55.026,67.3902,0.015753
55.054,67.3902,0.015753
55.084,67.3902,0.015753
55.116,67.3902,0.015753
55.146,67.3902,0.015800
55.178,67.3902,0.015800
55.209,67.3902,0.015800
55.240,67.3902,0.015800
55.271,67.3904,0.015800
55.303,67.3911,0.015800
55.334,67.3926,0.015800
55.365,67.3948,0.015800
55.396,67.3978,0.015857
55.428,67.4015,0.015857
55.459,67.4061,0.015857
55.491,67.4112,0.015857
55.522,67.4172,0.015857
55.553,67.4234,0.015857
55.584,67.4294,0.015857
55.614,67.4358,0.015743
55.645,67.4417,0.015743
55.676,67.4480,0.015743
55.708,67.4544,0.015743
55.738,67.4604,0.015743
55.768,67.4664,0.015743
55.800,67.4728,0.015743
55.831,67.4789,0.015743
55.862,67.4852,0.015743
55.893,67.4914,0.015706
55.923,67.4974,0.015706
55.953,67.5034,0.015706
55.983,67.5094,0.015706
56.014,67.5156,0.015706
56.045,67.5218,0.015706
56.076,67.5280,0.015706
56.106,67.5341,0.015706
56.138,67.5404,0.015791
56.168,67.5465,0.015791
56.199,67.5526,0.015791
56.230,67.5588,0.015791
56.262,67.5652,0.015791
56.292,67.5712,0.015791
56.323,67.5775,0.015791
56.355,67.5837,0.015828
56.386,67.5900,0.015828
56.417,67.5964,0.015828
56.449,67.6027,0.015828
56.480,67.6088,0.015828
56.511,67.6151,0.015828
56.542,67.6213,0.015828
56.573,67.6275,0.015828
56.604,67.6336,0.015800
56.635,67.6398,0.015800
56.666,67.6460,0.015800
56.697,67.6522,0.015800
56.728,67.6583,0.015800
56.759,67.6646,0.015800
56.790,67.6708,0.015800
56.820,67.6769,0.015800
56.851,67.6831,0.015809
56.883,67.6895,0.015809
56.915,67.6958,0.015809
56.945,67.7018,0.015809
56.978,67.7084,0.015809
57.009,67.7146,0.015809
57.041,67.7211,0.015809
57.072,67.7272,0.015809
57.104,67.7337,0.015809
57.134,67.7396,0.015781
57.166,67.7459,0.015781
57.196,67.7521,0.015781
57.227,67.7582,0.015781
57.257,67.7644,0.015781
57.289,67.7706,0.015781
57.320,67.7769,0.015781
57.352,67.7831,0.015781
57.382,67.7894,0.015734
57.414,67.7958,0.015734
57.446,67.8020,0.015734
57.477,67.8082,0.015734
57.508,67.8145,0.015734
57.539,67.8206,0.015734
57.570,67.8269,0.015734
57.601,67.8330,0.015734
57.632,67.8392,0.015828
57.662,67.8453,0.015828
57.694,67.8516,0.015828
57.725,67.8579,0.015828
57.756,67.8639,0.015828
57.787,67.8703,0.015828
57.818,67.8765,0.015828
57.849,67.8826,0.015828
57.880,67.8888,0.015847
57.911,67.8950,0.015847
57.942,67.9012,0.015847
57.974,67.9077,0.015847
58.004,67.9136,0.015847
58.036,67.9199,0.015847
58.067,67.9261,0.015847
58.098,67.9323,0.015847
58.129,67.9387,0.015819
58.161,67.9450,0.015819
58.191,67.9511,0.015819
58.222,67.9572,0.015819
58.253,67.9634,0.015819
58.284,67.9696,0.015819
58.315,67.9758,0.015819
58.346,67.9820,0.015819
58.377,67.9880,0.015809
58.407,67.9944,0.015809
58.439,68.0007,0.015809
58.471,68.0070,0.015809
58.502,68.0131,0.015809
58.534,68.0195,0.015809
58.564,68.0256,0.015809
58.596,68.0321,0.015809
58.626,68.0379,0.015819
58.657,68.0443,0.015819
58.688,68.0504,0.015819
58.720,68.0569,0.015819
58.751,68.0631,0.015819
58.783,68.0693,0.015819
58.813,68.0755,0.015819
58.845,68.0817,0.015809
58.875,68.0880,0.015809
58.906,68.0941,0.015809
58.938,68.1003,0.015809
58.970,68.1069,0.015809
58.999,68.1127,0.015809
59.030,68.1190,0.015809
59.062,68.1251,0.015809
59.093,68.1314,0.015809
59.125,68.1377,0.015809
59.155,68.1439,0.015800
59.186,68.1500,0.015800
59.218,68.1565,0.015800
59.250,68.1628,0.015800
59.281,68.1692,0.015800
59.313,68.1754,0.015800
59.344,68.1816,0.015809
59.375,68.1878,0.015809
59.408,68.1944,0.015809
59.437,68.2002,0.015809
59.468,68.2064,0.015809
59.499,68.2126,0.015809
59.531,68.2188,0.015809
59.562,68.2254,0.015809
59.593,68.2314,0.015781
59.624,68.2376,0.015781
59.655,68.2438,0.015781
59.687,68.2503,0.015781
59.719,68.2565,0.015781
59.750,68.2629,0.015781
59.781,68.2689,0.015781
59.812,68.2752,0.015781
59.843,68.2815,0.015800
59.874,68.2876,0.015800
59.905,68.2936,0.015800
59.936,68.3000,0.015800
59.967,68.3063,0.015800
59.997,68.3122,0.015800
60.028,68.3183,0.015800
60.059,68.3246,0.015800
60.090,68.3307,0.015800
60.121,68.3369,0.015800
60.151,68.3429,0.015838
60.183,68.3494,0.015838
60.214,68.3555,0.015838
60.245,68.3617,0.015838
60.276,68.3679,0.015838
60.307,68.3742,0.015838
60.339,68.3807,0.015838
60.371,68.3870,0.015838
60.403,68.3932,0.015838
60.434,68.3995,0.015838
60.465,68.4056,0.015838
60.496,68.4121,0.015838
60.528,68.4184,0.015838
60.557,68.4242,0.015838
60.589,68.4306,0.015838
60.619,68.4368,0.015838
60.650,68.4427,0.015819
60.682,68.4492,0.015819
60.713,68.4554,0.015819
60.744,68.4617,0.015819
60.776,68.4680,0.015819
60.808,68.4745,0.015819
60.840,68.4809,0.015819
60.870,68.4871,0.015819
60.900,68.4928,0.015885
60.932,68.4990,0.015885
60.963,68.5053,0.015885
60.994,68.5117,0.015885
61.024,68.5177,0.015885
61.056,68.5239,0.015885
61.087,68.5303,0.015885
61.116,68.5358,0.015885
61.147,68.5423,0.015904
61.178,68.5484,0.015904
61.210,68.5547,0.015904
61.241,68.5609,0.015904
61.272,68.5672,0.015904
61.304,68.5734,0.015904
61.335,68.5796,0.015904
61.365,68.5858,0.015904
61.397,68.5922,0.015866
61.428,68.5985,0.015866
61.459,68.6046,0.015866
61.490,68.6108,0.015866
61.521,68.6170,0.015866
61.552,68.6233,0.015866
61.583,68.6294,0.015866
61.614,68.6356,0.015866
61.647,68.6421,0.015875
61.677,68.6481,0.015875
61.707,68.6544,0.015875
61.738,68.6604,0.015875
61.770,68.6668,0.015875
61.802,68.6730,0.015875
61.832,68.6793,0.015875
61.864,68.6857,0.015875
61.894,68.6917,0.015847
61.926,68.6981,0.015847
61.958,68.7044,0.015847
61.990,68.7108,0.015847
62.020,68.7168,0.015847
62.050,68.7229,0.015847
62.081,68.7290,0.015847
62.113,68.7354,0.015809
62.146,68.7419,0.015809
62.175,68.7477,0.015809
62.206,68.7541,0.015809
62.237,68.7602,0.015809
62.269,68.7665,0.015809
62.298,68.7725,0.015809
62.329,68.7786,0.015809
62.360,68.7849,0.015809
62.392,68.7911,0.015828
62.423,68.7973,0.015828
62.453,68.8034,0.015828
62.485,68.8098,0.015828
62.516,68.8159,0.015828
62.546,68.8221,0.015828
62.577,68.8282,0.015828
62.608,68.8345,0.015847
62.640,68.8407,0.015847
62.671,68.8469,0.015847
62.701,68.8531,0.015847
62.731,68.8591,0.015847
62.762,68.8654,0.015847
62.794,68.8717,0.015847
62.826,68.8780,0.015847
62.857,68.8842,0.015847
62.889,68.8906,0.015866
62.920,68.8969,0.015866
62.951,68.9031,0.015866
62.982,68.9093,0.015866
63.013,68.9156,0.015866
63.045,68.9218,0.015866
63.077,68.9283,0.015866
63.108,68.9343,0.015866
63.140,68.9408,0.015857
63.172,68.9471,0.015857
63.203,68.9534,0.015857
63.234,68.9596,0.015857
63.266,68.9660,0.015857
63.296,68.9720,0.015857
63.327,68.9781,0.015857
63.357,68.9842,0.015857
63.389,68.9905,0.015800
63.421,68.9968,0.015800
63.452,69.0030,0.015800
63.483,69.0094,0.015800
63.514,69.0156,0.015800
63.545,69.0219,0.015800
63.576,69.0280,0.015800
63.606,69.0340,0.015809
63.637,69.0401,0.015809
63.668,69.0465,0.015809
63.699,69.0528,0.015809
63.730,69.0589,0.015809
63.762,69.0652,0.015809
63.793,69.0713,0.015809
63.824,69.0776,0.015809
63.855,69.0838,0.015857
63.886,69.0900,0.015857
63.917,69.0962,0.015857
63.948,69.1024,0.015857
63.979,69.1086,0.015857
64.010,69.1148,0.015857
64.041,69.1209,0.015857
64.072,69.1271,0.015857
64.103,69.1333,0.015847
64.134,69.1395,0.015847
64.165,69.1459,0.015847
64.196,69.1521,0.015847
64.228,69.1582,0.015847
64.259,69.1645,0.015847
64.290,69.1707,0.015847
64.322,69.1772,0.015847
64.353,69.1832,0.015819
64.385,69.1896,0.015819
64.415,69.1958,0.015819
64.447,69.2020,0.015819
64.477,69.2082,0.015819
64.509,69.2145,0.015819
64.540,69.2208,0.015819
64.571,69.2270,0.015819
64.603,69.2334,0.015838
64.634,69.2396,0.015838
64.665,69.2458,0.015838
64.695,69.2518,0.015838
64.727,69.2582,0.015838
64.758,69.2644,0.015838
64.789,69.2707,0.015838
64.820,69.2766,0.015838
64.850,69.2828,0.015838
64.881,69.2889,0.015753
64.912,69.2952,0.015753
64.943,69.3013,0.015753
64.974,69.3076,0.015753
65.003,69.3134,0.015753
65.035,69.3199,0.015753
65.067,69.3261,0.015753
65.099,69.3326,0.015753
65.129,69.3385,0.015762
65.161,69.3449,0.015762
65.192,69.3511,0.015762
65.222,69.3573,0.015762
65.253,69.3633,0.015762
65.284,69.3697,0.015762
65.315,69.3759,0.015762
65.346,69.3821,0.015762
65.377,69.3883,0.015885
65.407,69.3942,0.015885
65.438,69.4003,0.015885
65.469,69.4066,0.015885
65.500,69.4127,0.015885
65.531,69.4190,0.015885
65.563,69.4253,0.015885
65.595,69.4317,0.015885
65.625,69.4377,0.015838
65.655,69.4438,0.015838
65.686,69.4498,0.015838
65.716,69.4560,0.015838
65.748,69.4623,0.015838
65.778,69.4684,0.015838
65.809,69.4747,0.015838
65.840,69.4808,0.015838
65.871,69.4871,0.015800
65.903,69.4933,0.015800
65.935,69.4998,0.015800
65.965,69.5057,0.015800
65.995,69.5119,0.015800
66.025,69.5179,0.015800
66.056,69.5241,0.015800
66.087,69.5301,0.015819
66.118,69.5365,0.015819
66.150,69.5427,0.015819
66.180,69.5489,0.015819
66.213,69.5554,0.015819
66.243,69.5614,0.015819
66.275,69.5676,0.015819
66.305,69.5738,0.015819
66.336,69.5799,0.015819
66.367,69.5863,0.015828
66.398,69.5924,0.015828
66.430,69.5989,0.015828
66.461,69.6049,0.015828
66.492,69.6111,0.015828
66.523,69.6173,0.015828
66.554,69.6237,0.015828
66.585,69.6299,0.015828
66.617,69.6362,0.015809
66.648,69.6424,0.015809
66.680,69.6490,0.015809
66.711,69.6550,0.015809
66.743,69.6615,0.015809
66.774,69.6674,0.015809
66.804,69.6735,0.015809
66.836,69.6798,0.015809
66.867,69.6860,0.015772
66.898,69.6924,0.015772
66.929,69.6984,0.015772
66.960,69.7046,0.015772
66.991,69.7112,0.015772
67.022,69.7172,0.015772
67.053,69.7232,0.015772
67.084,69.7296,0.015772
67.116,69.7361,0.015743
67.147,69.7421,0.015743
67.178,69.7482,0.015743
67.208,69.7544,0.015743
67.239,69.7606,0.015743
67.270,69.7669,0.015743
67.301,69.7730,0.015743
67.333,69.7792,0.015706
67.363,69.7855,0.015706
67.394,69.7916,0.015706
67.426,69.7979,0.015706
67.457,69.8041,0.015706
67.488,69.8102,0.015706
67.519,69.8165,0.015706
67.550,69.8226,0.015706
67.580,69.8288,0.015706
67.610,69.8347,0.015800
67.641,69.8411,0.015800
67.673,69.8474,0.015800
67.704,69.8536,0.015800
67.735,69.8598,0.015800
67.766,69.8660,0.015800
67.797,69.8722,0.015800
67.828,69.8783,0.015800
67.859,69.8845,0.015866
67.890,69.8906,0.015866
67.920,69.8969,0.015866
67.952,69.9030,0.015866
67.983,69.9093,0.015866
68.012,69.9152,0.015866
68.044,69.9214,0.015866
68.074,69.9276,0.015866
68.106,69.9340,0.015838
68.136,69.9398,0.015838
68.167,69.9461,0.015838
68.197,69.9521,0.015838
68.228,69.9584,0.015838
68.259,69.9646,0.015838
68.290,69.9707,0.015838
68.321,69.9770,0.015838
68.352,69.9832,0.015838
68.383,69.9894,0.015809
68.414,69.9956,0.015809
68.445,70.0018,0.015809
68.471,70.0070,0.015809
68.508,70.0143,0.015809
68.539,70.0205,0.015809
68.570,70.0266,0.015809
68.600,70.0328,0.015809
68.630,70.0388,0.015809
68.662,70.0452,0.015734
68.692,70.0512,0.015734
68.723,70.0574,0.015734
68.754,70.0634,0.015734
68.785,70.0698,0.015734
68.816,70.0758,0.015734
68.847,70.0820,0.015734
68.878,70.0884,0.015743
68.910,70.0947,0.015743
68.941,70.1008,0.015743
68.972,70.1071,0.015743
69.003,70.1134,0.015743
69.035,70.1196,0.015743
69.065,70.1257,0.015743
69.097,70.1322,0.015743
69.127,70.1382,0.015809
69.158,70.1446,0.015809
69.189,70.1505,0.015809
69.222,70.1572,0.015809
69.253,70.1634,0.015809
69.284,70.1696,0.015809
69.315,70.1757,0.015809
69.346,70.1821,0.015809
69.378,70.1882,0.015791
69.409,70.1947,0.015791
69.440,70.2006,0.015791
69.472,70.2072,0.015791
69.503,70.2133,0.015791
69.534,70.2197,0.015791
69.565,70.2258,0.015791
69.596,70.2320,0.015791
69.627,70.2382,0.015800
69.658,70.2443,0.015800
69.689,70.2506,0.015800
69.720,70.2567,0.015800
69.751,70.2629,0.015800
69.782,70.2690,0.015800
69.812,70.2754,0.015800
69.843,70.2814,0.015800
69.874,70.2876,0.015791
69.906,70.2938,0.015791
69.936,70.2998,0.015791
69.967,70.3062,0.015791
69.999,70.3125,0.015791
70.030,70.3188,0.015791
70.062,70.3251,0.015791
70.093,70.3315,0.015791
70.125,70.3377,0.015791
70.156,70.3440,0.015791
70.187,70.3501,0.015791
70.219,70.3564,0.015791
70.250,70.3626,0.015791
70.281,70.3687,0.015791
70.311,70.3740,0.015791
70.343,70.3783,0.015791
70.375,70.3823,0.015809
70.405,70.3852,0.015809
70.436,70.3876,0.015809
70.467,70.3891,0.015809
70.498,70.3901,0.015809
70.529,70.3902,0.015809
70.561,70.3902,0.015809
70.592,70.3902,0.015809
70.623,70.3902,0.015847
70.655,70.3902,0.015847
70.686,70.3902,0.015847
70.717,70.3902,0.015847
70.748,70.3902,0.015847
70.778,70.3902,0.015847
70.809,70.3902,0.015847
70.840,70.3902,0.015857
70.871,70.3902,0.015857
70.902,70.3902,0.015857
70.933,70.3902,0.015857
70.964,70.3902,0.015857
70.995,70.3902,0.015857
71.026,70.3902,0.015857
71.056,70.3902,0.015857
71.087,70.3902,0.015857
71.118,70.3902,0.015857
71.150,70.3902,0.015857
71.182,70.3902,0.015857
71.213,70.3902,0.015857
71.245,70.3902,0.015857
71.276,70.3902,0.015857
71.308,70.3902,0.015857
71.339,70.3902,0.015838
71.370,70.3902,0.015838
71.401,70.3902,0.015838
71.432,70.3902,0.015838
71.463,70.3902,0.015838
71.493,70.3902,0.015838
71.524,70.3902,0.015838
71.555,70.3902,0.015838
71.586,70.3902,0.015838
71.618,70.3902,0.015809
71.648,70.3902,0.015809
71.679,70.3902,0.015809
71.710,70.3902,0.015809
71.742,70.3902,0.015809
71.772,70.3902,0.015809
71.804,70.3902,0.015809
71.836,70.3902,0.015809
71.866,70.3902,0.015809
71.898,70.3902,0.015809
71.928,70.3902,0.015809
71.959,70.3902,0.015809
71.990,70.3902,0.015809
72.021,70.3902,0.015809
72.051,70.3902,0.015809
72.082,70.3902,0.015809
72.114,70.3902,0.015753
72.145,70.3902,0.015753
72.177,70.3902,0.015753
72.208,70.3902,0.015753
72.239,70.3902,0.015753
72.271,70.3902,0.015753
72.302,70.3902,0.015753
72.332,70.3902,0.015753
72.364,70.3902,0.015753
72.395,70.3902,0.015753
72.427,70.3902,0.015753
72.457,70.3902,0.015753
72.488,70.3902,0.015753
72.519,70.3902,0.015753
72.550,70.3902,0.015753
72.582,70.3902,0.015781
72.612,70.3902,0.015781
72.644,70.3902,0.015781
72.674,70.3902,0.015781
72.705,70.3902,0.015781
72.736,70.3902,0.015781
72.767,70.3902,0.015781
72.798,70.3902,0.015781
72.830,70.3902,0.015781
72.861,70.3902,0.015781
72.892,70.3902,0.015781
72.923,70.3902,0.015781
72.954,70.3902,0.015781
72.985,70.3902,0.015781
73.016,70.3902,0.015781
73.047,70.3902,0.015781
73.078,70.3902,0.015781
73.109,70.3902,0.015809
73.140,70.3902,0.015809
73.171,70.3902,0.015809
73.202,70.3902,0.015809
73.233,70.3902,0.015809
73.265,70.3902,0.015809
73.296,70.3902,0.015809
73.326,70.3902,0.015809
73.358,70.3902,0.015838
73.388,70.3902,0.015838
73.420,70.3902,0.015838
73.452,70.3902,0.015838
73.483,70.3902,0.015838
73.514,70.3902,0.015838
73.545,70.3902,0.015838
73.576,70.3902,0.015838
73.608,70.3902,0.015819
73.639,70.3902,0.015819
73.670,70.3902,0.015819
73.702,70.3902,0.015819
73.733,70.3902,0.015819
73.764,70.3902,0.015819
73.795,70.3902,0.015819
73.826,70.3902,0.015819
73.857,70.3902,0.015819
73.889,70.3902,0.015819
73.920,70.3902,0.015819
73.950,70.3902,0.015819
73.981,70.3902,0.015819
74.012,70.3902,0.015819
74.042,70.3902,0.015819
74.074,70.3902,0.015819
74.106,70.3902,0.015838
74.136,70.3902,0.015838
74.167,70.3902,0.015838
74.197,70.3902,0.015838
74.228,70.3902,0.015838
74.259,70.3902,0.015838
74.290,70.3902,0.015838
74.321,70.3902,0.015838
74.352,70.3902,0.015838
74.384,70.3902,0.015847
74.416,70.3902,0.015847
74.447,70.3902,0.015847
74.477,70.3902,0.015847
74.508,70.3902,0.015847
74.540,70.3902,0.015847
74.571,70.3902,0.015847
74.602,70.3902,0.015847
74.633,70.3902,0.015819
74.666,70.3902,0.015819
74.696,70.3902,0.015819
74.728,70.3902,0.015819
74.758,70.3902,0.015819
74.789,70.3902,0.015819
74.819,70.3902,0.015819
74.850,70.3901,0.015819
74.882,70.3895,0.015772
74.914,70.3880,0.015772
74.944,70.3859,0.015772
74.975,70.3829,0.015772
75.006,70.3795,0.015772
75.037,70.3750,0.015772
75.068,70.3700,0.015772
75.098,70.3642,0.015772
75.129,70.3580,0.015875
75.160,70.3518,0.015875
75.191,70.3457,0.015875
75.222,70.3395,0.015875
75.253,70.3333,0.015875
75.284,70.3270,0.015875
75.316,70.3208,0.015875
75.346,70.3146,0.015875
75.380,70.3079,0.015913
75.409,70.3022,0.015913
75.440,70.2960,0.015913
75.470,70.2899,0.015913
75.502,70.2836,0.015913
75.533,70.2773,0.015913
75.565,70.2709,0.015913
75.596,70.2647,0.015913
75.626,70.2588,0.015800
75.658,70.2522,0.015800
75.689,70.2463,0.015800
75.720,70.2399,0.015800
75.751,70.2339,0.015800
75.782,70.2277,0.015800
75.812,70.2213,0.015800
75.843,70.2152,0.015800
75.874,70.2090,0.015753
75.904,70.2030,0.015753
75.935,70.1966,0.015753
75.966,70.1907,0.015753
75.997,70.1844,0.015753
76.029,70.1780,0.015753
76.060,70.1718,0.015753
76.091,70.1656,0.015753
76.122,70.1593,0.015791
76.153,70.1531,0.015791
76.184,70.1470,0.015791
76.215,70.1408,0.015791
76.246,70.1346,0.015791
76.277,70.1283,0.015791
76.308,70.1222,0.015791
76.339,70.1162,0.015791
76.370,70.1100,0.015809
76.401,70.1038,0.015809
76.433,70.0974,0.015809
76.465,70.0910,0.015809
76.495,70.0850,0.015809
76.526,70.0788,0.015809
76.556,70.0727,0.015809
76.587,70.0664,0.015809
76.618,70.0603,0.015819
76.650,70.0540,0.015819
76.680,70.0478,0.015819
76.711,70.0416,0.015819
76.742,70.0355,0.015819
76.773,70.0293,0.015819
76.804,70.0230,0.015819
76.834,70.0171,0.015819
76.865,70.0109,0.015819
76.896,70.0047,0.015819
76.927,69.9986,0.015819
76.958,69.9921,0.015819
76.989,69.9861,0.015819
77.021,69.9797,0.015819
77.052,69.9734,0.015819
77.083,69.9673,0.015819
77.114,69.9610,0.015838
77.147,69.9546,0.015838
77.177,69.9485,0.015838
77.209,69.9421,0.015838
77.240,69.9359,0.015838
77.271,69.9297,0.015838
77.303,69.9234,0.015838
77.334,69.9172,0.015838
77.364,69.9111,0.015838
77.395,69.9051,0.015838
77.426,69.8987,0.015838
77.457,69.8924,0.015838
77.489,69.8862,0.015838
77.519,69.8801,0.015838
77.550,69.8739,0.015838
77.581,69.8676,0.015838
77.612,69.8613,0.015838
77.645,69.8550,0.015838
77.674,69.8489,0.015838
77.705,69.8429,0.015838
77.736,69.8365,0.015838
77.767,69.8305,0.015838
77.798,69.8243,0.015838
77.829,69.8181,0.015838
77.860,69.8118,0.015809
77.892,69.8055,0.015809
77.923,69.7993,0.015809
77.953,69.7933,0.015809
77.984,69.7871,0.015809
78.015,69.7809,0.015809
78.045,69.7748,0.015809
78.076,69.7686,0.015809
78.108,69.7624,0.015800
78.138,69.7564,0.015800
78.170,69.7500,0.015800
78.201,69.7438,0.015800
78.231,69.7376,0.015800
78.262,69.7314,0.015800
78.293,69.7254,0.015800
78.324,69.7193,0.015800
78.355,69.7130,0.015800
78.386,69.7069,0.015781
78.417,69.7006,0.015781
78.448,69.6944,0.015781
78.480,69.6879,0.015781
78.511,69.6818,0.015781
78.542,69.6755,0.015781
78.574,69.6690,0.015781
78.606,69.6628,0.015781
78.636,69.6566,0.015781
78.666,69.6507,0.015781
78.697,69.6446,0.015781
78.727,69.6385,0.015781
78.759,69.6322,0.015781
78.790,69.6259,0.015781
78.821,69.6197,0.015781
78.853,69.6134,0.015781
78.883,69.6073,0.015847
78.915,69.6010,0.015847
78.947,69.5946,0.015847
78.978,69.5884,0.015847
79.009,69.5822,0.015847
79.040,69.5760,0.015847
79.071,69.5698,0.015847
79.102,69.5635,0.015838
79.133,69.5574,0.015838
79.165,69.5510,0.015838
79.196,69.5448,0.015838
79.226,69.5387,0.015838
79.258,69.5323,0.015838
79.288,69.5262,0.015838
79.320,69.5200,0.015838
79.350,69.5139,0.015838
79.382,69.5076,0.015791
79.413,69.5012,0.015791
79.444,69.4952,0.015791
79.475,69.4888,0.015791
79.507,69.4826,0.015791
79.537,69.4764,0.015791
79.568,69.4704,0.015791
79.599,69.4642,0.015791
79.630,69.4580,0.015743
79.661,69.4518,0.015743
79.693,69.4453,0.015743
79.722,69.4394,0.015743
79.754,69.4333,0.015743
79.785,69.4270,0.015743
79.818,69.4203,0.015743
79.849,69.4142,0.015781
79.879,69.4080,0.015781
79.910,69.4020,0.015781
79.941,69.3957,0.015781
79.972,69.3896,0.015781
80.004,69.3832,0.015781
80.035,69.3770,0.015781
80.065,69.3709,0.015781
80.097,69.3646,0.015781
80.129,69.3581,0.015828
80.159,69.3522,0.015828
80.191,69.3456,0.015828
80.222,69.3395,0.015828
80.253,69.3332,0.015828
80.284,69.3271,0.015828
80.315,69.3209,0.015828
80.346,69.3148,0.015828
80.377,69.3086,0.015791
80.408,69.3023,0.015791
80.439,69.2960,0.015791
80.469,69.2902,0.015791
80.500,69.2838,0.015791
80.532,69.2775,0.015791
80.562,69.2716,0.015791
80.593,69.2654,0.015791
80.624,69.2592,0.015809
80.656,69.2528,0.015809
80.687,69.2466,0.015809
80.720,69.2401,0.015809
80.750,69.2340,0.015809
80.782,69.2274,0.015809
80.815,69.2210,0.015809
80.844,69.2151,0.015809
80.876,69.2088,0.015781
80.907,69.2025,0.015781
80.939,69.1961,0.015781
80.971,69.1898,0.015781
81.001,69.1837,0.015781
81.032,69.1774,0.015781
81.063,69.1712,0.015781
81.095,69.1650,0.015762
81.125,69.1589,0.015762
81.157,69.1526,0.015762
81.188,69.1463,0.015762
81.218,69.1402,0.015762
81.249,69.1341,0.015762
81.280,69.1278,0.015762
81.311,69.1217,0.015762
81.342,69.1153,0.015762
81.373,69.1092,0.015857
81.405,69.1030,0.015857
81.435,69.0969,0.015857
81.466,69.0905,0.015857
81.498,69.0842,0.015857
81.529,69.0780,0.015857
81.561,69.0718,0.015857
81.592,69.0654,0.015866
81.624,69.0592,0.015866
81.654,69.0531,0.015866
81.685,69.0469,0.015866
81.716,69.0407,0.015866
81.747,69.0344,0.015866
81.778,69.0283,0.015866
81.811,69.0219,0.015866
81.841,69.0157,0.015847
81.873,69.0095,0.015847
81.903,69.0033,0.015847
81.934,68.9971,0.015847
81.965,68.9910,0.015847
81.995,68.9848,0.015847
82.026,68.9787,0.015847
82.057,68.9725,0.015847
82.089,68.9661,0.015847
82.119,68.9601,0.015847
82.150,68.9538,0.015885
82.180,68.9479,0.015885
82.212,68.9417,0.015885
82.242,68.9355,0.015885
82.273,68.9292,0.015885
82.305,68.9228,0.015885
82.336,68.9167,0.015885
82.367,68.9104,0.015847
82.399,68.9042,0.015847
82.429,68.8981,0.015847
82.460,68.8919,0.015847
82.491,68.8856,0.015847
82.522,68.8795,0.015847
82.553,68.8733,0.015847
82.584,68.8671,0.015847
82.616,68.8607,0.015819
82.647,68.8545,0.015819
82.679,68.8480,0.015819
82.710,68.8419,0.015819
82.742,68.8356,0.015819
82.773,68.8294,0.015819
82.804,68.8232,0.015819
82.835,68.8169,0.015819
82.867,68.8107,0.015819
82.898,68.8044,0.015819
82.928,68.7984,0.015819
82.959,68.7922,0.015819
82.989,68.7861,0.015819
83.021,68.7797,0.015819
83.052,68.7734,0.015819
83.082,68.7676,0.015819
83.113,68.7613,0.015800
83.145,68.7550,0.015800
83.176,68.7488,0.015800
83.207,68.7425,0.015800
83.239,68.7363,0.015800
83.270,68.7299,0.015800
83.301,68.7237,0.015800
83.333,68.7174,0.015800
83.364,68.7110,0.015809
83.395,68.7049,0.015809
83.427,68.6986,0.015809
83.458,68.6924,0.015809
83.489,68.6862,0.015809
83.519,68.6800,0.015809
83.550,68.6739,0.015809
83.582,68.6677,0.015828
83.614,68.6612,0.015828
83.643,68.6554,0.015828
83.674,68.6492,0.015828
83.704,68.6431,0.015828
83.735,68.6371,0.015828
83.767,68.6305,0.015828
83.798,68.6243,0.015828
83.830,68.6180,0.015828
83.861,68.6117,0.015800
83.892,68.6055,0.015800
83.923,68.5991,0.015800
83.955,68.5930,0.015800
83.986,68.5868,0.015800
84.017,68.5805,0.015800
84.048,68.5744,0.015800
84.079,68.5681,0.015800
84.109,68.5621,0.015809
84.140,68.5559,0.015809
84.171,68.5496,0.015809
84.202,68.5435,0.015809
84.233,68.5375,0.015809
84.263,68.5313,0.015809
84.294,68.5252,0.015809
84.325,68.5189,0.015809
84.357,68.5125,0.015838
84.390,68.5060,0.015838
84.419,68.5001,0.015838
84.451,68.4938,0.015838
84.483,68.4874,0.015838
84.513,68.4813,0.015838
84.544,68.4752,0.015838
84.575,68.4690,0.015838
84.606,68.4627,0.015838
84.638,68.4562,0.015838
84.670,68.4499,0.015857
84.700,68.4438,0.015857
84.731,68.4377,0.015857
84.762,68.4314,0.015857
84.794,68.4252,0.015857
84.824,68.4190,0.015857
84.856,68.4128,0.015857
84.886,68.4066,0.015847
84.917,68.4004,0.015847
84.948,68.3942,0.015847
84.980,68.3880,0.015847
85.011,68.3814,0.015847
85.043,68.3755,0.015847
85.074,68.3692,0.015847
85.105,68.3630,0.015847
85.136,68.3569,0.015809
85.167,68.3504,0.015809
85.198,68.3445,0.015809
85.229,68.3380,0.015809
85.262,68.3316,0.015809
85.291,68.3258,0.015809
85.322,68.3196,0.015809
85.354,68.3132,0.015809
85.385,68.3069,0.015847
85.416,68.3007,0.015847
85.447,68.2946,0.015847
85.478,68.2884,0.015847
85.508,68.2823,0.015847
85.540,68.2760,0.015847
85.571,68.2698,0.015847
85.603,68.2635,0.015847
85.634,68.2570,0.015866
85.666,68.2508,0.015866
85.696,68.2445,0.015866
85.727,68.2384,0.015866
85.758,68.2322,0.015866
85.789,68.2263,0.015866
85.820,68.2200,0.015866
85.852,68.2136,0.015866
85.883,68.2074,0.015857
85.914,68.2012,0.015857
85.945,68.1950,0.015857
85.976,68.1887,0.015857
86.008,68.1825,0.015857
86.039,68.1761,0.015857
86.070,68.1700,0.015857
86.101,68.1637,0.015857
86.132,68.1575,0.015838
86.164,68.1511,0.015838
86.195,68.1449,0.015838
86.225,68.1390,0.015838
86.256,68.1326,0.015838
86.287,68.1267,0.015838
86.318,68.1201,0.015838
86.349,68.1142,0.015838
86.380,68.1080,0.015838
86.410,68.1018,0.015809
86.442,68.0957,0.015809
86.473,68.0894,0.015809
86.504,68.0832,0.015809
86.536,68.0768,0.015809
86.567,68.0705,0.015809
86.598,68.0643,0.015809
86.630,68.0580,0.015838
86.661,68.0518,0.015838
86.692,68.0456,0.015838
86.723,68.0394,0.015838
86.754,68.0332,0.015838
86.785,68.0270,0.015838
86.816,68.0209,0.015838
86.847,68.0146,0.015838
86.877,68.0081,0.015838
86.909,68.0023,0.015866
86.940,67.9960,0.015866
86.971,67.9898,0.015866
87.003,67.9833,0.015866
87.034,67.9771,0.015866
87.065,67.9709,0.015866
87.097,67.9646,0.015866
87.128,67.9583,0.015828
87.159,67.9522,0.015828
87.190,67.9460,0.015828
87.221,67.9398,0.015828
87.252,67.9333,0.015828
87.284,67.9273,0.015828
87.314,67.9212,0.015828
87.346,67.9149,0.015828
87.377,67.9085,0.015828
87.408,67.9022,0.015828
87.439,67.8960,0.015828
87.469,67.8901,0.015828
87.501,67.8836,0.015828
87.531,67.8778,0.015828
87.562,67.8716,0.015828
87.593,67.8654,0.015828
87.624,67.8593,0.015866
87.655,67.8531,0.015866
87.685,67.8469,0.015866
87.716,67.8407,0.015866
87.747,67.8346,0.015866
87.779,67.8282,0.015866
87.809,67.8220,0.015866
87.841,67.8158,0.015866
87.873,67.8094,0.015819
87.904,67.8032,0.015819
87.935,67.7970,0.015819
87.966,67.7907,0.015819
87.996,67.7845,0.015819
88.028,67.7784,0.015819
88.059,67.7722,0.015819
88.090,67.7662,0.015819
88.120,67.7600,0.015772
88.152,67.7536,0.015772
88.183,67.7473,0.015772
88.214,67.7411,0.015772
88.245,67.7350,0.015772
88.276,67.7288,0.015772
88.307,67.7225,0.015772
88.339,67.7162,0.015772
88.369,67.7101,0.015762
88.400,67.7040,0.015762
88.431,67.6978,0.015762
88.462,67.6915,0.015762
88.494,67.6853,0.015762
88.525,67.6788,0.015762
88.557,67.6728,0.015762
88.588,67.6664,0.015762
88.618,67.6604,0.015791
88.650,67.6540,0.015791
88.680,67.6480,0.015791
88.711,67.6416,0.015791
88.743,67.6354,0.015791
88.774,67.6291,0.015791
88.805,67.6230,0.015791
88.835,67.6170,0.015791
88.867,67.6105,0.015847
88.899,67.6042,0.015847
88.930,67.5981,0.015847
88.961,67.5918,0.015847
88.992,67.5856,0.015847
89.023,67.5795,0.015847
89.053,67.5735,0.015847
89.083,67.5673,0.015866
89.115,67.5611,0.015866
89.146,67.5547,0.015866
89.177,67.5486,0.015866
89.209,67.5422,0.015866
89.240,67.5360,0.015866
89.271,67.5296,0.015866
89.303,67.5233,0.015866
89.334,67.5171,0.015866
89.366,67.5109,0.015857
89.396,67.5046,0.015857
89.426,67.4988,0.015857
89.458,67.4923,0.015857
89.489,67.4862,0.015857
89.520,67.4802,0.015857
89.550,67.4738,0.015857
89.582,67.4675,0.015819
89.613,67.4613,0.015819
89.644,67.4552,0.015819
89.676,67.4489,0.015819
89.707,67.4427,0.015819
89.738,67.4365,0.015819
89.768,67.4304,0.015819
89.799,67.4243,0.015819
89.829,67.4181,0.015819
89.860,67.4121,0.015828
89.891,67.4059,0.015828
89.922,67.3995,0.015828
89.952,67.3936,0.015828
89.984,67.3871,0.015828
90.015,67.3809,0.015828
90.046,67.3747,0.015828
90.077,67.3687,0.015828
90.109,67.3625,0.015800
90.140,67.3571,0.015800
90.170,67.3525,0.015800
90.201,67.3487,0.015800
90.232,67.3456,0.015800
90.263,67.3432,0.015800
90.293,67.3415,0.015800
90.325,67.3405,0.015800
90.355,67.3403,0.015800
90.386,67.3403,0.015725
90.418,67.3403,0.015725
90.449,67.3404,0.015725
90.481,67.3411,0.015725
90.512,67.3426,0.015725
90.543,67.3447,0.015725
90.574,67.3477,0.015725
90.606,67.3513,0.015678
90.637,67.3558,0.015678
90.669,67.3612,0.015678
90.700,67.3669,0.015678
90.730,67.3730,0.015678
90.761,67.3792,0.015678
90.792,67.3855,0.015678
90.823,67.3916,0.015678
90.855,67.3979,0.015678
90.886,67.4041,0.015687
90.917,67.4103,0.015687
90.948,67.4164,0.015687
90.979,67.4227,0.015687
91.011,67.4291,0.015687
91.042,67.4354,0.015687
91.073,67.4416,0.015687
91.105,67.4479,0.015687
91.137,67.4542,0.015734
91.168,67.4607,0.015734
91.200,67.4669,0.015734
91.231,67.4731,0.015734
91.261,67.4793,0.015734
91.292,67.4854,0.015734
91.323,67.4916,0.015734
91.355,67.4980,0.015819
91.387,67.5043,0.015819
91.418,67.5107,0.015819
91.449,67.5167,0.015819
91.479,67.5229,0.015819
91.511,67.5291,0.015819
91.542,67.5355,0.015819
91.573,67.5416,0.015819
91.603,67.5476,0.015819
91.634,67.5537,0.015866
91.666,67.5602,0.015866
91.698,67.5666,0.015866
91.730,67.5729,0.015866
91.760,67.5789,0.015866
91.791,67.5852,0.015866
91.823,67.5915,0.015866
91.853,67.5975,0.015866
91.883,67.6037,0.015800
91.914,67.6099,0.015800
91.946,67.6162,0.015800
91.976,67.6222,0.015800
92.007,67.6284,0.015800
92.038,67.6346,0.015800
92.069,67.6406,0.015800
92.100,67.6471,0.015800
92.132,67.6533,0.015772
92.163,67.6596,0.015772
92.194,67.6658,0.015772
92.226,67.6721,0.015772
92.256,67.6782,0.015772
92.288,67.6846,0.015772
92.319,67.6908,0.015772
92.350,67.6971,0.015772
92.380,67.7030,0.015819
92.412,67.7094,0.015819
92.442,67.7154,0.015819
92.473,67.7216,0.015819
92.505,67.7281,0.015819
92.536,67.7342,0.015819
92.566,67.7401,0.015819
92.597,67.7463,0.015819
92.628,67.7526,0.015838
92.660,67.7588,0.015838
92.691,67.7652,0.015838
92.722,67.7714,0.015838
92.754,67.7777,0.015838
92.785,67.7840,0.015838
92.816,67.7901,0.015838
92.848,67.7964,0.015838
92.879,67.8027,0.015781
92.910,67.8088,0.015781
92.941,67.8151,0.015781
92.972,67.8215,0.015781
93.003,67.8275,0.015781
93.034,67.8339,0.015781
93.066,67.8401,0.015781
93.096,67.8462,0.015772
93.127,67.8524,0.015772
93.158,67.8587,0.015772
93.189,67.8649,0.015772
93.221,67.8711,0.015772
93.252,67.8774,0.015772
93.283,67.8835,0.015772
93.314,67.8898,0.015772
93.345,67.8960,0.015772
93.376,67.9023,0.015781
93.407,67.9083,0.015781
93.439,67.9149,0.015781
93.470,67.9211,0.015781
93.502,67.9275,0.015781
93.534,67.9338,0.015781
93.566,67.9400,0.015781
93.596,67.9462,0.015781
93.627,67.9523,0.015781
93.658,67.9585,0.015781
93.690,67.9648,0.015781
93.722,67.9713,0.015781
93.752,67.9772,0.015781
93.782,67.9833,0.015781
93.813,67.9895,0.015781
93.844,67.9958,0.015819
93.875,68.0018,0.015819
93.906,68.0081,0.015819
93.938,68.0145,0.015819
93.969,68.0207,0.015819
94.000,68.0270,0.015819
94.031,68.0331,0.015819
94.061,68.0393,0.015819
94.095,68.0460,0.015781
94.124,68.0518,0.015781
94.155,68.0579,0.015781
94.187,68.0643,0.015781
94.217,68.0703,0.015781
94.249,68.0767,0.015781
94.280,68.0829,0.015781
94.312,68.0895,0.015781
94.343,68.0956,0.015772
94.374,68.1018,0.015772
94.404,68.1077,0.015772
94.435,68.1140,0.015772
94.467,68.1204,0.015772
94.498,68.1266,0.015772
94.529,68.1328,0.015772
94.560,68.1390,0.015772
94.591,68.1452,0.015772
94.624,68.1517,0.015819
94.653,68.1577,0.015819
94.684,68.1639,0.015819
94.715,68.1700,0.015819
94.746,68.1762,0.015819
94.777,68.1825,0.015819
94.808,68.1887,0.015819
94.838,68.1947,0.015819
94.870,68.2010,0.015857
94.902,68.2072,0.015857
94.933,68.2134,0.015857
94.964,68.2198,0.015857
94.996,68.2260,0.015857
95.027,68.2324,0.015857
95.058,68.2384,0.015857
95.089,68.2446,0.015800
95.119,68.2507,0.015800
95.151,68.2572,0.015800
95.181,68.2632,0.015800
95.212,68.2693,0.015800
95.242,68.2755,0.015800
95.273,68.2816,0.015800
95.305,68.2880,0.015800
95.336,68.2942,0.015800
95.368,68.3007,0.015828
95.399,68.3068,0.015828
95.431,68.3132,0.015828
95.462,68.3193,0.015828
95.493,68.3258,0.015828
95.525,68.3320,0.015828
95.556,68.3384,0.015828
95.587,68.3445,0.015866
95.619,68.3507,0.015866
95.649,68.3568,0.015866
95.680,68.3630,0.015866
95.711,68.3692,0.015866
95.742,68.3752,0.015866
95.772,68.3816,0.015866
95.804,68.3876,0.015866
95.834,68.3938,0.015866
95.865,68.3999,0.015828
95.896,68.4061,0.015828
95.926,68.4122,0.015828
95.957,68.4184,0.015828
95.991,68.4250,0.015828
96.020,68.4309,0.015828
96.051,68.4371,0.015828
96.083,68.4435,0.015828
96.113,68.4497,0.015885
96.144,68.4559,0.015885
96.175,68.4621,0.015885
96.206,68.4681,0.015885
96.238,68.4746,0.015885
96.269,68.4808,0.015885
96.300,68.4869,0.015885
96.331,68.4932,0.015885
96.362,68.4993,0.015857
96.393,68.5056,0.015857
96.425,68.5120,0.015857
96.456,68.5184,0.015857
96.488,68.5246,0.015857
96.519,68.5309,0.015857
96.550,68.5370,0.015857
96.581,68.5433,0.015857
96.612,68.5494,0.015800
96.643,68.5557,0.015800
96.674,68.5618,0.015800
96.706,68.5681,0.015800
96.737,68.5744,0.015800
96.768,68.5804,0.015800
96.799,68.5867,0.015800
96.830,68.5929,0.015819
96.861,68.5992,0.015819
96.893,68.6054,0.015819
96.923,68.6116,0.015819
96.954,68.6177,0.015819
96.986,68.6242,0.015819
97.016,68.6301,0.015819
97.048,68.6364,0.015819
97.078,68.6425,0.015819
97.109,68.6488,0.015819
97.141,68.6550,0.015819
97.173,68.6616,0.015819
97.204,68.6677,0.015819
97.235,68.6740,0.015819
97.266,68.6800,0.015819
97.298,68.6864,0.015819
97.329,68.6926,0.015819
97.360,68.6991,0.015875
97.392,68.7054,0.015875
97.422,68.7112,0.015875
97.453,68.7174,0.015875
97.484,68.7237,0.015875
97.515,68.7299,0.015875
97.546,68.7360,0.015875
97.578,68.7423,0.015875
97.609,68.7488,0.015875
97.640,68.7549,0.015875
97.670,68.7611,0.015875
97.702,68.7672,0.015875
97.732,68.7735,0.015875
97.764,68.7797,0.015875
97.796,68.7860,0.015875
97.827,68.7923,0.015875
97.858,68.7984,0.015875
97.889,68.8049,0.015875
97.919,68.8108,0.015828
97.952,68.8173,0.015828
97.981,68.8231,0.015828
98.011,68.8293,0.015828
98.043,68.8354,0.015828
98.073,68.8417,0.015828
98.104,68.8478,0.015828
98.136,68.8542,0.015838
98.166,68.8602,0.015838
98.197,68.8664,0.015838
98.229,68.8727,0.015838
98.260,68.8789,0.015838
98.292,68.8853,0.015838
98.323,68.8914,0.015838
98.354,68.8976,0.015838
98.385,68.9038,0.015828
98.416,68.9100,0.015828
98.446,68.9162,0.015828
98.478,68.9224,0.015828
98.508,68.9286,0.015828
98.539,68.9347,0.015828
98.570,68.9412,0.015828
98.602,68.9472,0.015828
98.633,68.9536,0.015838
98.664,68.9596,0.015838
98.695,68.9661,0.015838
98.726,68.9722,0.015838
98.757,68.9782,0.015838
98.787,68.9843,0.015838
98.817,68.9904,0.015838
98.849,68.9968,0.015838
98.880,69.0029,0.015809
98.911,69.0091,0.015809
98.942,69.0152,0.015809
98.973,69.0215,0.015809
99.003,69.0277,0.015809
99.036,69.0340,0.015809
99.066,69.0400,0.015809
99.097,69.0465,0.015809
99.128,69.0525,0.015809
99.159,69.0587,0.015809
99.190,69.0648,0.015809
99.221,69.0711,0.015809
99.252,69.0772,0.015809
99.283,69.0835,0.015809
99.314,69.0899,0.015809
99.345,69.0959,0.015809
99.376,69.1021,0.015781
99.408,69.1085,0.015781
99.439,69.1147,0.015781
99.470,69.1211,0.015781
99.501,69.1271,0.015781
99.532,69.1333,0.015781
99.563,69.1397,0.015781
99.594,69.1457,0.015781
99.625,69.1519,0.015772
99.657,69.1583,0.015772
99.688,69.1645,0.015772
99.719,69.1708,0.015772
99.750,69.1768,0.015772
99.782,69.1832,0.015772
99.813,69.1896,0.015772
99.845,69.1959,0.015772
99.877,69.2023,0.015819
99.908,69.2086,0.015819
99.939,69.2146,0.015819
99.970,69.2210,0.015819
100.001,69.2272,0.015819
100.033,69.2334,0.015819
100.064,69.2397,0.015819
100.096,69.2460,0.015819
100.126,69.2522,0.015847
100.157,69.2585,0.015847
100.188,69.2645,0.015847
100.218,69.2706,0.015847
100.250,69.2770,0.015847
100.280,69.2828,0.015847
100.311,69.2889,0.015847
100.342,69.2952,0.015847
100.373,69.3014,0.015875
100.405,69.3079,0.015875
100.436,69.3141,0.015875
100.467,69.3204,0.015875
100.499,69.3266,0.015875
100.531,69.3331,0.015875
100.561,69.3391,0.015875
100.593,69.3456,0.015875
100.623,69.3517,0.015809
100.655,69.3580,0.015809
100.686,69.3641,0.015809
100.717,69.3703,0.015809
100.748,69.3765,0.015809
100.779,69.3828,0.015809
100.811,69.3891,0.015809
100.842,69.3953,0.015800
100.872,69.4013,0.015800
100.903,69.4076,0.015800
100.934,69.4136,0.015800
100.964,69.4198,0.015800
100.996,69.4261,0.015800
101.027,69.4323,0.015800
101.058,69.4384,0.015800
101.089,69.4448,0.015800
101.121,69.4510,0.015819
101.152,69.4573,0.015819
101.183,69.4634,0.015819
101.214,69.4697,0.015819
101.245,69.4759,0.015819
101.276,69.4821,0.015819
101.306,69.4881,0.015819
101.337,69.4943,0.015819
101.368,69.5005,0.015753
101.399,69.5067,0.015753
101.431,69.5130,0.015753
101.462,69.5192,0.015753
101.494,69.5257,0.015753
101.526,69.5320,0.015753
101.557,69.5383,0.015753
101.589,69.5447,0.015753
101.620,69.5507,0.015753
101.652,69.5572,0.015753
101.682,69.5634,0.015753
101.712,69.5692,0.015753
101.743,69.5757,0.015753
101.774,69.5816,0.015753
101.804,69.5877,0.015753
101.835,69.5940,0.015828
101.866,69.6001,0.015828
101.897,69.6063,0.015828
101.928,69.6125,0.015828
101.959,69.6187,0.015828
101.990,69.6249,0.015828
102.021,69.6311,0.015828
102.051,69.6371,0.015828
102.083,69.6434,0.015828
102.114,69.6497,0.015809
102.145,69.6559,0.015809
102.177,69.6622,0.015809
102.209,69.6687,0.015809
102.240,69.6749,0.015809
102.272,69.6812,0.015809
102.303,69.6877,0.015809
102.335,69.6939,0.015762
102.365,69.6999,0.015762
102.396,69.7061,0.015762
102.427,69.7122,0.015762
102.458,69.7187,0.015762
102.489,69.7247,0.015762
102.521,69.7311,0.015762
102.552,69.7373,0.015762
102.583,69.7435,0.015762
102.614,69.7497,0.015819
102.646,69.7560,0.015819
102.676,69.7621,0.015819
102.708,69.7684,0.015819
102.740,69.7750,0.015819
102.770,69.7808,0.015819
102.801,69.7870,0.015819
102.833,69.7934,0.015819
102.863,69.7995,0.015828
102.895,69.8058,0.015828
102.925,69.8119,0.015828
102.956,69.8181,0.015828
102.987,69.8243,0.015828
103.018,69.8304,0.015828
103.049,69.8366,0.015828
103.080,69.8429,0.015772
103.110,69.8489,0.015772
103.142,69.8555,0.015772
103.173,69.8615,0.015772
103.204,69.8677,0.015772
103.235,69.8738,0.015772
103.266,69.8801,0.015772
103.296,69.8861,0.015772
103.327,69.8925,0.015772
103.360,69.8990,0.015781
103.391,69.9052,0.015781
103.423,69.9114,0.015781
103.453,69.9176,0.015781
103.484,69.9237,0.015781
103.515,69.9300,0.015781
103.546,69.9362,0.015781
103.577,69.9424,0.015819
103.609,69.9486,0.015819
103.640,69.9549,0.015819
103.671,69.9611,0.015819
103.703,69.9676,0.015819
103.733,69.9735,0.015819
103.764,69.9797,0.015819
103.797,69.9863,0.015819
103.826,69.9923,0.015819
103.857,69.9982,0.015791
103.889,70.0047,0.015791
103.920,70.0109,0.015791
103.952,70.0173,0.015791
103.983,70.0235,0.015791
104.015,70.0298,0.015791
104.046,70.0359,0.015791
104.076,70.0422,0.015791
104.108,70.0486,0.015734
104.138,70.0546,0.015734
104.170,70.0608,0.015734
104.202,70.0673,0.015734
104.233,70.0734,0.015734
104.265,70.0799,0.015734
104.296,70.0861,0.015734
104.327,70.0923,0.015734
104.358,70.0985,0.015762
104.388,70.1045,0.015762
104.418,70.1107,0.015762
104.449,70.1167,0.015762
104.480,70.1229,0.015762
104.511,70.1291,0.015762
104.542,70.1353,0.015762
104.573,70.1415,0.015762
104.604,70.1478,0.015762
104.636,70.1540,0.015791
104.666,70.1602,0.015791
104.698,70.1665,0.015791
104.729,70.1728,0.015791
104.760,70.1789,0.015791
104.792,70.1852,0.015791
104.823,70.1914,0.015791
104.854,70.1978,0.015791
104.886,70.2042,0.015800
104.918,70.2104,0.015800
104.949,70.2167,0.015800
104.981,70.2231,0.015800
105.013,70.2294,0.015800
105.044,70.2357,0.015800
105.074,70.2417,0.015800
105.105,70.2479,0.015809
105.136,70.2541,0.015809
105.167,70.2601,0.015809
105.198,70.2663,0.015809
105.229,70.2727,0.015809
105.260,70.2787,0.015809
105.290,70.2851,0.015809
105.322,70.2912,0.015809
105.353,70.2975,0.015809
105.384,70.3037,0.015772
105.415,70.3100,0.015772
105.447,70.3161,0.015772
105.478,70.3219,0.015772
105.509,70.3266,0.015772
105.540,70.3307,0.015772
105.571,70.3341,0.015772
105.602,70.3367,0.015772
105.633,70.3387,0.015819
105.664,70.3398,0.015819
105.697,70.3403,0.015819
105.726,70.3403,0.015819
105.757,70.3403,0.015819
105.789,70.3403,0.015819
105.820,70.3403,0.015819
105.850,70.3403,0.015819
105.882,70.3403,0.015894
105.912,70.3403,0.015894
105.944,70.3403,0.015894
105.976,70.3403,0.015894
106.006,70.3403,0.015894
106.037,70.3403,0.015894
106.067,70.3403,0.015894
106.099,70.3403,0.015894
106.130,70.3403,0.015847
106.162,70.3403,0.015847
106.193,70.3403,0.015847
106.224,70.3403,0.015847
106.256,70.3403,0.015847
106.286,70.3403,0.015847
106.317,70.3403,0.015847
106.347,70.3403,0.015847
106.379,70.3403,0.015800
106.410,70.3403,0.015800
106.441,70.3403,0.015800
106.473,70.3403,0.015800
106.503,70.3403,0.015800
106.534,70.3403,0.015800
106.566,70.3403,0.015800
106.597,70.3403,0.015800
106.628,70.3403,0.015828
106.659,70.3403,0.015828
106.690,70.3403,0.015828
106.721,70.3403,0.015828
106.753,70.3403,0.015828
106.783,70.3403,0.015828
106.814,70.3403,0.015828
106.846,70.3403,0.015828
106.876,70.3403,0.015819
106.908,70.3403,0.015819
106.939,70.3403,0.015819
106.970,70.3403,0.015819
107.001,70.3403,0.015819
107.032,70.3403,0.015819
107.063,70.3403,0.015819
107.095,70.3403,0.015819
107.126,70.3403,0.015800
107.157,70.3403,0.015800
107.188,70.3403,0.015800
107.220,70.3403,0.015800
107.250,70.3403,0.015800
107.282,70.3403,0.015800
107.313,70.3403,0.015800
107.344,70.3403,0.015791
107.374,70.3403,0.015791
107.405,70.3403,0.015791
107.436,70.3403,0.015791
107.467,70.3403,0.015791
107.498,70.3403,0.015791
107.529,70.3403,0.015791
107.559,70.3403,0.015791
107.590,70.3403,0.015791
107.621,70.3403,0.015791
107.652,70.3403,0.015819
107.683,70.3403,0.015819
107.715,70.3403,0.015819
107.746,70.3403,0.015819
107.777,70.3403,0.015819
107.808,70.3403,0.015819
107.840,70.3403,0.015819
107.870,70.3403,0.015847
107.901,70.3403,0.015847
107.932,70.3403,0.015847
107.963,70.3403,0.015847
107.994,70.3403,0.015847
108.026,70.3403,0.015847
108.056,70.3403,0.015847
108.086,70.3403,0.015847
108.118,70.3403,0.015847
108.150,70.3403,0.015781
108.182,70.3403,0.015781
108.213,70.3403,0.015781
108.245,70.3403,0.015781
108.275,70.3403,0.015781
108.307,70.3403,0.015781
108.338,70.3403,0.015781
108.369,70.3403,0.015781
108.400,70.3403,0.015753
108.431,70.3403,0.015753
108.462,70.3403,0.015753
108.493,70.3403,0.015753
108.524,70.3403,0.015753
108.554,70.3403,0.015753
108.586,70.3403,0.015753
108.617,70.3403,0.015753
108.648,70.3403,0.015809
108.679,70.3403,0.015809
108.710,70.3403,0.015809
108.740,70.3403,0.015809
108.772,70.3403,0.015809
108.802,70.3403,0.015809
108.834,70.3403,0.015809
108.866,70.3403,0.015809
108.897,70.3403,0.015809
108.927,70.3403,0.015809
108.957,70.3403,0.015809
108.989,70.3403,0.015809
109.020,70.3403,0.015809
109.051,70.3403,0.015809
109.082,70.3403,0.015809
109.113,70.3403,0.015838
109.144,70.3403,0.015838
109.176,70.3403,0.015838
109.208,70.3403,0.015838
109.238,70.3403,0.015838
109.270,70.3403,0.015838
109.300,70.3403,0.015838
109.331,70.3403,0.015838
109.361,70.3403,0.015838
109.393,70.3403,0.015847
109.424,70.3403,0.015847
109.455,70.3403,0.015847
109.486,70.3403,0.015847
109.516,70.3403,0.015847
109.547,70.3403,0.015847
109.578,70.3403,0.015847
109.610,70.3403,0.015819
109.641,70.3403,0.015819
109.672,70.3403,0.015819
109.703,70.3403,0.015819
109.734,70.3403,0.015819
109.766,70.3403,0.015819
109.797,70.3403,0.015819
109.830,70.3403,0.015819
109.861,70.3403,0.015819
109.892,70.3403,0.015800
109.922,70.3403,0.015800
109.952,70.3401,0.015800
109.983,70.3394,0.015800
110.013,70.3379,0.015800
110.044,70.3357,0.015800
110.075,70.3327,0.015800
110.107,70.3290,0.015800
110.137,70.3246,0.015819
110.168,70.3193,0.015819
110.200,70.3135,0.015819
110.231,70.3072,0.015819
110.263,70.3008,0.015819
110.294,70.2946,0.015819
110.324,70.2885,0.015819
110.355,70.2825,0.015828
110.386,70.2761,0.015828
110.418,70.2699,0.015828
110.448,70.2636,0.015828
110.480,70.2574,0.015828
110.511,70.2511,0.015828
110.542,70.2451,0.015828
110.573,70.2389,0.015828
110.604,70.2325,0.015828
110.635,70.2264,0.015866
110.666,70.2202,0.015866
110.698,70.2139,0.015866
110.728,70.2077,0.015866
110.760,70.2014,0.015866
110.791,70.1952,0.015866
110.823,70.1887,0.015866
110.855,70.1824,0.015838
110.886,70.1762,0.015838
110.918,70.1697,0.015838
110.949,70.1635,0.015838
110.980,70.1573,0.015838
111.011,70.1511,0.015838
111.042,70.1452,0.015838
111.072,70.1391,0.015838
111.103,70.1328,0.015809
111.135,70.1264,0.015809
111.166,70.1204,0.015809
111.196,70.1143,0.015809
111.227,70.1080,0.015809
111.259,70.1016,0.015809
111.290,70.0954,0.015809
111.322,70.0890,0.015809
111.352,70.0829,0.015866
111.383,70.0767,0.015866
111.414,70.0705,0.015866
111.446,70.0643,0.015866
111.477,70.0580,0.015866
111.508,70.0518,0.015866
111.540,70.0456,0.015866
111.572,70.0391,0.015866
111.603,70.0328,0.015866
111.634,70.0266,0.015894
111.665,70.0203,0.015894
111.695,70.0142,0.015894
111.726,70.0081,0.015894
111.758,70.0018,0.015894
111.789,69.9956,0.015894
111.820,69.9895,0.015894
111.851,69.9833,0.015894
111.882,69.9770,0.015847
111.914,69.9706,0.015847
111.946,69.9643,0.015847
111.977,69.9580,0.015847
112.008,69.9519,0.015847
112.039,69.9456,0.015847
112.071,69.9392,0.015847
112.102,69.9331,0.015847
112.133,69.9269,0.015809
112.165,69.9204,0.015809
112.197,69.9141,0.015809
112.228,69.9077,0.015809
112.259,69.9016,0.015809
112.290,69.8954,0.015809
112.321,69.8893,0.015809
112.351,69.8832,0.015809
112.382,69.8772,0.015838
112.412,69.8710,0.015838
112.444,69.8648,0.015838
112.474,69.8586,0.015838
112.505,69.8525,0.015838
112.536,69.8460,0.015838
112.567,69.8401,0.015838
112.599,69.8335,0.015838
112.629,69.8276,0.015838
112.660,69.8214,0.015838
112.692,69.8150,0.015838
112.723,69.8089,0.015838
112.754,69.8027,0.015838
112.784,69.7965,0.015838
112.815,69.7902,0.015838
112.847,69.7840,0.015819
112.878,69.7777,0.015819
112.908,69.7717,0.015819
112.939,69.7657,0.015819
112.970,69.7592,0.015819
113.001,69.7533,0.015819
113.034,69.7467,0.015819
113.065,69.7404,0.015819
113.095,69.7344,0.015819
113.127,69.7282,0.015847
113.159,69.7216,0.015847
113.190,69.7154,0.015847
113.220,69.7094,0.015847
113.251,69.7034,0.015847
113.282,69.6971,0.015847
113.313,69.6908,0.015847
113.344,69.6847,0.015857
113.375,69.6784,0.015857
113.408,69.6718,0.015857
113.437,69.6659,0.015857
113.468,69.6597,0.015857
113.499,69.6535,0.015857
113.530,69.6475,0.015857
113.562,69.6411,0.015857
113.593,69.6349,0.015791
113.624,69.6286,0.015791
113.655,69.6224,0.015791
113.687,69.6160,0.015791
113.718,69.6099,0.015791
113.749,69.6037,0.015791
113.780,69.5974,0.015791
113.810,69.5914,0.015791
113.841,69.5852,0.015809
113.873,69.5790,0.015809
113.903,69.5728,0.015809
113.934,69.5665,0.015809
113.965,69.5605,0.015809
113.997,69.5541,0.015809
114.027,69.5481,0.015809
114.058,69.5417,0.015809
114.089,69.5357,0.015819
114.120,69.5293,0.015819
114.152,69.5231,0.015819
114.183,69.5169,0.015819
114.214,69.5107,0.015819
114.245,69.5042,0.015819
114.276,69.4983,0.015819
114.308,69.4916,0.015819
114.338,69.4857,0.015819
114.369,69.4795,0.015838
114.402,69.4731,0.015838
114.432,69.4671,0.015838
114.463,69.4608,0.015838
114.495,69.4545,0.015838
114.524,69.4488,0.015838
114.554,69.4427,0.015838
114.585,69.4364,0.015838
114.616,69.4303,0.015800
114.647,69.4240,0.015800
114.678,69.4179,0.015800
114.710,69.4113,0.015800
114.741,69.4053,0.015800
114.772,69.3989,0.015800
114.803,69.3927,0.015800
114.834,69.3866,0.015800
114.865,69.3806,0.015791
114.896,69.3742,0.015791
114.927,69.3682,0.015791
114.958,69.3618,0.015791
114.989,69.3558,0.015791
115.021,69.3492,0.015791
115.052,69.3430,0.015791
115.082,69.3369,0.015791
115.114,69.3307,0.015875
115.145,69.3244,0.015875
115.176,69.3183,0.015875
115.207,69.3120,0.015875
115.240,69.3054,0.015875
115.269,69.2995,0.015875
115.300,69.2934,0.015875
115.332,69.2871,0.015875
115.363,69.2809,0.015866
115.395,69.2743,0.015866
115.426,69.2682,0.015866
115.457,69.2621,0.015866
115.488,69.2558,0.015866
115.520,69.2495,0.015866
115.550,69.2433,0.015866
115.581,69.2372,0.015857
115.612,69.2310,0.015857
115.642,69.2249,0.015857
115.673,69.2190,0.015857
115.704,69.2128,0.015857
115.735,69.2066,0.015857
115.766,69.2002,0.015857
115.797,69.1940,0.015857
115.829,69.1877,0.015857
115.860,69.1815,0.015875
115.892,69.1752,0.015875
115.924,69.1686,0.015875
115.954,69.1625,0.015875
115.986,69.1563,0.015875
116.017,69.1500,0.015875
116.048,69.1439,0.015875
116.079,69.1376,0.015875
116.110,69.1315,0.015885
116.142,69.1252,0.015885
116.171,69.1191,0.015885
116.202,69.1131,0.015885
116.234,69.1066,0.015885
116.264,69.1008,0.015885
116.295,69.0943,0.015885
116.326,69.0882,0.015885
116.357,69.0819,0.015781
116.388,69.0758,0.015781
116.419,69.0695,0.015781
116.450,69.0633,0.015781
116.481,69.0574,0.015781
116.511,69.0512,0.015781
116.543,69.0450,0.015781
116.574,69.0386,0.015781
116.605,69.0324,0.015725
116.636,69.0262,0.015725
116.669,69.0198,0.015725
116.698,69.0140,0.015725
116.729,69.0076,0.015725
116.761,69.0014,0.015725
116.792,68.9952,0.015725
116.822,68.9890,0.015725
116.853,68.9828,0.015828
116.884,68.9766,0.015828
116.915,68.9705,0.015828
116.945,68.9645,0.015828
116.977,68.9581,0.015828
117.008,68.9519,0.015828
117.040,68.9455,0.015828
117.071,68.9393,0.015828
117.103,68.9330,0.015828
117.134,68.9266,0.015819
117.166,68.9203,0.015819
117.196,68.9142,0.015819
117.228,68.9079,0.015819
117.260,68.9015,0.015819
117.289,68.8956,0.015819
117.320,68.8894,0.015819
117.351,68.8834,0.015819
117.382,68.8770,0.015838
117.414,68.8706,0.015838
117.445,68.8645,0.015838
117.476,68.8584,0.015838
117.506,68.8522,0.015838
117.538,68.8458,0.015838
117.568,68.8398,0.015838
117.600,68.8335,0.015838
117.631,68.8273,0.015828
117.662,68.8211,0.015828
117.692,68.8149,0.015828
117.724,68.8087,0.015828
117.754,68.8025,0.015828
117.785,68.7964,0.015828
117.816,68.7902,0.015828
117.847,68.7840,0.015828
117.878,68.7779,0.015781
117.908,68.7719,0.015781
117.939,68.7658,0.015781
117.970,68.7595,0.015781
118.001,68.7534,0.015781
118.032,68.7471,0.015781
118.063,68.7409,0.015781
118.094,68.7348,0.015781
118.125,68.7285,0.015800
118.157,68.7219,0.015800
118.188,68.7157,0.015800
118.219,68.7097,0.015800
118.250,68.7035,0.015800
118.281,68.6973,0.015800
118.311,68.6910,0.015800
118.342,68.6850,0.015800
118.373,68.6788,0.015847
118.403,68.6728,0.015847
118.434,68.6666,0.015847
118.466,68.6602,0.015847
118.498,68.6540,0.015847
118.528,68.6478,0.015847
118.560,68.6415,0.015847
118.590,68.6353,0.015857
118.622,68.6291,0.015857
118.652,68.6232,0.015857
118.683,68.6168,0.015857
118.714,68.6106,0.015857
118.745,68.6044,0.015857
118.776,68.5982,0.015857
118.807,68.5920,0.015857
118.838,68.5858,0.015857
118.869,68.5796,0.015791
118.900,68.5736,0.015791
118.931,68.5672,0.015791
118.962,68.5611,0.015791
118.994,68.5547,0.015791
119.025,68.5485,0.015791
119.056,68.5422,0.015791
119.087,68.5361,0.015828
119.118,68.5299,0.015828
119.149,68.5238,0.015828
119.179,68.5175,0.015828
119.211,68.5113,0.015828
119.242,68.5052,0.015828
119.272,68.4991,0.015828
119.303,68.4928,0.015828
119.336,68.4862,0.015828
119.366,68.4803,0.015828
119.397,68.4741,0.015781
119.428,68.4678,0.015781
119.459,68.4617,0.015781
119.490,68.4556,0.015781
119.521,68.4493,0.015781
119.551,68.4432,0.015781
119.583,68.4368,0.015781
119.614,68.4306,0.015772
119.645,68.4244,0.015772
119.676,68.4184,0.015772
119.707,68.4121,0.015772
119.738,68.4059,0.015772
119.769,68.3995,0.015772
119.800,68.3936,0.015772
119.830,68.3874,0.015772
119.861,68.3813,0.015819
119.893,68.3749,0.015819
119.923,68.3689,0.015819
119.954,68.3626,0.015819
119.985,68.3564,0.015819
120.015,68.3504,0.015819
120.046,68.3442,0.015819
120.077,68.3382,0.015819
120.109,68.3318,0.015791
120.140,68.3255,0.015791
120.171,68.3193,0.015791
120.203,68.3130,0.015791
120.234,68.3068,0.015791
120.266,68.3003,0.015791
120.296,68.2944,0.015791
120.328,68.2879,0.015791
120.359,68.2817,0.015838
120.390,68.2754,0.015838
120.421,68.2692,0.015838
120.453,68.2629,0.015838
120.484,68.2565,0.015838
120.515,68.2503,0.015838
120.547,68.2440,0.015838
120.577,68.2382,0.015838
120.608,68.2319,0.015857
120.639,68.2257,0.015857
120.670,68.2195,0.015857
120.701,68.2133,0.015857
120.731,68.2071,0.015857
120.763,68.2009,0.015857
120.794,68.1947,0.015857
120.826,68.1885,0.015857
120.856,68.1823,0.015875
120.887,68.1761,0.015875
120.919,68.1699,0.015875
120.949,68.1635,0.015875
120.981,68.1575,0.015875
121.011,68.1514,0.015875
121.041,68.1453,0.015875
121.072,68.1390,0.015875
121.104,68.1326,0.015875
121.135,68.1264,0.015875
121.166,68.1204,0.015875
121.196,68.1142,0.015875
121.227,68.1081,0.015875
121.259,68.1016,0.015875
121.291,68.0954,0.015875
121.322,68.0891,0.015875
121.353,68.0830,0.015809
121.385,68.0766,0.015809
121.416,68.0703,0.015809
121.446,68.0642,0.015809
121.477,68.0581,0.015809
121.509,68.0518,0.015809
121.540,68.0455,0.015809
121.572,68.0390,0.015809
121.603,68.0328,0.015743
121.634,68.0266,0.015743
121.667,68.0200,0.015743
121.696,68.0142,0.015743
121.728,68.0080,0.015743
121.758,68.0019,0.015743
121.790,67.9956,0.015743
121.820,67.9895,0.015743
121.851,67.9834,0.015781
121.883,67.9770,0.015781
121.914,67.9708,0.015781
121.945,67.9645,0.015781
121.976,67.9583,0.015781
122.006,67.9522,0.015781
122.037,67.9460,0.015781
122.068,67.9399,0.015781
122.099,67.9338,0.015875
122.131,67.9274,0.015875
122.162,67.9211,0.015875
122.193,67.9150,0.015875
122.224,67.9088,0.015875
122.255,67.9025,0.015875
122.286,67.8964,0.015875
122.317,67.8899,0.015875
122.349,67.8839,0.015885
122.380,67.8774,0.015885
122.411,67.8713,0.015885
122.441,67.8651,0.015885
122.473,67.8591,0.015885
122.504,67.8526,0.015885
122.535,67.8465,0.015885
122.566,67.8404,0.015885
122.597,67.8342,0.015838
122.628,67.8279,0.015838
122.660,67.8215,0.015838
122.690,67.8154,0.015838
122.722,67.8089,0.015838
122.755,67.8025,0.015838
122.784,67.7967,0.015838
122.813,67.7907,0.015838
122.844,67.7848,0.015838
122.875,67.7783,0.015800
122.907,67.7722,0.015800
122.939,67.7657,0.015800
122.969,67.7597,0.015800
123.000,67.7534,0.015800
123.032,67.7471,0.015800
123.063,67.7407,0.015800
123.095,67.7345,0.015800
123.127,67.7281,0.015866
123.158,67.7220,0.015866
123.189,67.7156,0.015866
123.221,67.7092,0.015866
123.253,67.7028,0.015866
123.284,67.6968,0.015866
123.314,67.6908,0.015866
123.346,67.6843,0.015857
123.377,67.6780,0.015857
123.408,67.6718,0.015857
123.439,67.6657,0.015857
123.470,67.6595,0.015857
123.501,67.6533,0.015857
123.532,67.6472,0.015857
123.563,67.6410,0.015857
123.593,67.6348,0.015857
123.625,67.6286,0.015838
123.656,67.6223,0.015838
123.687,67.6162,0.015838
123.719,67.6098,0.015838
123.750,67.6036,0.015838
123.782,67.5972,0.015838
123.813,67.5910,0.015838
123.844,67.5848,0.015838
123.873,67.5788,0.015809
123.904,67.5727,0.015809
123.936,67.5665,0.015809
123.967,67.5603,0.015809
123.998,67.5540,0.015809
124.028,67.5478,0.015809
124.059,67.5417,0.015809
124.090,67.5354,0.015809
124.122,67.5291,0.015762
124.154,67.5227,0.015762
124.185,67.5165,0.015762
124.216,67.5102,0.015762
124.247,67.5042,0.015762
124.278,67.4979,0.015762
124.310,67.4916,0.015762
124.342,67.4852,0.015762
124.373,67.4789,0.015819
124.404,67.4726,0.015819
124.438,67.4659,0.015819
124.467,67.4601,0.015819
124.498,67.4540,0.015819
124.530,67.4474,0.015819
124.561,67.4413,0.015819
124.593,67.4349,0.015819
124.624,67.4288,0.015838
124.655,67.4224,0.015838
124.686,67.4164,0.015838
124.717,67.4101,0.015838
124.748,67.4039,0.015838
124.779,67.3976,0.015838
124.812,67.3911,0.015838
124.841,67.3853,0.015800
124.872,67.3790,0.015800
124.903,67.3729,0.015800
124.934,67.3669,0.015800
124.966,67.3605,0.015800
124.996,67.3543,0.015800
125.027,67.3482,0.015800
125.057,67.3421,0.015800
125.089,67.3358,0.015800
125.120,67.3296,0.015781
125.149,67.3236,0.015781
125.181,67.3173,0.015781
125.211,67.3115,0.015781
125.242,67.3064,0.015781
125.274,67.3018,0.015781
125.304,67.2982,0.015781
125.334,67.2952,0.015743
125.366,67.2929,0.015743
125.398,67.2913,0.015743
125.428,67.2904,0.015743
125.459,67.2903,0.015743
125.490,67.2903,0.015743
125.522,67.2903,0.015743
125.555,67.2903,0.015743
125.583,67.2903,0.015743
125.614,67.2903,0.015743
125.645,67.2905,0.015743
125.676,67.2915,0.015743
125.708,67.2934,0.015743
125.738,67.2957,0.015743
125.770,67.2991,0.015743
125.802,67.3031,0.015743
125.834,67.3080,0.015743
125.865,67.3133,0.015725
125.895,67.3193,0.015725
125.926,67.3254,0.015725
125.958,67.3317,0.015725
125.988,67.3379,0.015725
126.019,67.3441,0.015725
126.051,67.3504,0.015725
126.084,67.3570,0.015725
126.113,67.3628,0.015706
126.143,67.3690,0.015706
126.174,67.3751,0.015706
126.205,67.3813,0.015706
126.236,67.3874,0.015706
126.267,67.3938,0.015706
126.298,67.3998,0.015706
126.330,67.4064,0.015706
126.360,67.4123,0.015706
126.392,67.4186,0.015791
126.423,67.4248,0.015791
126.454,67.4312,0.015791
126.486,67.4375,0.015791
126.517,67.4436,0.015791
126.547,67.4497,0.015791
126.579,67.4561,0.015791
126.610,67.4624,0.015791
126.641,67.4684,0.015800
126.672,67.4746,0.015800
126.703,67.4808,0.015800
126.734,67.4870,0.015800
126.765,67.4932,0.015800
126.796,67.4995,0.015800
126.827,67.5057,0.015800
126.858,67.5119,0.015800
126.889,67.5180,0.015772
126.919,67.5241,0.015772
126.950,67.5303,0.015772
126.982,67.5367,0.015772
127.013,67.5428,0.015772
127.044,67.5490,0.015772
127.075,67.5553,0.015772
127.106,67.5615,0.015772
127.137,67.5675,0.015800
127.167,67.5737,0.015800
127.198,67.5798,0.015800
127.230,67.5862,0.015800
127.260,67.5923,0.015800
127.292,67.5987,0.015800
127.322,67.6047,0.015800
127.353,67.6110,0.015800
127.384,67.6171,0.015781
127.415,67.6233,0.015781
127.447,67.6295,0.015781
127.479,67.6361,0.015781
127.511,67.6425,0.015781
127.542,67.6487,0.015781
127.573,67.6549,0.015781
127.605,67.6612,0.015781
127.636,67.6674,0.015772
127.668,67.6739,0.015772
127.699,67.6801,0.015772
127.731,67.6865,0.015772
127.761,67.6924,0.015772
127.792,67.6987,0.015772
127.824,67.7049,0.015772
127.855,67.7111,0.015838
127.887,67.7177,0.015838
127.917,67.7236,0.015838
127.948,67.7301,0.015838
127.979,67.7361,0.015838
128.010,67.7423,0.015838
128.041,67.7484,0.015838
128.071,67.7546,0.015838
128.103,67.7608,0.015838
128.133,67.7670,0.015857
128.164,67.7730,0.015857
128.195,67.7793,0.015857
128.227,67.7856,0.015857
128.258,67.7918,0.015857
128.290,67.7982,0.015857
128.320,67.8042,0.015857
128.352,67.8106,0.015857
128.382,67.8165,0.015875
128.413,67.8228,0.015875
128.444,67.8289,0.015875
128.474,67.8350,0.015875
128.505,67.8412,0.015875
128.536,67.8474,0.015875
128.567,67.8536,0.015875
128.597,67.8598,0.015875
128.628,67.8657,0.015857
128.659,67.8720,0.015857
128.689,67.8782,0.015857
128.720,67.8842,0.015857
128.752,67.8906,0.015857
128.782,67.8966,0.015857
128.813,67.9027,0.015857
128.845,67.9092,0.015857
128.875,67.9152,0.015819
128.906,67.9214,0.015819
128.937,67.9276,0.015819
128.967,67.9338,0.015819
128.998,67.9399,0.015819
129.030,67.9464,0.015819
129.062,67.9527,0.015819
129.093,67.9590,0.015857
129.124,67.9650,0.015857
129.156,67.9714,0.015857
129.187,67.9777,0.015857
129.218,67.9839,0.015857
129.248,67.9899,0.015857
129.279,67.9960,0.015857
129.310,68.0022,0.015857
129.341,68.0084,0.015857
129.372,68.0147,0.015857
129.403,68.0208,0.015875
129.435,68.0272,0.015875
129.466,68.0333,0.015875
129.497,68.0395,0.015875
129.527,68.0457,0.015875
129.559,68.0519,0.015875
129.589,68.0581,0.015875
129.621,68.0644,0.015875
129.652,68.0705,0.015819
129.683,68.0768,0.015819
129.716,68.0834,0.015819
129.745,68.0894,0.015819
129.777,68.0957,0.015819
129.806,68.1015,0.015819
129.837,68.1076,0.015819
129.869,68.1139,0.015791
129.900,68.1202,0.015791
129.931,68.1266,0.015791
129.963,68.1328,0.015791
129.994,68.1392,0.015791
130.024,68.1449,0.015791
130.055,68.1514,0.015791
130.086,68.1575,0.015791
130.116,68.1637,0.015772
130.147,68.1697,0.015772
130.178,68.1759,0.015772
130.210,68.1823,0.015772
130.242,68.1887,0.015772
130.274,68.1949,0.015772
130.305,68.2014,0.015772
130.337,68.2076,0.015772
130.368,68.2139,0.015791
130.399,68.2200,0.015791
130.430,68.2262,0.015791
130.461,68.2324,0.015791
130.491,68.2384,0.015791
130.522,68.2448,0.015791
130.553,68.2508,0.015791
130.584,68.2572,0.015791
130.615,68.2632,0.015791
130.646,68.2696,0.015791
130.677,68.2755,0.015791
130.708,68.2820,0.015791
130.740,68.2882,0.015791
130.771,68.2946,0.015791
130.802,68.3006,0.015791
130.833,68.3070,0.015791
130.864,68.3130,0.015781
130.896,68.3196,0.015781
130.927,68.3256,0.015781
130.959,68.3321,0.015781
130.990,68.3383,0.015781
131.021,68.3445,0.015781
131.051,68.3504,0.015781
131.083,68.3568,0.015781
131.114,68.3630,0.015809
131.144,68.3690,0.015809
131.175,68.3754,0.015809
131.207,68.3816,0.015809
131.238,68.3879,0.015809
131.269,68.3941,0.015809
131.301,68.4005,0.015809
131.333,68.4069,0.015809
131.365,68.4133,0.015791
131.396,68.4194,0.015791
131.428,68.4257,0.015791
131.459,68.4319,0.015791
131.490,68.4381,0.015791
131.521,68.4444,0.015791
131.552,68.4505,0.015791
131.582,68.4566,0.015791
131.614,68.4629,0.015791
131.646,68.4692,0.015791
131.676,68.4754,0.015791
131.708,68.4818,0.015791
131.739,68.4879,0.015791
131.770,68.4941,0.015791
131.802,68.5006,0.015791
131.832,68.5067,0.015791
131.863,68.5128,0.015875
131.894,68.5191,0.015875
131.926,68.5253,0.015875
131.956,68.5315,0.015875
131.987,68.5376,0.015875
132.019,68.5440,0.015875
132.050,68.5502,0.015875
132.081,68.5564,0.015857
132.111,68.5625,0.015857
132.142,68.5686,0.015857
132.173,68.5748,0.015857
132.204,68.5811,0.015857
132.236,68.5873,0.015857
132.268,68.5938,0.015857
132.298,68.5998,0.015857
132.330,68.6063,0.015857
132.362,68.6126,0.015828
132.392,68.6187,0.015828
132.423,68.6249,0.015828
132.454,68.6310,0.015828
132.485,68.6372,0.015828
132.517,68.6436,0.015828
132.548,68.6498,0.015828
132.580,68.6563,0.015828
132.611,68.6625,0.015885
132.644,68.6690,0.015885
132.675,68.6752,0.015885
132.707,68.6816,0.015885
132.737,68.6878,0.015885
132.768,68.6939,0.015885
132.799,68.7001,0.015885
132.830,68.7061,0.015885
132.861,68.7123,0.015838
132.892,68.7188,0.015838
132.924,68.7250,0.015838
132.955,68.7312,0.015838
132.986,68.7373,0.015838
133.019,68.7440,0.015838
133.048,68.7500,0.015838
133.079,68.7560,0.015847
133.109,68.7619,0.015847
133.140,68.7683,0.015847
133.172,68.7748,0.015847
133.203,68.7807,0.015847
133.235,68.7871,0.015847
133.266,68.7933,0.015847
133.296,68.7994,0.015847
133.327,68.8055,0.015847
133.358,68.8118,0.015847
133.390,68.8181,0.015838
133.422,68.8245,0.015838
133.451,68.8304,0.015838
133.482,68.8367,0.015838
133.513,68.8429,0.015838
133.545,68.8491,0.015838
133.576,68.8553,0.015838
133.607,68.8617,0.015838
133.639,68.8679,0.015809
133.670,68.8742,0.015809
133.700,68.8803,0.015809
133.731,68.8865,0.015809
133.762,68.8927,0.015809
133.793,68.8989,0.015809
133.824,68.9049,0.015809
133.855,68.9111,0.015809
133.885,68.9172,0.015866
133.917,68.9235,0.015866
133.948,68.9297,0.015866
133.980,68.9362,0.015866
134.011,68.9423,0.015866
134.042,68.9486,0.015866
134.072,68.9548,0.015866
134.103,68.9609,0.015866
134.135,68.9671,0.015847
134.166,68.9735,0.015847
134.197,68.9795,0.015847
134.228,68.9859,0.015847
134.259,68.9920,0.015847
134.290,68.9982,0.015847
134.321,69.0043,0.015847
134.351,69.0105,0.015819
134.382,69.0166,0.015819
134.413,69.0229,0.015819
134.444,69.0290,0.015819
134.475,69.0353,0.015819
134.507,69.0415,0.015819
134.537,69.0476,0.015819
134.568,69.0539,0.015819
134.599,69.0601,0.015819
134.629,69.0660,0.015857
134.660,69.0722,0.015857
134.691,69.0783,0.015857
134.722,69.0847,0.015857
134.753,69.0907,0.015857
134.785,69.0973,0.015857
134.816,69.1034,0.015857
134.848,69.1098,0.015857
134.878,69.1158,0.015885
134.910,69.1222,0.015885
134.943,69.1287,0.015885
134.972,69.1346,0.015885
135.003,69.1408,0.015885
135.035,69.1473,0.015885
135.066,69.1534,0.015885
135.097,69.1597,0.015885
135.128,69.1656,0.015866
135.160,69.1721,0.015866
135.190,69.1782,0.015866
135.221,69.1844,0.015866
135.252,69.1904,0.015866
135.282,69.1966,0.015866
135.313,69.2030,0.015866
135.345,69.2090,0.015866
135.375,69.2152,0.015809
135.407,69.2214,0.015809
135.437,69.2277,0.015809
135.468,69.2340,0.015809
135.499,69.2399,0.015809
135.530,69.2464,0.015809
135.562,69.2526,0.015809
135.593,69.2589,0.015809
135.623,69.2647,0.015762
135.656,69.2713,0.015762
135.686,69.2774,0.015762
135.718,69.2840,0.015762
135.749,69.2900,0.015762
135.780,69.2964,0.015762
135.810,69.3021,0.015762
135.841,69.3084,0.015772
135.872,69.3145,0.015772
135.902,69.3205,0.015772
135.933,69.3269,0.015772
135.964,69.3329,0.015772
135.996,69.3394,0.015772
136.027,69.3456,0.015772
136.057,69.3518,0.015772
136.088,69.3578,0.015819
136.119,69.3641,0.015819
136.150,69.3702,0.015819
136.183,69.3767,0.015819
136.214,69.3829,0.015819
136.246,69.3894,0.015819
136.277,69.3957,0.015819
136.310,69.4022,0.015819
136.341,69.4084,0.015819
136.373,69.4149,0.015819
136.405,69.4210,0.015800
136.436,69.4275,0.015800
136.467,69.4335,0.015800
136.499,69.4399,0.015800
136.528,69.4458,0.015800
136.559,69.4520,0.015800
136.590,69.4583,0.015800
136.621,69.4644,0.015800
136.652,69.4705,0.015800
136.683,69.4768,0.015800
136.714,69.4830,0.015800
136.745,69.4892,0.015800
136.776,69.4954,0.015800
136.807,69.5016,0.015800
136.839,69.5079,0.015800
136.870,69.5140,0.015800
136.901,69.5203,0.015847
136.932,69.5265,0.015847
136.965,69.5331,0.015847
136.994,69.5391,0.015847
137.024,69.5450,0.015847
137.056,69.5514,0.015847
137.087,69.5576,0.015847
137.119,69.5639,0.015828
137.149,69.5700,0.015828
137.180,69.5763,0.015828
137.211,69.5825,0.015828
137.243,69.5887,0.015828
137.273,69.5948,0.015828
137.304,69.6010,0.015828
137.336,69.6075,0.015828
137.367,69.6135,0.015828
137.397,69.6197,0.015866
137.428,69.6258,0.015866
137.460,69.6322,0.015866
137.491,69.6383,0.015866
137.522,69.6444,0.015866
137.552,69.6507,0.015866
137.583,69.6568,0.015866
137.615,69.6632,0.015866
137.646,69.6694,0.015838
137.678,69.6757,0.015838
137.708,69.6819,0.015838
137.740,69.6881,0.015838
137.770,69.6941,0.015838
137.801,69.7003,0.015838
137.832,69.7066,0.015838
137.863,69.7128,0.015838
137.895,69.7192,0.015828
137.927,69.7255,0.015828
137.958,69.7317,0.015828
137.989,69.7379,0.015828
138.019,69.7440,0.015828
138.051,69.7503,0.015828
138.083,69.7567,0.015828
138.114,69.7631,0.015828
138.145,69.7691,0.015866
138.177,69.7756,0.015866
138.210,69.7820,0.015866
138.238,69.7879,0.015866
138.270,69.7942,0.015866
138.300,69.8001,0.015866
138.332,69.8065,0.015866
138.363,69.8128,0.015866
138.394,69.8190,0.015819
138.426,69.8256,0.015819
138.458,69.8318,0.015819
138.490,69.8381,0.015819
138.519,69.8439,0.015819
138.551,69.8502,0.015819
138.580,69.8563,0.015819
138.611,69.8623,0.015809
138.642,69.8685,0.015809
138.673,69.8749,0.015809
138.704,69.8810,0.015809
138.735,69.8871,0.015809
138.766,69.8934,0.015809
138.797,69.8995,0.015809
138.828,69.9058,0.015809
138.859,69.9119,0.015847
138.890,69.9182,0.015847
138.922,69.9244,0.015847
138.953,69.9307,0.015847
138.984,69.9371,0.015847
139.015,69.9433,0.015847
139.046,69.9493,0.015847
139.077,69.9555,0.015847
139.108,69.9616,0.015894
139.139,69.9681,0.015894
139.169,69.9740,0.015894
139.201,69.9805,0.015894
139.232,69.9864,0.015894
139.263,69.9928,0.015894
139.295,69.9992,0.015894
139.325,70.0053,0.015894
139.355,70.0111,0.015857
139.385,70.0173,0.015857
139.416,70.0234,0.015857
139.447,70.0297,0.015857
139.479,70.0358,0.015857
139.510,70.0422,0.015857
139.541,70.0484,0.015857
139.572,70.0546,0.015857
139.603,70.0608,0.015847
139.635,70.0670,0.015847
139.666,70.0735,0.015847
139.697,70.0796,0.015847
139.729,70.0859,0.015847
139.761,70.0923,0.015847
139.792,70.0984,0.015847
139.823,70.1047,0.015847
139.853,70.1107,0.015838
139.884,70.1170,0.015838
139.914,70.1230,0.015838
139.946,70.1295,0.015838
139.977,70.1356,0.015838
140.008,70.1418,0.015838
140.037,70.1475,0.015838
140.069,70.1539,0.015838
140.102,70.1604,0.015809
140.132,70.1665,0.015809
140.163,70.1727,0.015809
140.194,70.1789,0.015809
140.225,70.1854,0.015809
140.256,70.1913,0.015809
140.287,70.1976,0.015809
140.319,70.2038,0.015809
140.350,70.2102,0.015809
140.380,70.2162,0.015809
140.411,70.2224,0.015791
140.443,70.2286,0.015791
140.474,70.2350,0.015791
140.505,70.2410,0.015791
140.536,70.2472,0.015791
140.566,70.2533,0.015791
140.598,70.2598,0.015791
140.629,70.2659,0.015791
140.661,70.2717,0.015791
140.692,70.2765,0.015791
140.723,70.2806,0.015791
140.754,70.2840,0.015791
140.785,70.2867,0.015791
140.816,70.2885,0.015791
140.847,70.2898,0.015791
140.878,70.2903,0.015791
140.909,70.2903,0.015885
140.940,70.2903,0.015885
140.971,70.2903,0.015885
141.002,70.2903,0.015885
141.033,70.2903,0.015885
141.063,70.2903,0.015885
141.095,70.2903,0.015885
141.126,70.2903,0.015838
141.157,70.2903,0.015838
141.189,70.2903,0.015838
141.220,70.2903,0.015838
141.251,70.2903,0.015838
141.282,70.2903,0.015838
141.313,70.2903,0.015838
141.343,70.2903,0.015838
141.374,70.2903,0.015800
141.406,70.2903,0.015800
141.436,70.2903,0.015800
141.466,70.2903,0.015800
141.498,70.2903,0.015800
141.529,70.2903,0.015800
141.560,70.2903,0.015800
141.591,70.2903,0.015800
141.622,70.2903,0.015838
141.654,70.2903,0.015838
141.685,70.2903,0.015838
141.716,70.2903,0.015838
141.746,70.2903,0.015838
141.777,70.2903,0.015838
141.809,70.2903,0.015838
141.839,70.2903,0.015857
141.870,70.2903,0.015857
141.902,70.2903,0.015857
141.931,70.2903,0.015857
141.961,70.2903,0.015857
141.992,70.2903,0.015857
142.022,70.2903,0.015857
142.053,70.2903,0.015857
142.085,70.2903,0.015857
142.117,70.2903,0.015847
142.147,70.2903,0.015847
142.179,70.2903,0.015847
142.210,70.2903,0.015847
142.241,70.2903,0.015847
142.272,70.2903,0.015847
142.304,70.2903,0.015847
142.335,70.2903,0.015847
142.366,70.2903,0.015809
142.397,70.2903,0.015809
142.428,70.2903,0.015809
142.459,70.2903,0.015809
142.490,70.2903,0.015809
142.522,70.2903,0.015809
142.552,70.2903,0.015809
142.583,70.2903,0.015809
142.614,70.2903,0.015791
142.646,70.2903,0.015791
142.676,70.2903,0.015791
142.706,70.2903,0.015791
142.736,70.2903,0.015791
142.766,70.2903,0.015791
142.798,70.2903,0.015791
142.829,70.2903,0.015791
142.861,70.2903,0.015791
142.892,70.2903,0.015791
142.922,70.2903,0.015791
142.953,70.2903,0.015791
142.983,70.2903,0.015791
143.015,70.2903,0.015791
143.045,70.2903,0.015791
143.077,70.2903,0.015791
143.107,70.2903,0.015791
143.138,70.2903,0.015847
143.168,70.2903,0.015847
143.200,70.2903,0.015847
143.231,70.2903,0.015847
143.262,70.2903,0.015847
143.294,70.2903,0.015847
143.325,70.2903,0.015847
143.356,70.2903,0.015875
143.387,70.2903,0.015875
143.418,70.2903,0.015875
143.449,70.2903,0.015875
143.481,70.2903,0.015875
143.512,70.2903,0.015875
143.542,70.2903,0.015875
143.573,70.2903,0.015875
143.605,70.2903,0.015875
143.636,70.2903,0.015781
143.667,70.2903,0.015781
143.697,70.2903,0.015781
143.728,70.2903,0.015781
143.761,70.2903,0.015781
143.791,70.2903,0.015781
143.822,70.2903,0.015781
143.853,70.2903,0.015781
143.885,70.2903,0.015781
143.916,70.2903,0.015781
143.946,70.2903,0.015781
143.978,70.2903,0.015781
144.008,70.2903,0.015781
144.038,70.2903,0.015781
144.069,70.2903,0.015781
144.100,70.2903,0.015800
144.131,70.2903,0.015800
144.163,70.2903,0.015800
144.194,70.2903,0.015800
144.225,70.2903,0.015800
144.256,70.2903,0.015800
144.287,70.2903,0.015800
144.318,70.2903,0.015800
144.350,70.2903,0.015800
144.382,70.2903,0.015800
144.413,70.2903,0.015800
144.444,70.2903,0.015800
144.476,70.2903,0.015800
144.507,70.2903,0.015800
144.538,70.2903,0.015800
144.570,70.2903,0.015800
144.601,70.2903,0.015809
144.633,70.2903,0.015809
144.664,70.2903,0.015809
144.695,70.2903,0.015809
144.727,70.2903,0.015809
144.758,70.2903,0.015809
144.790,70.2903,0.015809
144.820,70.2903,0.015809
144.852,70.2903,0.015772
144.883,70.2903,0.015772
144.913,70.2903,0.015772
144.944,70.2903,0.015772
144.975,70.2903,0.015772
145.006,70.2903,0.015772
145.037,70.2903,0.015772
145.068,70.2903,0.015772
145.100,70.2903,0.015800
145.131,70.2903,0.015800
145.163,70.2903,0.015800
145.195,70.2903,0.015800
145.227,70.2903,0.015800
145.258,70.2903,0.015800
145.289,70.2903,0.015800
145.321,70.2903,0.015800
145.351,70.2903,0.015828
145.383,70.2903,0.015828
145.414,70.2903,0.015828
145.446,70.2903,0.015828
145.477,70.2903,0.015828
145.507,70.2903,0.015828
145.538,70.2902,0.015828
145.569,70.2893,0.015828
145.600,70.2877,0.015828
145.630,70.2854,0.015809
145.661,70.2823,0.015809
145.692,70.2787,0.015809
145.723,70.2742,0.015809
145.755,70.2690,0.015809
145.786,70.2629,0.015809
145.817,70.2568,0.015809
145.847,70.2506,0.015809
145.879,70.2444,0.015885
145.910,70.2382,0.015885
145.940,70.2321,0.015885
145.971,70.2259,0.015885
146.001,70.2200,0.015885
146.032,70.2138,0.015885
146.064,70.2074,0.015885
146.096,70.2010,0.015885
146.127,70.1947,0.015885
146.159,70.1883,0.015885
146.190,70.1821,0.015885
146.222,70.1758,0.015885
146.253,70.1696,0.015885
146.284,70.1633,0.015885
146.315,70.1570,0.015885
146.346,70.1509,0.015885
146.377,70.1447,0.015781
146.408,70.1386,0.015781
146.439,70.1324,0.015781
146.470,70.1261,0.015781
146.502,70.1199,0.015781
146.533,70.1134,0.015781
146.565,70.1072,0.015781
146.596,70.1009,0.015781
146.628,70.0947,0.015781
146.660,70.0881,0.015781
146.691,70.0818,0.015781
146.721,70.0760,0.015781
146.752,70.0698,0.015781
146.783,70.0637,0.015781
146.814,70.0572,0.015781
146.845,70.0512,0.015857
146.877,70.0448,0.015857
146.909,70.0384,0.015857
146.939,70.0324,0.015857
146.970,70.0261,0.015857
147.000,70.0200,0.015857
147.031,70.0141,0.015857
147.062,70.0079,0.015857
147.093,70.0016,0.015875
147.125,69.9951,0.015875
147.156,69.9890,0.015875
147.187,69.9827,0.015875
147.219,69.9765,0.015875
147.251,69.9701,0.015875
147.281,69.9639,0.015875
147.311,69.9579,0.015875
147.342,69.9517,0.015828
147.373,69.9455,0.015828
147.404,69.9392,0.015828
147.435,69.9331,0.015828
147.465,69.9270,0.015828
147.497,69.9207,0.015828
147.528,69.9147,0.015828
147.559,69.9083,0.015828
147.590,69.9022,0.015800
147.621,69.8959,0.015800
147.651,69.8899,0.015800
147.683,69.8835,0.015800
147.715,69.8773,0.015800
147.747,69.8707,0.015800
147.778,69.8645,0.015800
147.810,69.8581,0.015800
147.842,69.8516,0.015800
147.872,69.8458,0.015800
147.903,69.8396,0.015809
147.934,69.8335,0.015809
147.965,69.8272,0.015809
147.996,69.8211,0.015809
148.026,69.8151,0.015809
148.057,69.8088,0.015809
148.089,69.8024,0.015809
148.121,69.7960,0.015809
148.152,69.7898,0.015781
148.183,69.7836,0.015781
148.213,69.7774,0.015781
148.244,69.7714,0.015781
148.275,69.7653,0.015781
148.306,69.7591,0.015781
148.337,69.7526,0.015781
148.367,69.7467,0.015781
148.397,69.7407,0.015791
148.428,69.7345,0.015791
148.459,69.7283,0.015791
148.490,69.7221,0.015791
148.521,69.7159,0.015791
148.550,69.7101,0.015791
148.581,69.7039,0.015791
148.612,69.6978,0.015866
148.643,69.6914,0.015866
148.674,69.6854,0.015866
148.705,69.6791,0.015866
148.736,69.6731,0.015866
148.767,69.6668,0.015866
148.798,69.6606,0.015866
148.829,69.6544,0.015866
148.860,69.6481,0.015847
148.890,69.6421,0.015847
148.920,69.6362,0.015847
148.951,69.6301,0.015847
148.982,69.6238,0.015847
149.013,69.6176,0.015847
149.044,69.6111,0.015847
149.076,69.6049,0.015847
149.107,69.5989,0.015847
149.137,69.5928,0.015866
149.168,69.5866,0.015866
149.199,69.5804,0.015866
149.231,69.5742,0.015866
149.262,69.5678,0.015866
149.293,69.5616,0.015866
149.325,69.5553,0.015866
149.355,69.5491,0.015857
149.386,69.5429,0.015857
149.417,69.5368,0.015857
149.448,69.5305,0.015857
149.479,69.5244,0.015857
149.510,69.5182,0.015857
149.541,69.5119,0.015857
149.571,69.5060,0.015857
149.602,69.4996,0.015791
149.633,69.4936,0.015791
149.664,69.4874,0.015791
149.695,69.4810,0.015791
149.726,69.4751,0.015791
149.757,69.4686,0.015791
149.789,69.4624,0.015791
149.820,69.4562,0.015791
149.851,69.4501,0.015791
149.882,69.4438,0.015791
149.913,69.4376,0.015791
149.944,69.4313,0.015791
149.975,69.4252,0.015791
150.006,69.4190,0.015791
150.037,69.4128,0.015791
150.068,69.4067,0.015791
150.098,69.4004,0.015753
150.129,69.3942,0.015753
150.160,69.3878,0.015753
150.192,69.3818,0.015753
150.223,69.3756,0.015753
150.253,69.3695,0.015753
150.284,69.3635,0.015753
150.315,69.3571,0.015753
150.346,69.3511,0.015809
150.377,69.3447,0.015809
150.408,69.3387,0.015809
150.439,69.3323,0.015809
150.470,69.3264,0.015809
150.501,69.3199,0.015809
150.533,69.3137,0.015809
150.564,69.3073,0.015809
150.596,69.3009,0.015800
150.626,69.2949,0.015800
150.657,69.2888,0.015800
150.688,69.2827,0.015800
150.719,69.2761,0.015800
150.750,69.2703,0.015800
150.781,69.2640,0.015800
150.812,69.2578,0.015800
150.843,69.2517,0.015800
150.874,69.2455,0.015800
150.905,69.2392,0.015781
150.936,69.2330,0.015781
150.968,69.2267,0.015781
150.999,69.2205,0.015781
151.030,69.2141,0.015781
151.061,69.2079,0.015781
151.092,69.2017,0.015781
151.124,69.1954,0.015857
151.155,69.1893,0.015857
151.185,69.1831,0.015857
151.216,69.1769,0.015857
151.247,69.1708,0.015857
151.278,69.1645,0.015857
151.310,69.1583,0.015857
151.340,69.1521,0.015857
151.372,69.1458,0.015828
151.403,69.1395,0.015828
151.434,69.1334,0.015828
151.466,69.1269,0.015828
151.497,69.1207,0.015828
151.529,69.1144,0.015828
151.560,69.1082,0.015828
151.591,69.1019,0.015828
151.623,69.0957,0.015857
151.654,69.0891,0.015857
151.685,69.0833,0.015857
151.716,69.0770,0.015857
151.748,69.0706,0.015857
151.779,69.0644,0.015857
151.809,69.0582,0.015857
151.840,69.0520,0.015857
151.872,69.0457,0.015809
151.904,69.0394,0.015809
151.934,69.0334,0.015809
151.965,69.0271,0.015809
151.996,69.0210,0.015809
152.028,69.0147,0.015809
152.059,69.0084,0.015809
152.090,69.0021,0.015809
152.121,68.9961,0.015781
152.152,68.9898,0.015781
152.183,68.9836,0.015781
152.214,68.9775,0.015781
152.245,68.9712,0.015781
152.276,68.9651,0.015781
152.307,68.9588,0.015781
152.338,68.9526,0.015781
152.369,68.9462,0.015781
152.400,68.9402,0.015809
152.432,68.9338,0.015809
152.463,68.9275,0.015809
152.494,68.9214,0.015809
152.524,68.9154,0.015809
152.555,68.9092,0.015809
152.586,68.9030,0.015809
152.618,68.8966,0.015791
152.650,68.8902,0.015791
152.681,68.8840,0.015791
152.712,68.8778,0.015791
152.743,68.8717,0.015791
152.773,68.8655,0.015791
152.805,68.8592,0.015791
152.836,68.8531,0.015791
152.866,68.8469,0.015828
152.898,68.8407,0.015828
152.929,68.8344,0.015828
152.960,68.8282,0.015828
152.991,68.8221,0.015828
153.021,68.8160,0.015828
153.052,68.8099,0.015828
153.082,68.8037,0.015828
153.113,68.7977,0.015781
153.143,68.7915,0.015781
153.174,68.7855,0.015781
153.205,68.7792,0.015781
153.237,68.7729,0.015781
153.268,68.7667,0.015781
153.299,68.7603,0.015781
153.330,68.7541,0.015781
153.361,68.7481,0.015800
153.392,68.7419,0.015800
153.423,68.7356,0.015800
153.454,68.7293,0.015800
153.486,68.7231,0.015800
153.517,68.7168,0.015800
153.547,68.7108,0.015800
153.577,68.7048,0.015800
153.608,68.6987,0.015828
153.640,68.6922,0.015828
153.671,68.6860,0.015828
153.702,68.6798,0.015828
153.734,68.6735,0.015828
153.765,68.6672,0.015828
153.797,68.6609,0.015828
153.828,68.6545,0.015828
153.858,68.6486,0.015791
153.889,68.6423,0.015791
153.921,68.6361,0.015791
153.951,68.6300,0.015791
153.983,68.6235,0.015791
154.013,68.6176,0.015791
154.044,68.6114,0.015791
154.076,68.6051,0.015791
154.106,68.5989,0.015791
154.136,68.5930,0.015809
154.167,68.5867,0.015809
154.199,68.5804,0.015809
154.230,68.5742,0.015809
154.262,68.5678,0.015809
154.293,68.5615,0.015809
154.324,68.5556,0.015809
154.356,68.5491,0.015809
154.386,68.5429,0.015809
154.418,68.5366,0.015809
154.450,68.5303,0.015809
154.480,68.5243,0.015809
154.511,68.5180,0.015809
154.542,68.5119,0.015809
154.572,68.5060,0.015809
154.603,68.4998,0.015809
154.634,68.4933,0.015838
154.664,68.4874,0.015838
154.695,68.4812,0.015838
154.726,68.4750,0.015838
154.757,68.4689,0.015838
154.788,68.4625,0.015838
154.820,68.4562,0.015838
154.851,68.4499,0.015838
154.882,68.4438,0.015838
154.913,68.4376,0.015838
154.944,68.4314,0.015838
154.975,68.4252,0.015838
155.006,68.4189,0.015838
155.037,68.4128,0.015838
155.068,68.4066,0.015838
155.099,68.4004,0.015800
155.129,68.3943,0.015800
155.160,68.3881,0.015800
155.191,68.3819,0.015800
155.223,68.3757,0.015800
155.256,68.3692,0.015800
155.285,68.3632,0.015800
155.317,68.3569,0.015800
155.348,68.3508,0.015800
155.380,68.3442,0.015800
155.410,68.3383,0.015800
155.441,68.3320,0.015800
155.471,68.3259,0.015800
155.502,68.3199,0.015800
155.533,68.3137,0.015800
155.564,68.3073,0.015800
155.596,68.3012,0.015809
155.628,68.2945,0.015809
155.659,68.2884,0.015809
155.692,68.2820,0.015809
155.721,68.2758,0.015809
155.752,68.2698,0.015809
155.783,68.2637,0.015809
155.814,68.2574,0.015809
155.845,68.2512,0.015838
155.876,68.2451,0.015838
155.907,68.2389,0.015838
155.938,68.2326,0.015838
155.969,68.2264,0.015838
156.001,68.2201,0.015838
156.032,68.2139,0.015838
156.063,68.2076,0.015838
156.093,68.2015,0.015819
156.125,68.1953,0.015819
156.155,68.1892,0.015819
156.187,68.1829,0.015819
156.218,68.1767,0.015819
156.250,68.1700,0.015819
156.281,68.1640,0.015819
156.313,68.1577,0.015819
156.344,68.1515,0.015781
156.374,68.1453,0.015781
156.405,68.1392,0.015781
156.437,68.1329,0.015781
156.468,68.1268,0.015781
156.499,68.1205,0.015781
156.530,68.1143,0.015781
156.560,68.1082,0.015781
156.591,68.1020,0.015781
156.622,68.0958,0.015781
156.653,68.0895,0.015800
156.684,68.0834,0.015800
156.716,68.0771,0.015800
156.746,68.0710,0.015800
156.777,68.0648,0.015800
156.809,68.0582,0.015800
156.842,68.0518,0.015800
156.872,68.0458,0.015809
156.902,68.0396,0.015809
156.933,68.0337,0.015809
156.964,68.0274,0.015809
156.996,68.0210,0.015809
157.027,68.0147,0.015809
157.058,68.0086,0.015809
157.089,68.0023,0.015809
157.120,67.9962,0.015809
157.152,67.9898,0.015819
157.183,67.9837,0.015819
157.214,67.9772,0.015819
157.245,67.9712,0.015819
157.276,67.9648,0.015819
157.308,67.9588,0.015819
157.339,67.9526,0.015819
157.369,67.9464,0.015819
157.401,67.9402,0.015838
157.432,67.9338,0.015838
157.463,67.9276,0.015838
157.494,67.9214,0.015838
157.525,67.9154,0.015838
157.558,67.9088,0.015838
157.588,67.9027,0.015838
157.619,67.8964,0.015838
157.651,67.8902,0.015819
157.682,67.8837,0.015819
157.713,67.8778,0.015819
157.744,67.8715,0.015819
157.775,67.8653,0.015819
157.806,67.8591,0.015819
157.836,67.8531,0.015819
157.866,67.8470,0.015819
157.898,67.8407,0.015791
157.929,67.8345,0.015791
157.960,67.8284,0.015791
157.991,67.8221,0.015791
158.022,67.8160,0.015791
158.053,67.8097,0.015791
158.084,67.8035,0.015791
158.115,67.7972,0.015800
158.146,67.7910,0.015800
158.179,67.7845,0.015800
158.210,67.7782,0.015800
158.240,67.7721,0.015800
158.271,67.7660,0.015800
158.302,67.7597,0.015800
158.333,67.7538,0.015800
158.364,67.7474,0.015800
158.394,67.7414,0.015781
158.426,67.7349,0.015781
158.456,67.7291,0.015781
158.487,67.7229,0.015781
158.519,67.7164,0.015781
158.550,67.7103,0.015781
158.581,67.7041,0.015781
158.613,67.6977,0.015762
158.644,67.6914,0.015762
158.675,67.6853,0.015762
158.705,67.6791,0.015762
158.736,67.6730,0.015762
158.767,67.6667,0.015762
158.798,67.6606,0.015762
158.830,67.6540,0.015762
158.861,67.6481,0.015762
158.892,67.6418,0.015743
158.923,67.6357,0.015743
158.954,67.6292,0.015743
158.986,67.6230,0.015743
159.018,67.6165,0.015743
159.050,67.6103,0.015743
159.081,67.6039,0.015743
159.111,67.5981,0.015743
159.142,67.5919,0.015781
159.172,67.5858,0.015781
159.204,67.5795,0.015781
159.236,67.5731,0.015781
159.268,67.5666,0.015781
159.299,67.5604,0.015781
159.331,67.5541,0.015781
159.362,67.5479,0.015781
159.393,67.5416,0.015819
159.424,67.5354,0.015819
159.456,67.5291,0.015819
159.486,67.5231,0.015819
159.517,67.5169,0.015819
159.548,67.5107,0.015819
159.580,67.5042,0.015819
159.612,67.4979,0.015828
159.643,67.4916,0.015828
159.674,67.4856,0.015828
159.705,67.4792,0.015828
159.736,67.4731,0.015828
159.766,67.4669,0.015828
159.797,67.4608,0.015828
159.828,67.4546,0.015828
159.859,67.4485,0.015894
159.891,67.4420,0.015894
159.922,67.4360,0.015894
159.953,67.4296,0.015894
159.984,67.4235,0.015894
160.015,67.4173,0.015894
160.046,67.4110,0.015894
160.077,67.4050,0.015894
160.107,67.3987,0.015894
160.138,67.3927,0.015857
160.169,67.3863,0.015857
160.200,67.3802,0.015857
160.232,67.3739,0.015857
160.262,67.3678,0.015857
160.294,67.3615,0.015857
160.324,67.3554,0.015857
160.355,67.3492,0.015819
160.387,67.3430,0.015819
160.418,67.3367,0.015819
160.449,67.3303,0.015819
160.480,67.3243,0.015819
160.511,67.3181,0.015819
160.542,67.3119,0.015819
160.573,67.3057,0.015819
160.605,67.2995,0.015828
160.636,67.2931,0.015828
160.667,67.2868,0.015828
160.697,67.2807,0.015828
160.729,67.2745,0.015828
160.760,67.2683,0.015828
160.791,67.2623,0.015828
160.822,67.2570,0.015828
160.852,67.2526,0.015734
160.884,67.2486,0.015734
160.916,67.2454,0.015734
160.946,67.2430,0.015734
160.977,67.2414,0.015734
161.009,67.2405,0.015734
161.040,67.2403,0.015734
161.071,67.2403,0.015734
161.102,67.2403,0.015668
161.133,67.2403,0.015668
161.164,67.2403,0.015668
161.195,67.2403,0.015668
161.225,67.2403,0.015668
161.257,67.2403,0.015668
161.288,67.2403,0.015668
161.318,67.2403,0.015668
161.349,67.2403,0.015725
161.380,67.2403,0.015725
161.412,67.2403,0.015725
161.444,67.2403,0.015725
161.474,67.2403,0.015725
161.506,67.2403,0.015725
161.536,67.2403,0.015725
161.566,67.2403,0.015725
161.598,67.2403,0.015819
161.629,67.2405,0.015819
161.660,67.2415,0.015819
161.691,67.2434,0.015819
161.722,67.2458,0.015819
161.753,67.2491,0.015819
161.785,67.2529,0.015819
161.817,67.2579,0.015819
161.847,67.2631,0.015819
161.877,67.2692,0.015725
161.909,67.2754,0.015725
161.940,67.2817,0.015725
161.971,67.2878,0.015725
162.003,67.2942,0.015725
162.034,67.3003,0.015725
162.065,67.3067,0.015725
162.095,67.3126,0.015659
162.127,67.3191,0.015659
162.158,67.3251,0.015659
162.189,67.3315,0.015659
162.220,67.3377,0.015659
162.251,67.3437,0.015659
162.281,67.3498,0.015659
162.312,67.3560,0.015659
162.343,67.3623,0.015706
162.373,67.3683,0.015706
162.404,67.3744,0.015706
162.436,67.3808,0.015706
162.466,67.3869,0.015706
162.497,67.3931,0.015706
162.529,67.3994,0.015706
162.561,67.4057,0.015706
162.591,67.4118,0.015706
162.622,67.4181,0.015762
162.652,67.4240,0.015762
162.684,67.4304,0.015762
162.715,67.4365,0.015762
162.746,67.4428,0.015762
162.778,67.4493,0.015762
162.808,67.4552,0.015762
162.840,67.4617,0.015762
162.870,67.4675,0.015762
162.900,67.4738,0.015857
162.931,67.4798,0.015857
162.962,67.4861,0.015857
162.993,67.4921,0.015857
163.025,67.4986,0.015857
163.057,67.5048,0.015857
163.088,67.5112,0.015857
163.119,67.5175,0.015819
163.150,67.5236,0.015819
163.181,67.5299,0.015819
163.212,67.5361,0.015819
163.244,67.5424,0.015819
163.274,67.5485,0.015819
163.305,67.5547,0.015819
163.336,67.5609,0.015819
163.367,67.5670,0.015743
163.398,67.5733,0.015743
163.429,67.5796,0.015743
163.460,67.5857,0.015743
163.492,67.5919,0.015743
163.524,67.5985,0.015743
163.554,67.6044,0.015743
163.586,67.6109,0.015743
163.617,67.6168,0.015828
163.648,67.6233,0.015828
163.679,67.6294,0.015828
163.710,67.6357,0.015828
163.742,67.6419,0.015828
163.774,67.6483,0.015828
163.805,67.6545,0.015828
163.836,67.6609,0.015828
163.867,67.6668,0.015828
163.898,67.6731,0.015828
163.928,67.6793,0.015828
163.959,67.6855,0.015828
163.990,67.6915,0.015828
164.021,67.6978,0.015828
164.051,67.7038,0.015828
164.083,67.7101,0.015828
164.113,67.7162,0.015772
164.144,67.7224,0.015772
164.176,67.7287,0.015772
164.207,67.7350,0.015772
164.239,67.7414,0.015772
164.270,67.7476,0.015772
164.301,67.7539,0.015772
164.332,67.7601,0.015772
164.363,67.7662,0.015800
164.394,67.7724,0.015800
164.426,67.7787,0.015800
164.457,67.7849,0.015800
164.488,67.7913,0.015800
164.519,67.7973,0.015800
164.549,67.8035,0.015800
164.581,67.8098,0.015800
164.613,67.8161,0.015809
164.643,67.8222,0.015809
164.674,67.8283,0.015809
164.705,67.8345,0.015809
164.736,67.8407,0.015809
164.767,67.8469,0.015809
164.797,67.8530,0.015809
164.828,67.8593,0.015809
164.860,67.8656,0.015809
164.892,67.8721,0.015809
164.923,67.8780,0.015809
164.954,67.8844,0.015809
164.985,67.8906,0.015809
165.018,67.8971,0.015809
165.048,67.9033,0.015809
165.080,67.9095,0.015809
165.110,67.9156,0.015809
165.141,67.9218,0.015809
165.174,67.9283,0.015809
165.203,67.9342,0.015809
165.235,67.9405,0.015809
165.266,67.9467,0.015809
165.297,67.9529,0.015809
165.328,67.9591,0.015809
165.359,67.9653,0.015857
165.391,67.9717,0.015857
165.423,67.9781,0.015857
165.454,67.9843,0.015857
165.484,67.9903,0.015857
165.514,67.9966,0.015857
165.545,68.0025,0.015857
165.576,68.0087,0.015857
165.607,68.0151,0.015847
165.638,68.0213,0.015847
165.668,68.0274,0.015847
165.700,68.0336,0.015847
165.730,68.0398,0.015847
165.762,68.0460,0.015847
165.793,68.0523,0.015847
165.825,68.0586,0.015847
165.857,68.0652,0.015847
165.889,68.0713,0.015828
165.919,68.0775,0.015828
165.950,68.0835,0.015828
165.981,68.0899,0.015828
166.013,68.0961,0.015828
166.043,68.1024,0.015828
166.075,68.1086,0.015828
166.107,68.1149,0.015828
166.137,68.1210,0.015809
166.168,68.1272,0.015809
166.199,68.1336,0.015809
166.230,68.1397,0.015809
166.261,68.1460,0.015809
166.292,68.1519,0.015809
166.324,68.1584,0.015809
166.355,68.1645,0.015809
166.386,68.1708,0.015838
166.417,68.1770,0.015838
166.449,68.1835,0.015838
166.480,68.1895,0.015838
166.511,68.1958,0.015838
166.542,68.2020,0.015838
166.573,68.2082,0.015838
166.604,68.2145,0.015838
166.635,68.2206,0.015847
166.667,68.2269,0.015847
166.697,68.2330,0.015847
166.728,68.2392,0.015847
166.758,68.2453,0.015847
166.789,68.2513,0.015847
166.819,68.2574,0.015847
166.851,68.2637,0.015847
166.882,68.2699,0.015809
166.912,68.2760,0.015809
166.943,68.2822,0.015809
166.975,68.2885,0.015809
167.006,68.2949,0.015809
167.037,68.3009,0.015809
167.069,68.3074,0.015809
167.100,68.3135,0.015809
167.131,68.3198,0.015828
167.162,68.3261,0.015828
167.194,68.3322,0.015828
167.225,68.3385,0.015828
167.256,68.3447,0.015828
167.288,68.3512,0.015828
167.318,68.3574,0.015828
167.349,68.3635,0.015828
167.380,68.3695,0.015809
167.412,68.3759,0.015809
167.443,68.3823,0.015809
167.474,68.3883,0.015809
167.505,68.3945,0.015809
167.537,68.4009,0.015809
167.568,68.4072,0.015809
167.598,68.4132,0.015809
167.629,68.4194,0.015791
167.660,68.4256,0.015791
167.692,68.4318,0.015791
167.723,68.4381,0.015791
167.754,68.4443,0.015791
167.785,68.4506,0.015791
167.815,68.4566,0.015791
167.847,68.4632,0.015791
167.879,68.4692,0.015791
167.911,68.4758,0.015791
167.942,68.4819,0.015791
167.972,68.4881,0.015791
168.003,68.4942,0.015791
168.035,68.5006,0.015791
168.066,68.5067,0.015791
168.097,68.5132,0.015781
168.129,68.5194,0.015781
168.160,68.5257,0.015781
168.191,68.5316,0.015781
168.221,68.5378,0.015781
168.252,68.5440,0.015781
168.283,68.5501,0.015781
168.314,68.5564,0.015781
168.345,68.5625,0.015781
168.376,68.5686,0.015781
168.406,68.5748,0.015781
168.438,68.5812,0.015781
168.469,68.5873,0.015781
168.499,68.5934,0.015781
168.531,68.5997,0.015781
168.562,68.6058,0.015781
168.593,68.6120,0.015819
168.623,68.6182,0.015819
168.655,68.6244,0.015819
168.686,68.6307,0.015819
168.718,68.6371,0.015819
168.750,68.6436,0.015819
168.781,68.6498,0.015819
168.812,68.6559,0.015819
168.843,68.6621,0.015819
168.874,68.6683,0.015819
168.905,68.6745,0.015819
168.936,68.6808,0.015819
168.967,68.6869,0.015819
168.998,68.6932,0.015819
169.030,68.6996,0.015819
169.060,68.7055,0.015819
169.091,68.7117,0.015762
169.122,68.7180,0.015762
169.155,68.7245,0.015762
169.185,68.7304,0.015762
169.216,68.7366,0.015762
169.247,68.7430,0.015762
169.278,68.7492,0.015762
169.309,68.7554,0.015762
169.340,68.7616,0.015762
169.371,68.7678,0.015762
169.403,68.7743,0.015772
169.433,68.7802,0.015772
169.464,68.7863,0.015772
169.495,68.7926,0.015772
169.526,68.7987,0.015772
169.556,68.8050,0.015772
169.588,68.8111,0.015772
169.619,68.8174,0.015772
169.650,68.8236,0.015781
169.681,68.8299,0.015781
169.712,68.8360,0.015781
169.745,68.8426,0.015781
169.775,68.8484,0.015781
169.806,68.8548,0.015781
169.837,68.8609,0.015781
169.868,68.8672,0.015781
169.900,68.8734,0.015781
169.931,68.8798,0.015781
169.961,68.8857,0.015781
169.992,68.8919,0.015781
170.022,68.8980,0.015781
170.053,68.9041,0.015781
170.083,68.9104,0.015781
170.114,68.9164,0.015838
170.145,68.9226,0.015838
170.176,68.9286,0.015838
170.206,68.9347,0.015838
170.237,68.9410,0.015838
170.269,68.9474,0.015838
170.300,68.9536,0.015838
170.331,68.9599,0.015838
170.363,68.9662,0.015781
170.394,68.9724,0.015781
170.425,68.9787,0.015781
170.455,68.9846,0.015781
170.487,68.9910,0.015781
170.519,68.9972,0.015781
170.550,69.0035,0.015781
170.581,69.0099,0.015753
170.612,69.0161,0.015753
170.643,69.0221,0.015753
170.674,69.0283,0.015753
170.705,69.0345,0.015753
170.737,69.0409,0.015753
170.767,69.0469,0.015753
170.798,69.0531,0.015753
170.829,69.0592,0.015753
170.860,69.0656,0.015753
170.892,69.0719,0.015809
170.923,69.0782,0.015809
170.954,69.0843,0.015809
170.984,69.0905,0.015809
171.015,69.0964,0.015809
171.045,69.1026,0.015809
171.076,69.1087,0.015809
171.108,69.1152,0.015819
171.138,69.1214,0.015819
171.169,69.1273,0.015819
171.200,69.1335,0.015819
171.229,69.1393,0.015819
171.261,69.1458,0.015819
171.293,69.1521,0.015819
171.324,69.1584,0.015819
171.355,69.1645,0.015781
171.387,69.1710,0.015781
171.418,69.1770,0.015781
171.450,69.1836,0.015781
171.481,69.1897,0.015781
171.512,69.1959,0.015781
171.543,69.2020,0.015781
171.574,69.2083,0.015781
171.605,69.2148,0.015791
171.636,69.2207,0.015791
171.666,69.2268,0.015791
171.697,69.2329,0.015791
171.727,69.2392,0.015791
171.758,69.2453,0.015791
171.790,69.2516,0.015791
171.820,69.2577,0.015791
171.851,69.2636,0.015819
171.882,69.2699,0.015819
171.914,69.2761,0.015819
171.945,69.2825,0.015819
171.976,69.2887,0.015819
172.007,69.2949,0.015819
172.039,69.3013,0.015819
172.070,69.3076,0.015819
172.102,69.3138,0.015791
172.133,69.3202,0.015791
172.164,69.3262,0.015791
172.195,69.3326,0.015791
172.226,69.3389,0.015791
172.257,69.3450,0.015791
172.288,69.3512,0.015791
172.319,69.3575,0.015791
172.350,69.3636,0.015838
172.381,69.3698,0.015838
172.412,69.3759,0.015838
172.443,69.3821,0.015838
172.475,69.3884,0.015838
172.506,69.3947,0.015838
172.537,69.4009,0.015838
172.568,69.4071,0.015838
172.600,69.4134,0.015800
172.631,69.4196,0.015800
172.662,69.4260,0.015800
172.694,69.4322,0.015800
172.725,69.4385,0.015800
172.756,69.4449,0.015800
172.788,69.4511,0.015800
172.819,69.4573,0.015800
172.850,69.4635,0.015819
172.881,69.4696,0.015819
172.910,69.4757,0.015819
172.942,69.4819,0.015819
172.973,69.4882,0.015819
173.004,69.4944,0.015819
173.036,69.5007,0.015819
173.067,69.5070,0.015819
173.098,69.5132,0.015847
173.129,69.5194,0.015847
173.161,69.5257,0.015847
173.192,69.5320,0.015847
173.223,69.5383,0.015847
173.254,69.5443,0.015847
173.284,69.5504,0.015847
173.315,69.5566,0.015847
173.347,69.5630,0.015800
173.377,69.5691,0.015800
173.409,69.5753,0.015800
173.440,69.5816,0.015800
173.471,69.5876,0.015800
173.501,69.5938,0.015800
173.533,69.6000,0.015800
173.564,69.6063,0.015800
173.595,69.6125,0.015828
173.627,69.6189,0.015828
173.658,69.6251,0.015828
173.689,69.6313,0.015828
173.719,69.6373,0.015828
173.751,69.6436,0.015828
173.781,69.6497,0.015828
173.813,69.6560,0.015828
173.844,69.6624,0.015847
173.875,69.6684,0.015847
173.906,69.6748,0.015847
173.937,69.6808,0.015847
173.968,69.6870,0.015847
173.999,69.6934,0.015847
174.029,69.6993,0.015847
174.061,69.7058,0.015847
174.091,69.7117,0.015847
174.123,69.7182,0.015847
174.154,69.7242,0.015838
174.185,69.7307,0.015838
174.216,69.7368,0.015838
174.247,69.7430,0.015838
174.278,69.7490,0.015838
174.308,69.7551,0.015838
174.340,69.7614,0.015838
174.370,69.7675,0.015838
174.401,69.7738,0.015800
174.432,69.7799,0.015800
174.463,69.7860,0.015800
174.495,69.7925,0.015800
174.527,69.7989,0.015800
174.559,69.8052,0.015800
174.589,69.8113,0.015800
174.620,69.8176,0.015772
174.651,69.8237,0.015772
174.682,69.8300,0.015772
174.714,69.8362,0.015772
174.745,69.8427,0.015772
174.777,69.8490,0.015772
174.808,69.8551,0.015772
174.838,69.8610,0.015772
174.869,69.8674,0.015762
174.900,69.8736,0.015762
174.932,69.8800,0.015762
174.962,69.8860,0.015762
174.993,69.8922,0.015762
175.024,69.8982,0.015762
175.054,69.9043,0.015762
175.086,69.9106,0.015762
175.118,69.9172,0.015772
175.147,69.9230,0.015772
175.178,69.9290,0.015772
175.209,69.9355,0.015772
175.240,69.9415,0.015772
175.271,69.9479,0.015772
175.303,69.9539,0.015772
175.334,69.9604,0.015772
175.364,69.9663,0.015753
175.396,69.9728,0.015753
175.426,69.9787,0.015753
175.457,69.9849,0.015753
175.488,69.9910,0.015753
175.519,69.9972,0.015753
175.550,70.0037,0.015753
175.581,70.0097,0.015753
175.611,70.0157,0.015753
175.642,70.0220,0.015725
175.673,70.0281,0.015725
175.704,70.0344,0.015725
175.735,70.0405,0.015725
175.766,70.0468,0.015725
175.797,70.0529,0.015725
175.829,70.0594,0.015725
175.860,70.0653,0.015791
175.890,70.0716,0.015791
175.922,70.0778,0.015791
175.952,70.0840,0.015791
175.983,70.0901,0.015791
176.015,70.0964,0.015791
176.045,70.1025,0.015791
176.076,70.1086,0.015791
176.107,70.1150,0.015791
176.137,70.1210,0.015791
176.168,70.1273,0.015791
176.200,70.1335,0.015791
176.231,70.1396,0.015791
176.262,70.1458,0.015791
176.292,70.1520,0.015791
176.324,70.1582,0.015791
176.354,70.1643,0.015743
176.386,70.1706,0.015743
176.417,70.1769,0.015743
176.447,70.1831,0.015743
176.478,70.1891,0.015743
176.510,70.1955,0.015743
176.541,70.2017,0.015743
176.572,70.2078,0.015743
176.603,70.2141,0.015734
176.634,70.2200,0.015734
176.665,70.2252,0.015734
176.697,70.2295,0.015734
176.727,70.2331,0.015734
176.758,70.2360,0.015734
176.789,70.2381,0.015734
176.820,70.2396,0.015734
176.851,70.2402,0.015791
176.882,70.2403,0.015791
176.913,70.2403,0.015791
176.944,70.2403,0.015791
176.975,70.2403,0.015791
177.006,70.2403,0.015791
177.037,70.2403,0.015791
177.068,70.2403,0.015791
177.099,70.2403,0.015866
177.131,70.2403,0.015866
177.161,70.2403,0.015866
177.192,70.2403,0.015866
177.222,70.2403,0.015866
177.255,70.2403,0.015866
177.286,70.2403,0.015866
177.317,70.2403,0.015866
177.350,70.2403,0.015828
177.378,70.2403,0.015828
177.410,70.2403,0.015828
177.441,70.2403,0.015828
177.472,70.2403,0.015828
177.503,70.2403,0.015828
177.534,70.2403,0.015828
177.565,70.2403,0.015828
177.596,70.2403,0.015828
177.627,70.2403,0.015828
177.658,70.2403,0.015828
177.690,70.2403,0.015828
177.721,70.2403,0.015828
177.752,70.2403,0.015828
177.784,70.2403,0.015828
177.815,70.2403,0.015828
177.845,70.2403,0.015828
177.877,70.2403,0.015781
177.906,70.2403,0.015781
177.937,70.2403,0.015781
177.968,70.2403,0.015781
177.999,70.2403,0.015781
178.030,70.2403,0.015781
178.061,70.2403,0.015781
178.092,70.2403,0.015706
178.123,70.2403,0.015706
178.155,70.2403,0.015706
178.186,70.2403,0.015706
178.217,70.2403,0.015706
178.248,70.2403,0.015706
178.280,70.2403,0.015706
178.311,70.2403,0.015706
178.341,70.2403,0.015734
178.373,70.2403,0.015734
178.402,70.2403,0.015734
178.433,70.2403,0.015734
178.464,70.2403,0.015734
178.494,70.2403,0.015734
178.525,70.2403,0.015734
178.557,70.2403,0.015734
178.588,70.2403,0.015800
178.619,70.2403,0.015800
178.650,70.2403,0.015800
178.682,70.2403,0.015800
178.713,70.2403,0.015800
178.743,70.2403,0.015800
178.774,70.2403,0.015800
178.805,70.2403,0.015800
178.837,70.2403,0.015800
178.868,70.2403,0.015800
178.901,70.2403,0.015800
178.929,70.2403,0.015800
178.960,70.2403,0.015800
178.993,70.2403,0.015800
179.023,70.2403,0.015800
179.053,70.2403,0.015800
179.085,70.2403,0.015800
179.116,70.2403,0.015800
179.146,70.2403,0.015781
179.177,70.2403,0.015781
179.208,70.2403,0.015781
179.239,70.2403,0.015781
179.271,70.2403,0.015781
179.302,70.2403,0.015781
179.333,70.2403,0.015781
179.364,70.2403,0.015828
179.395,70.2403,0.015828
179.427,70.2403,0.015828
179.459,70.2403,0.015828
179.490,70.2403,0.015828
179.521,70.2403,0.015828
179.552,70.2403,0.015828
179.584,70.2403,0.015828
179.614,70.2403,0.015828
179.645,70.2403,0.015828
179.675,70.2403,0.015828
179.707,70.2403,0.015828
179.738,70.2403,0.015828
179.770,70.2403,0.015828
179.800,70.2403,0.015828
179.832,70.2403,0.015828
179.863,70.2403,0.015828
179.895,70.2403,0.015800
179.926,70.2403,0.015800
179.957,70.2403,0.015800
179.987,70.2403,0.015800
180.019,70.2403,0.015800
180.050,70.2403,0.015800
180.081,70.2403,0.015800
180.112,70.2403,0.015819
180.143,70.2403,0.015819
180.173,70.2403,0.015819
180.204,70.2403,0.015819
180.235,70.2403,0.015819
180.267,70.2403,0.015819
180.298,70.2403,0.015819
180.329,70.2403,0.015819
180.360,70.2403,0.015819
180.391,70.2403,0.015800
180.423,70.2403,0.015800
180.454,70.2403,0.015800
180.485,70.2403,0.015800
180.517,70.2403,0.015800
180.546,70.2403,0.015800
180.577,70.2403,0.015800
180.608,70.2403,0.015772
180.638,70.2403,0.015772
180.669,70.2403,0.015772
180.700,70.2403,0.015772
180.730,70.2403,0.015772
180.762,70.2403,0.015772
180.792,70.2403,0.015772
180.823,70.2403,0.015772
180.855,70.2403,0.015772
180.887,70.2403,0.015753
180.918,70.2403,0.015753
180.949,70.2403,0.015753
180.981,70.2403,0.015753
181.011,70.2403,0.015753
181.042,70.2403,0.015753
181.073,70.2403,0.015753
181.105,70.2403,0.015753
181.135,70.2402,0.015753
181.167,70.2393,0.015753
181.198,70.2378,0.015753
181.229,70.2356,0.015753
181.260,70.2325,0.015753
181.291,70.2288,0.015753
181.322,70.2243,0.015753
181.352,70.2193,0.015875
181.383,70.2133,0.015875
181.415,70.2071,0.015875
181.445,70.2010,0.015875
181.477,70.1948,0.015875
181.509,70.1882,0.015875
181.540,70.1820,0.015875
181.572,70.1757,0.015875
181.604,70.1694,0.015875
181.633,70.1633,0.015875
181.666,70.1568,0.015875
181.695,70.1510,0.015875
181.726,70.1449,0.015875
181.757,70.1385,0.015875
181.789,70.1322,0.015875
181.819,70.1262,0.015875
181.851,70.1199,0.015800
181.882,70.1137,0.015800
181.912,70.1075,0.015800
181.944,70.1014,0.015800
181.974,70.0952,0.015800
182.005,70.0891,0.015800
182.036,70.0828,0.015800
182.068,70.0765,0.015800
182.100,70.0700,0.015800
182.132,70.0637,0.015800
182.163,70.0574,0.015800
182.194,70.0510,0.015800
182.225,70.0451,0.015800
182.256,70.0390,0.015800
182.286,70.0327,0.015800
182.318,70.0265,0.015800
182.348,70.0203,0.015800
182.379,70.0142,0.015762
182.411,70.0078,0.015762
182.443,70.0014,0.015762
182.475,69.9951,0.015762
182.507,69.9887,0.015762
182.538,69.9825,0.015762
182.570,69.9761,0.015762
182.601,69.9699,0.015762
182.632,69.9637,0.015753
182.663,69.9573,0.015753
182.694,69.9512,0.015753
182.725,69.9450,0.015753
182.756,69.9388,0.015753
182.787,69.9326,0.015753
182.818,69.9260,0.015753
182.850,69.9202,0.015753
182.880,69.9140,0.015753
182.910,69.9079,0.015753
182.941,69.9017,0.015753
182.972,69.8955,0.015753
183.003,69.8892,0.015753
183.035,69.8831,0.015753
183.067,69.8765,0.015753
183.098,69.8705,0.015753
183.129,69.8641,0.015762
183.161,69.8578,0.015762
183.193,69.8514,0.015762
183.224,69.8453,0.015762
183.254,69.8393,0.015762
183.285,69.8331,0.015762
183.315,69.8271,0.015762
183.347,69.8206,0.015762
183.377,69.8147,0.015762
183.409,69.8083,0.015781
183.439,69.8023,0.015781
183.471,69.7959,0.015781
183.502,69.7897,0.015781
183.533,69.7834,0.015781
183.565,69.7772,0.015781
183.595,69.7710,0.015781
183.626,69.7649,0.015800
183.657,69.7586,0.015800
183.689,69.7523,0.015800
183.720,69.7459,0.015800
183.751,69.7399,0.015800
183.782,69.7337,0.015800
183.813,69.7273,0.015800
183.844,69.7213,0.015800
183.876,69.7149,0.015753
183.906,69.7087,0.015753
183.937,69.7025,0.015753
183.969,69.6962,0.015753
183.999,69.6903,0.015753
184.031,69.6838,0.015753
184.061,69.6779,0.015753
184.092,69.6715,0.015753
184.123,69.6656,0.015762
184.153,69.6593,0.015762
184.185,69.6532,0.015762
184.216,69.6467,0.015762
184.248,69.6405,0.015762
184.279,69.6341,0.015762
184.311,69.6280,0.015762
184.342,69.6217,0.015762
184.372,69.6156,0.015791
184.403,69.6094,0.015791
184.434,69.6032,0.015791
184.465,69.5970,0.015791
184.495,69.5909,0.015791
184.527,69.5847,0.015791
184.556,69.5788,0.015791
184.587,69.5726,0.015791
184.619,69.5662,0.015800
184.650,69.5602,0.015800
184.681,69.5538,0.015800
184.711,69.5476,0.015800
184.743,69.5414,0.015800
184.774,69.5352,0.015800
184.806,69.5288,0.015800
184.837,69.5226,0.015800
184.869,69.5163,0.015781
184.901,69.5098,0.015781
184.932,69.5036,0.015781
184.963,69.4974,0.015781
184.994,69.4913,0.015781
185.024,69.4851,0.015781
185.056,69.4789,0.015781
185.087,69.4727,0.015781
185.118,69.4665,0.015753
185.149,69.4603,0.015753
185.179,69.4542,0.015753
185.210,69.4482,0.015753
185.241,69.4418,0.015753
185.272,69.4358,0.015753
185.303,69.4294,0.015753
185.334,69.4231,0.015753
185.366,69.4170,0.015809
185.398,69.4106,0.015809
185.429,69.4044,0.015809
185.460,69.3981,0.015809
185.491,69.3919,0.015809
185.521,69.3859,0.015809
185.552,69.3796,0.015809
185.584,69.3733,0.015809
185.615,69.3672,0.015809
185.646,69.3607,0.015772
185.677,69.3548,0.015772
185.708,69.3483,0.015772
185.739,69.3422,0.015772
185.770,69.3360,0.015772
185.801,69.3300,0.015772
185.831,69.3236,0.015772
185.863,69.3174,0.015734
185.895,69.3110,0.015734
185.926,69.3049,0.015734
185.957,69.2986,0.015734
185.988,69.2924,0.015734
186.021,69.2858,0.015734
186.051,69.2799,0.015734
186.082,69.2738,0.015734
186.113,69.2676,0.015772
186.144,69.2613,0.015772
186.174,69.2551,0.015772
186.206,69.2489,0.015772
186.237,69.2427,0.015772
186.268,69.2365,0.015772
186.299,69.2304,0.015772
186.330,69.2241,0.015772
186.361,69.2179,0.015791
186.393,69.2114,0.015791
186.424,69.2052,0.015791
186.455,69.1990,0.015791
186.486,69.1929,0.015791
186.518,69.1865,0.015791
186.549,69.1803,0.015791
186.580,69.1741,0.015791
186.610,69.1679,0.015800
186.642,69.1618,0.015800
186.672,69.1555,0.015800
186.704,69.1493,0.015800
186.735,69.1426,0.015800
186.766,69.1369,0.015800
186.798,69.1303,0.015800
186.829,69.1243,0.015800
186.861,69.1179,0.015772
186.891,69.1118,0.015772
186.923,69.1055,0.015772
186.954,69.0993,0.015772
186.986,69.0928,0.015772
187.017,69.0866,0.015772
187.049,69.0802,0.015772
187.080,69.0740,0.015772
187.111,69.0679,0.015791
187.142,69.0617,0.015791
187.172,69.0556,0.015791
187.203,69.0494,0.015791
187.233,69.0435,0.015791
187.265,69.0370,0.015791
187.296,69.0311,0.015791
187.327,69.0247,0.015791
187.358,69.0185,0.015809
187.389,69.0122,0.015809
187.421,69.0060,0.015809
187.452,68.9997,0.015809
187.483,68.9935,0.015809
187.514,68.9873,0.015809
187.545,68.9812,0.015809
187.576,68.9749,0.015809
187.607,68.9686,0.015743
187.641,68.9620,0.015743
187.669,68.9562,0.015743
187.700,68.9501,0.015743
187.731,68.9438,0.015743
187.762,68.9377,0.015743
187.793,68.9315,0.015743
187.824,68.9253,0.015743
187.854,68.9191,0.015706
187.886,68.9128,0.015706
187.917,68.9067,0.015706
187.949,68.9002,0.015706
187.979,68.8942,0.015706
188.010,68.8880,0.015706
188.041,68.8817,0.015706
188.072,68.8755,0.015706
188.103,68.8695,0.015706
188.134,68.8631,0.015743
188.166,68.8571,0.015743
188.197,68.8507,0.015743
188.228,68.8445,0.015743
188.259,68.8383,0.015743
188.290,68.8320,0.015743
188.321,68.8259,0.015743
188.352,68.8197,0.015743
188.383,68.8135,0.015753
188.414,68.8073,0.015753
188.444,68.8013,0.015753
188.476,68.7949,0.015753
188.506,68.7889,0.015753
188.537,68.7827,0.015753
188.568,68.7766,0.015753
188.599,68.7703,0.015753
188.631,68.7641,0.015772
188.662,68.7576,0.015772
188.694,68.7513,0.015772
188.724,68.7452,0.015772
188.757,68.7387,0.015772
188.787,68.7325,0.015772
188.819,68.7263,0.015772
188.850,68.7199,0.015772
188.882,68.7137,0.015828
188.913,68.7075,0.015828
188.944,68.7013,0.015828
188.976,68.6948,0.015828
189.006,68.6888,0.015828
189.037,68.6827,0.015828
189.068,68.6764,0.015828
189.099,68.6703,0.015828
189.131,68.6638,0.015828
189.162,68.6578,0.015828
189.193,68.6514,0.015828
189.224,68.6454,0.015828
189.256,68.6389,0.015828
189.286,68.6330,0.015828
189.318,68.6264,0.015828
189.349,68.6203,0.015828
189.381,68.6139,0.015809
189.411,68.6078,0.015809
189.443,68.6016,0.015809
189.474,68.5954,0.015809
189.504,68.5893,0.015809
189.535,68.5831,0.015809
189.568,68.5764,0.015809
189.598,68.5705,0.015809
189.629,68.5642,0.015800
189.661,68.5579,0.015800
189.691,68.5518,0.015800
189.722,68.5455,0.015800
189.753,68.5396,0.015800
189.783,68.5332,0.015800
189.815,68.5270,0.015800
189.846,68.5208,0.015800
189.877,68.5148,0.015772
189.909,68.5082,0.015772
189.940,68.5022,0.015772
189.971,68.4959,0.015772
190.001,68.4898,0.015772
190.032,68.4838,0.015772
190.063,68.4774,0.015772
190.094,68.4712,0.015772
190.124,68.4653,0.015772
190.156,68.4590,0.015791
190.186,68.4529,0.015791
190.218,68.4466,0.015791
190.250,68.4402,0.015791
190.281,68.4339,0.015791
190.313,68.4276,0.015791
190.344,68.4211,0.015791
190.376,68.4149,0.015781
190.407,68.4087,0.015781
190.438,68.4025,0.015781
190.468,68.3964,0.015781
190.499,68.3901,0.015781
190.531,68.3839,0.015781
190.562,68.3778,0.015781
190.592,68.3716,0.015781
190.624,68.3653,0.015781
190.654,68.3592,0.015772
190.684,68.3533,0.015772
190.715,68.3471,0.015772
190.747,68.3408,0.015772
190.779,68.3344,0.015772
190.811,68.3280,0.015772
190.841,68.3219,0.015772
190.873,68.3156,0.015800
190.904,68.3091,0.015800
190.936,68.3031,0.015800
190.967,68.2967,0.015800
190.997,68.2908,0.015800
191.029,68.2843,0.015800
191.060,68.2783,0.015800
191.091,68.2720,0.015800
191.122,68.2656,0.015800
191.153,68.2595,0.015800
191.184,68.2533,0.015800
191.214,68.2474,0.015800
191.245,68.2412,0.015800
191.276,68.2350,0.015800
191.307,68.2288,0.015800
191.337,68.2228,0.015800
191.368,68.2166,0.015819
191.400,68.2103,0.015819
191.431,68.2040,0.015819
191.463,68.1974,0.015819
191.495,68.1912,0.015819
191.528,68.1845,0.015819
191.559,68.1784,0.015819
191.589,68.1722,0.015819
191.620,68.1663,0.015800
191.650,68.1601,0.015800
191.682,68.1537,0.015800
191.713,68.1475,0.015800
191.744,68.1413,0.015800
191.775,68.1349,0.015800
191.808,68.1287,0.015800
191.837,68.1226,0.015800
191.869,68.1163,0.015809
191.899,68.1104,0.015809
191.929,68.1042,0.015809
191.960,68.0980,0.015809
191.992,68.0917,0.015809
192.023,68.0855,0.015809
192.055,68.0792,0.015809
192.085,68.0730,0.015791
192.117,68.0667,0.015791
192.147,68.0608,0.015791
192.178,68.0546,0.015791
192.209,68.0483,0.015791
192.239,68.0422,0.015791
192.270,68.0362,0.015791
192.302,68.0297,0.015791
192.332,68.0239,0.015791
192.362,68.0177,0.015800
192.393,68.0115,0.015800
192.424,68.0052,0.015800
192.455,67.9991,0.015800
192.487,67.9925,0.015800
192.519,67.9864,0.015800
192.551,67.9799,0.015800
192.582,67.9738,0.015800
192.613,67.9674,0.015809
192.644,67.9614,0.015809
192.675,67.9550,0.015809
192.707,67.9487,0.015809
192.738,67.9425,0.015809
192.769,67.9364,0.015809
192.800,67.9301,0.015809
192.831,67.9238,0.015809
192.862,67.9176,0.015781
192.893,67.9115,0.015781
192.924,67.9052,0.015781
192.956,67.8990,0.015781
192.987,67.8925,0.015781
193.019,67.8865,0.015781
193.050,67.8800,0.015781
193.081,67.8741,0.015781
193.112,67.8675,0.015809
193.144,67.8613,0.015809
193.175,67.8550,0.015809
193.206,67.8489,0.015809
193.238,67.8423,0.015809
193.269,67.8362,0.015809
193.300,67.8302,0.015809
193.331,67.8240,0.015809
193.362,67.8178,0.015809
193.392,67.8118,0.015819
193.423,67.8053,0.015819
193.455,67.7991,0.015819
193.486,67.7929,0.015819
193.517,67.7867,0.015819
193.549,67.7803,0.015819
193.580,67.7742,0.015819
193.611,67.7678,0.015828
193.642,67.7618,0.015828
193.672,67.7555,0.015828
193.704,67.7494,0.015828
193.735,67.7431,0.015828
193.766,67.7370,0.015828
193.796,67.7308,0.015828
193.827,67.7247,0.015828
193.859,67.7183,0.015828
193.891,67.7121,0.015791
193.921,67.7060,0.015791
193.951,67.7001,0.015791
193.982,67.6937,0.015791
194.014,67.6873,0.015791
194.045,67.6812,0.015791
194.076,67.6748,0.015791
194.107,67.6688,0.015791
194.139,67.6622,0.015781
194.170,67.6560,0.015781
194.201,67.6498,0.015781
194.233,67.6435,0.015781
194.264,67.6372,0.015781
194.296,67.6310,0.015781
194.327,67.6248,0.015781
194.358,67.6187,0.015781
194.388,67.6126,0.015809
194.418,67.6063,0.015809
194.450,67.6002,0.015809
194.480,67.5941,0.015809
194.511,67.5881,0.015809
194.542,67.5816,0.015809
194.572,67.5757,0.015809
194.604,67.5693,0.015809
194.635,67.5631,0.015800
194.668,67.5566,0.015800
194.698,67.5505,0.015800
194.729,67.5444,0.015800
194.760,67.5383,0.015800
194.791,67.5319,0.015800
194.822,67.5257,0.015800
194.852,67.5196,0.015800
194.884,67.5133,0.015800
194.915,67.5071,0.015800
194.946,67.5009,0.015800
194.977,67.4947,0.015800
195.008,67.4887,0.015800
195.040,67.4820,0.015800
195.070,67.4761,0.015800
195.102,67.4697,0.015800
195.133,67.4635,0.015800
195.164,67.4572,0.015772
195.195,67.4511,0.015772
195.226,67.4447,0.015772
195.258,67.4385,0.015772
195.289,67.4323,0.015772
195.320,67.4261,0.015772
195.352,67.4196,0.015772
195.383,67.4136,0.015791
195.414,67.4072,0.015791
195.446,67.4010,0.015791
195.477,67.3947,0.015791
195.508,67.3886,0.015791
195.539,67.3824,0.015791
195.569,67.3764,0.015791
195.600,67.3702,0.015791
195.631,67.3640,0.015800
195.662,67.3577,0.015800
195.694,67.3513,0.015800
195.724,67.3453,0.015800
195.754,67.3394,0.015800
195.785,67.3332,0.015800
195.817,67.3269,0.015800
195.848,67.3205,0.015800
195.878,67.3146,0.015762
195.908,67.3084,0.015762
195.939,67.3023,0.015762
195.971,67.2959,0.015762
196.001,67.2899,0.015762
196.032,67.2837,0.015762
196.063,67.2775,0.015762
196.093,67.2716,0.015762
196.126,67.2649,0.015781
196.156,67.2589,0.015781
196.188,67.2525,0.015781
196.218,67.2464,0.015781
196.250,67.2402,0.015781
196.280,67.2341,0.015781
196.311,67.2278,0.015781
196.342,67.2217,0.015781
196.374,67.2152,0.015781
196.405,67.2097,0.015781
196.436,67.2046,0.015781
196.466,67.2006,0.015781
196.497,67.1970,0.015781
196.529,67.1943,0.015781
196.560,67.1922,0.015781
196.591,67.1908,0.015678
196.622,67.1902,0.015678
196.654,67.1902,0.015678
196.683,67.1902,0.015678
196.714,67.1902,0.015678
196.744,67.1902,0.015678
196.776,67.1902,0.015678
196.806,67.1902,0.015678
196.837,67.1906,0.015678
196.868,67.1916,0.015687
196.898,67.1933,0.015687
196.929,67.1957,0.015687
196.960,67.1990,0.015687
196.992,67.2030,0.015687
197.023,67.2078,0.015687
197.054,67.2131,0.015687
197.085,67.2192,0.015687
197.115,67.2253,0.015706
197.147,67.2316,0.015706
197.178,67.2378,0.015706
197.209,67.2440,0.015706
197.240,67.2501,0.015706
197.271,67.2563,0.015706
197.303,67.2629,0.015706
197.332,67.2687,0.015706
197.363,67.2748,0.015725
197.395,67.2811,0.015725
197.425,67.2872,0.015725
197.456,67.2934,0.015725
197.488,67.2997,0.015725
197.519,67.3060,0.015725
197.551,67.3122,0.015725
197.581,67.3184,0.015725
197.613,67.3246,0.015781
197.643,67.3310,0.015781
197.675,67.3372,0.015781
197.705,67.3431,0.015781
197.736,67.3493,0.015781
197.767,67.3555,0.015781
197.798,67.3621,0.015781
197.830,67.3682,0.015781
197.859,67.3741,0.015743
197.891,67.3803,0.015743
197.921,67.3865,0.015743
197.952,67.3926,0.015743
197.984,67.3990,0.015743
198.014,67.4051,0.015743
198.046,67.4116,0.015743
198.078,67.4178,0.015743
198.110,67.4242,0.015781
198.141,67.4306,0.015781
198.173,67.4369,0.015781
198.205,67.4433,0.015781
198.236,67.4494,0.015781
198.268,67.4557,0.015781
198.298,67.4618,0.015781
198.330,67.4681,0.015781
198.361,67.4743,0.015781
198.392,67.4807,0.015753
198.423,67.4869,0.015753
198.454,67.4929,0.015753
198.485,67.4991,0.015753
198.516,67.5053,0.015753
198.546,67.5114,0.015753
198.577,67.5176,0.015753
198.608,67.5238,0.015725
198.640,67.5301,0.015725
198.671,67.5363,0.015725
198.702,67.5425,0.015725
198.733,67.5487,0.015725
198.765,67.5551,0.015725
198.796,67.5613,0.015725
198.827,67.5675,0.015725
198.858,67.5739,0.015791
198.889,67.5801,0.015791
198.920,67.5862,0.015791
198.953,67.5926,0.015791
198.981,67.5985,0.015791
199.012,67.6046,0.015791
199.043,67.6108,0.015791
199.074,67.6171,0.015791
199.105,67.6233,0.015791
199.136,67.6296,0.015762
199.168,67.6358,0.015762
199.198,67.6420,0.015762
199.230,67.6482,0.015762
199.261,67.6545,0.015762
199.293,67.6607,0.015762
199.324,67.6669,0.015762
199.355,67.6731,0.015762
199.386,67.6793,0.015725
199.417,67.6854,0.015725
199.447,67.6916,0.015725
199.479,67.6978,0.015725
199.510,67.7040,0.015725
199.542,67.7105,0.015725
199.572,67.7165,0.015725
199.603,67.7227,0.015706
199.634,67.7291,0.015706
199.664,67.7349,0.015706
199.695,67.7411,0.015706
199.726,67.7474,0.015706
199.756,67.7534,0.015706
199.787,67.7596,0.015706
199.819,67.7659,0.015706
199.850,67.7722,0.015706
199.881,67.7784,0.015696
199.912,67.7846,0.015696
199.943,67.7908,0.015696
199.974,67.7969,0.015696
200.005,67.8031,0.015696
200.035,67.8092,0.015696
200.066,67.8154,0.015696
200.098,67.8217,0.015715
200.128,67.8277,0.015715
200.159,67.8341,0.015715
200.191,67.8402,0.015715
200.222,67.8466,0.015715
200.253,67.8527,0.015715
200.284,67.8591,0.015715
200.316,67.8653,0.015715
200.347,67.8717,0.015715
200.378,67.8778,0.015725
200.410,67.8842,0.015725
200.440,67.8902,0.015725
200.471,67.8964,0.015725
200.502,67.9026,0.015725
200.533,67.9088,0.015725
200.564,67.9151,0.015725
200.596,67.9213,0.015762
200.626,67.9274,0.015762
200.658,67.9337,0.015762
200.690,67.9402,0.015762
200.720,67.9461,0.015762
200.752,67.9524,0.015762
200.782,67.9586,0.015762
200.814,67.9648,0.015762
200.844,67.9709,0.015762
200.876,67.9774,0.015791
200.908,67.9836,0.015791
200.940,67.9901,0.015791
200.970,67.9961,0.015791
201.001,68.0023,0.015791
201.032,68.0086,0.015791
201.063,68.0147,0.015791
201.094,68.0210,0.015791
201.127,68.0276,0.015772
201.157,68.0334,0.015772
201.188,68.0396,0.015772
201.219,68.0460,0.015772
201.250,68.0523,0.015772
201.281,68.0584,0.015772
201.312,68.0646,0.015772
201.343,68.0708,0.015772
201.375,68.0771,0.015753
201.406,68.0834,0.015753
201.438,68.0899,0.015753
201.469,68.0958,0.015753
201.499,68.1019,0.015753
201.530,68.1082,0.015753
201.563,68.1147,0.015753
201.593,68.1209,0.015753
201.625,68.1272,0.015734
201.656,68.1334,0.015734
201.687,68.1396,0.015734
201.718,68.1458,0.015734
201.748,68.1517,0.015734
201.780,68.1582,0.015734
201.811,68.1645,0.015734
201.842,68.1706,0.015696
201.873,68.1767,0.015696
201.905,68.1831,0.015696
201.935,68.1893,0.015696
201.966,68.1953,0.015696
201.996,68.2015,0.015696
202.027,68.2077,0.015696
202.058,68.2139,0.015696
202.089,68.2200,0.015696
202.120,68.2262,0.015743
202.151,68.2324,0.015743
202.183,68.2388,0.015743
202.213,68.2448,0.015743
202.244,68.2508,0.015743
202.275,68.2572,0.015743
202.306,68.2634,0.015743
202.337,68.2696,0.015791
202.369,68.2759,0.015791
202.399,68.2820,0.015791
202.430,68.2882,0.015791
202.462,68.2944,0.015791
202.493,68.3007,0.015791
202.524,68.3070,0.015791
202.555,68.3131,0.015791
202.587,68.3194,0.015791
202.618,68.3256,0.015781
202.649,68.3320,0.015781
202.681,68.3385,0.015781
202.713,68.3446,0.015781
202.745,68.3512,0.015781
202.776,68.3573,0.015781
202.807,68.3636,0.015781
202.838,68.3698,0.015781
202.869,68.3760,0.015781
202.900,68.3823,0.015781
202.930,68.3884,0.015781
202.961,68.3945,0.015781
202.992,68.4005,0.015781
203.022,68.4066,0.015781
203.054,68.4128,0.015781
203.084,68.4190,0.015781
203.115,68.4252,0.015791
203.147,68.4315,0.015791
203.177,68.4375,0.015791
203.209,68.4438,0.015791
203.239,68.4499,0.015791
203.271,68.4563,0.015791
203.301,68.4624,0.015791
203.333,68.4688,0.015791
203.363,68.4748,0.015791
203.395,68.4812,0.015772
203.427,68.4875,0.015772
203.458,68.4938,0.015772
203.488,68.4998,0.015772
203.520,68.5062,0.015772
203.551,68.5123,0.015772
203.582,68.5187,0.015772
203.613,68.5247,0.015743
203.644,68.5311,0.015743
203.676,68.5373,0.015743
203.707,68.5437,0.015743
203.737,68.5495,0.015743
203.768,68.5557,0.015743
203.799,68.5620,0.015743
203.830,68.5682,0.015743
203.862,68.5745,0.015753
203.893,68.5806,0.015753
203.923,68.5868,0.015753
203.954,68.5930,0.015753
203.985,68.5992,0.015753
204.016,68.6053,0.015753
204.047,68.6114,0.015753
204.078,68.6177,0.015753
204.108,68.6237,0.015772
204.139,68.6300,0.015772
204.170,68.6361,0.015772
204.201,68.6424,0.015772
204.232,68.6485,0.015772
204.263,68.6547,0.015772
204.294,68.6609,0.015772
204.326,68.6673,0.015772
204.357,68.6736,0.015781
204.389,68.6798,0.015781
204.420,68.6862,0.015781
204.451,68.6924,0.015781
204.482,68.6984,0.015781
204.513,68.7048,0.015781
204.544,68.7110,0.015781
204.575,68.7172,0.015781
204.606,68.7232,0.015800
204.637,68.7297,0.015800
204.668,68.7356,0.015800
204.700,68.7420,0.015800
204.731,68.7483,0.015800
204.763,68.7546,0.015800
204.793,68.7607,0.015800
204.824,68.7670,0.015800
204.855,68.7731,0.015875
204.886,68.7793,0.015875
204.917,68.7855,0.015875
204.948,68.7917,0.015875
204.980,68.7982,0.015875
205.010,68.8042,0.015875
205.041,68.8103,0.015875
205.073,68.8168,0.015875
205.103,68.8230,0.015875
205.134,68.8289,0.015857
205.164,68.8349,0.015857
205.195,68.8411,0.015857
205.226,68.8473,0.015857
205.257,68.8536,0.015857
205.289,68.8598,0.015857
205.321,68.8662,0.015857
205.351,68.8723,0.015791
205.381,68.8784,0.015791
205.412,68.8845,0.015791
205.443,68.8907,0.015791
205.474,68.8970,0.015791
205.505,68.9031,0.015791
205.536,68.9094,0.015791
205.567,68.9156,0.015791
205.598,68.9217,0.015791
205.630,68.9281,0.015809
205.660,68.9343,0.015809
205.692,68.9404,0.015809
205.723,68.9467,0.015809
205.754,68.9528,0.015809
205.783,68.9588,0.015809
205.814,68.9648,0.015809
205.845,68.9712,0.015809
205.877,68.9775,0.015800
205.908,68.9836,0.015800
205.939,68.9900,0.015800
205.969,68.9960,0.015800
206.001,69.0022,0.015800
206.031,69.0084,0.015800
206.062,69.0145,0.015800
206.093,69.0207,0.015800
206.124,69.0271,0.015800
206.155,69.0332,0.015781
206.186,69.0393,0.015781
206.217,69.0456,0.015781
206.248,69.0517,0.015781
206.279,69.0580,0.015781
206.311,69.0642,0.015781
206.341,69.0704,0.015781
206.373,69.0767,0.015838
206.404,69.0829,0.015838
206.435,69.0890,0.015838
206.466,69.0953,0.015838
206.498,69.1016,0.015838
206.529,69.1081,0.015838
206.560,69.1142,0.015838
206.590,69.1201,0.015838
206.620,69.1261,0.015857
206.651,69.1323,0.015857
206.682,69.1386,0.015857
206.713,69.1448,0.015857
206.743,69.1509,0.015857
206.775,69.1571,0.015857
206.806,69.1632,0.015857
206.837,69.1695,0.015857
206.869,69.1758,0.015828
206.900,69.1820,0.015828
206.931,69.1883,0.015828
206.962,69.1945,0.015828
206.993,69.2007,0.015828
207.024,69.2071,0.015828
207.055,69.2130,0.015828
207.085,69.2192,0.015828
207.116,69.2253,0.015791
207.147,69.2315,0.015791
207.178,69.2377,0.015791
207.208,69.2438,0.015791
207.239,69.2500,0.015791
207.271,69.2563,0.015791
207.303,69.2627,0.015791
207.334,69.2688,0.015791
207.365,69.2752,0.015791
207.396,69.2812,0.015791
207.427,69.2874,0.015791
207.458,69.2938,0.015791
207.490,69.3001,0.015791
207.521,69.3063,0.015791
207.552,69.3124,0.015791
207.582,69.3186,0.015791
207.614,69.3248,0.015800
207.645,69.3312,0.015800
207.677,69.3374,0.015800
207.708,69.3436,0.015800
207.739,69.3498,0.015800
207.770,69.3560,0.015800
207.800,69.3625,0.015800
207.831,69.3684,0.015800
207.862,69.3746,0.015800
207.893,69.3807,0.015800
207.925,69.3871,0.015800
207.956,69.3932,0.015800
207.987,69.3997,0.015800
208.018,69.4057,0.015800
208.050,69.4122,0.015800
208.081,69.4183,0.015800
208.112,69.4246,0.015828
208.144,69.4308,0.015828
208.176,69.4374,0.015828
208.207,69.4436,0.015828
208.238,69.4499,0.015828
208.269,69.4559,0.015828
208.300,69.4621,0.015828
208.331,69.4681,0.015828
208.362,69.4746,0.015828
208.393,69.4808,0.015781
208.424,69.4870,0.015781
208.455,69.4931,0.015781
208.486,69.4991,0.015781
208.518,69.5056,0.015781
208.549,69.5119,0.015781
208.580,69.5182,0.015781
208.611,69.5242,0.015781
208.642,69.5305,0.015781
208.673,69.5366,0.015781
208.705,69.5430,0.015781
208.736,69.5492,0.015781
208.768,69.5557,0.015781
208.799,69.5618,0.015781
208.829,69.5678,0.015781
208.860,69.5743,0.015800
208.892,69.5804,0.015800
208.923,69.5866,0.015800
208.955,69.5930,0.015800
208.985,69.5991,0.015800
209.015,69.6052,0.015800
209.047,69.6114,0.015800
209.078,69.6177,0.015800
209.109,69.6238,0.015762
209.140,69.6300,0.015762
209.171,69.6363,0.015762
209.203,69.6426,0.015762
209.234,69.6488,0.015762
209.266,69.6553,0.015762
209.297,69.6614,0.015762
209.327,69.6677,0.015762
209.358,69.6738,0.015791
209.390,69.6801,0.015791
209.421,69.6863,0.015791
209.452,69.6925,0.015791
209.483,69.6989,0.015791
209.514,69.7049,0.015791
209.547,69.7115,0.015791
209.576,69.7173,0.015791
209.607,69.7237,0.015791
209.639,69.7298,0.015791
209.669,69.7360,0.015791
209.700,69.7420,0.015791
209.731,69.7483,0.015791
209.762,69.7545,0.015791
209.793,69.7608,0.015791
209.825,69.7672,0.015791
209.856,69.7735,0.015753
209.886,69.7792,0.015753
209.917,69.7855,0.015753
209.949,69.7917,0.015753
209.979,69.7979,0.015753
210.010,69.8042,0.015753
210.041,69.8102,0.015753
210.072,69.8164,0.015753
210.103,69.8226,0.015753
210.134,69.8289,0.015762
210.165,69.8351,0.015762
210.196,69.8414,0.015762
210.227,69.8475,0.015762
210.259,69.8540,0.015762
210.290,69.8602,0.015762
210.322,69.8665,0.015762
210.353,69.8727,0.015791
210.383,69.8788,0.015791
210.413,69.8847,0.015791
210.444,69.8909,0.015791
210.475,69.8973,0.015791
210.506,69.9032,0.015791
210.537,69.9093,0.015791
210.568,69.9157,0.015791
210.599,69.9218,0.015791
210.629,69.9281,0.015753
210.661,69.9342,0.015753
210.692,69.9405,0.015753
210.723,69.9466,0.015753
210.754,69.9529,0.015753
210.785,69.9590,0.015753
210.816,69.9652,0.015753
210.847,69.9714,0.015781
210.879,69.9777,0.015781
210.910,69.9841,0.015781
210.941,69.9904,0.015781
210.972,69.9965,0.015781
211.004,70.0028,0.015781
211.035,70.0090,0.015781
211.066,70.0152,0.015781
211.097,70.0216,0.015828
211.128,70.0278,0.015828
211.159,70.0339,0.015828
211.190,70.0400,0.015828
211.221,70.0462,0.015828
211.251,70.0523,0.015828
211.282,70.0584,0.015828
211.312,70.0644,0.015828
211.343,70.0708,0.015819
211.375,70.0770,0.015819
211.406,70.0834,0.015819
211.436,70.0895,0.015819
211.468,70.0956,0.015819
211.499,70.1019,0.015819
211.530,70.1081,0.015819
211.561,70.1143,0.015819
211.592,70.1206,0.015819
211.624,70.1269,0.015809
211.656,70.1331,0.015809
211.686,70.1393,0.015809
211.717,70.1455,0.015809
211.749,70.1519,0.015809
211.779,70.1578,0.015809
211.810,70.1640,0.015809
211.841,70.1700,0.015809
211.872,70.1749,0.015762
211.902,70.1792,0.015762
211.932,70.1828,0.015762
211.963,70.1856,0.015762
211.993,70.1878,0.015762
212.025,70.1893,0.015762
212.056,70.1901,0.015762
212.087,70.1902,0.015762
212.118,70.1902,0.015781
212.149,70.1902,0.015781
212.180,70.1902,0.015781
212.212,70.1902,0.015781
212.242,70.1902,0.015781
212.274,70.1902,0.015781
212.307,70.1902,0.015781
212.337,70.1902,0.015781
212.367,70.1902,0.015781
212.400,70.1902,0.015781
212.430,70.1902,0.015781
212.461,70.1902,0.015781
