Elapsed Time (s),Position (mm),Force (N)
-0.013,74.9903,-0.096826
0.018,74.9903,-0.096826
0.050,74.9903,-0.096826
0.082,74.9903,-0.096826
0.113,74.9903,-0.096826
0.144,74.9903,-0.096826
0.175,74.9903,-0.096826
0.207,74.9903,-0.093632
0.238,74.9903,-0.093632
0.269,74.9903,-0.093632
0.301,74.9903,-0.093632
0.331,74.9903,-0.093632
0.362,74.9903,-0.093632
0.393,74.9903,-0.093632
0.424,74.9903,-0.093632
0.455,74.9903,-0.093632
0.486,74.9903,-0.090852
0.517,74.9903,-0.090852
0.547,74.9903,-0.090852
0.578,74.9903,-0.090852
0.609,74.9903,-0.090852
0.641,74.9903,-0.090852
0.672,74.9903,-0.090852
0.703,74.9903,-0.090852
0.734,74.9903,-0.088337
0.765,74.9903,-0.088337
0.797,74.9903,-0.088337
0.827,74.9903,-0.088337
0.858,74.9903,-0.088337
0.890,74.9903,-0.088337
0.920,74.9903,-0.088337
0.952,74.9903,-0.088337
0.982,74.9903,-0.085963
1.013,74.9903,-0.085963
1.044,74.9903,-0.085963
1.074,74.9903,-0.085963
1.106,74.9903,-0.085963
1.137,74.9903,-0.085963
1.169,74.9903,-0.085963
1.200,74.9903,-0.085963
1.230,74.9903,-0.083692
1.262,74.9903,-0.083692
1.293,74.9903,-0.083692
1.324,74.9903,-0.083692
1.356,74.9903,-0.083692
1.388,74.9903,-0.083692
1.418,74.9903,-0.083692
1.449,74.9903,-0.081525
1.480,74.9903,-0.081525
1.511,74.9903,-0.081525
1.541,74.9903,-0.081525
1.572,74.9903,-0.081525
1.603,74.9903,-0.081525
1.634,74.9903,-0.081525
1.665,74.9903,-0.081525
1.697,74.9903,-0.079368
1.729,74.9903,-0.079368
1.761,74.9903,-0.079368
1.793,74.9903,-0.079368
1.823,74.9903,-0.079368
1.855,74.9903,-0.079368
1.885,74.9903,-0.079368
1.916,74.9903,-0.079368
1.947,74.9903,-0.077427
1.979,74.9903,-0.077427
2.010,74.9903,-0.077427
2.041,74.9903,-0.077427
2.071,74.9903,-0.077427
2.103,74.9903,-0.077427
2.134,74.9903,-0.077427
2.166,74.9903,-0.077427
2.196,74.9903,-0.077427
2.228,74.9903,-0.075599
2.258,74.9903,-0.075599
2.290,74.9903,-0.075599
2.320,74.9903,-0.075599
2.352,74.9903,-0.075599
2.383,74.9903,-0.075599
2.415,74.9903,-0.075599
2.447,74.9903,-0.075599
2.477,74.9903,-0.073846
2.509,74.9903,-0.073846
2.540,74.9903,-0.073846
2.571,74.9903,-0.073846
2.603,74.9903,-0.073846
2.633,74.9903,-0.073846
2.663,74.9903,-0.073846
2.693,74.9903,-0.072207
2.725,74.9903,-0.072207
2.756,74.9903,-0.072207
2.787,74.9903,-0.072207
2.818,74.9903,-0.072207
2.849,74.9903,-0.072207
2.880,74.9903,-0.072207
2.911,74.9903,-0.072207
2.942,74.9903,-0.070671
2.973,74.9903,-0.070671
3.004,74.9903,-0.070671
3.034,74.9903,-0.070671
3.065,74.9903,-0.070671
3.096,74.9903,-0.070671
3.127,74.9903,-0.070671
3.157,74.9903,-0.070671
3.188,74.9903,-0.069089
3.218,74.9903,-0.069089
3.250,74.9903,-0.069089
3.281,74.9903,-0.069089
3.312,74.9903,-0.069089
3.343,74.9903,-0.069089
3.374,74.9903,-0.069089
3.405,74.9903,-0.069089
3.436,74.9903,-0.069089
3.468,74.9903,-0.067562
3.500,74.9903,-0.067562
3.530,74.9903,-0.067562
3.560,74.9903,-0.067562
3.592,74.9903,-0.067562
3.623,74.9903,-0.067562
3.653,74.9903,-0.067562
3.686,74.9903,-0.066648
3.717,74.9903,-0.066648
3.748,74.9903,-0.066648
3.780,74.9903,-0.066648
3.811,74.9903,-0.066648
3.842,74.9903,-0.066648
3.873,74.9903,-0.066648
3.904,74.9903,-0.066648
3.934,74.9903,-0.066648
3.966,74.9903,-0.066309
3.996,74.9903,-0.066309
4.028,74.9903,-0.066309
4.058,74.9903,-0.066309
4.090,74.9903,-0.066309
4.120,74.9900,-0.066309
4.152,74.9890,-0.066309
4.182,74.9872,-0.066309
4.213,74.9848,-0.065612
4.245,74.9815,-0.065612
4.276,74.9776,-0.065612
4.308,74.9727,-0.065612
4.339,74.9675,-0.065612
4.370,74.9614,-0.065612
4.401,74.9551,-0.065612
4.432,74.9489,-0.062211
4.462,74.9428,-0.062211
4.493,74.9367,-0.062211
4.524,74.9304,-0.062211
4.555,74.9243,-0.062211
4.585,74.9181,-0.062211
4.617,74.9120,-0.062211
4.648,74.9056,-0.062211
4.680,74.8994,-0.062211
4.710,74.8930,-0.053713
4.741,74.8870,-0.053713
4.773,74.8805,-0.053713
4.804,74.8744,-0.053713
4.835,74.8681,-0.053713
4.866,74.8620,-0.053713
4.898,74.8556,-0.053713
4.929,74.8494,-0.041681
4.961,74.8429,-0.041681
4.992,74.8367,-0.041681
5.022,74.8309,-0.041681
5.053,74.8246,-0.041681
5.085,74.8183,-0.041681
5.116,74.8122,-0.041681
5.146,74.8061,-0.041681
5.177,74.7998,-0.041681
5.208,74.7937,-0.027747
5.239,74.7875,-0.027747
5.271,74.7812,-0.027747
5.301,74.7748,-0.027747
5.332,74.7690,-0.027747
5.363,74.7627,-0.027747
5.394,74.7565,-0.027747
5.426,74.7502,-0.027747
5.457,74.7437,-0.010580
5.488,74.7376,-0.010580
5.519,74.7314,-0.010580
5.549,74.7252,-0.010580
5.581,74.7190,-0.010580
5.612,74.7128,-0.010580
5.644,74.7064,-0.010580
5.675,74.7003,-0.010580
5.705,74.6942,0.010891
5.736,74.6880,0.010891
5.767,74.6820,0.010891
5.799,74.6756,0.010891
5.830,74.6692,0.010891
5.861,74.6631,0.010891
5.893,74.6568,0.010891
5.923,74.6506,0.010891
5.955,74.6444,0.037498
5.985,74.6380,0.037498
6.017,74.6320,0.037498
6.048,74.6256,0.037498
6.079,74.6194,0.037498
6.111,74.6131,0.037498
6.142,74.6069,0.037498
6.173,74.6006,0.037498
6.204,74.5945,0.069805
6.234,74.5884,0.069805
6.265,74.5821,0.069805
6.296,74.5760,0.069805
6.328,74.5696,0.069805
6.359,74.5635,0.069805
6.390,74.5573,0.069805
6.420,74.5514,0.069805
6.451,74.5449,0.107962
6.483,74.5387,0.107962
6.514,74.5326,0.107962
6.544,74.5264,0.107962
6.576,74.5201,0.107962
6.607,74.5138,0.107962
6.638,74.5077,0.107962
6.669,74.5015,0.107962
6.701,74.4953,0.151933
6.732,74.4888,0.151933
6.763,74.4828,0.151933
6.794,74.4764,0.151933
6.826,74.4702,0.151933
6.857,74.4639,0.151933
6.888,74.4577,0.151933
6.919,74.4515,0.151933
6.950,74.4454,0.201782
6.981,74.4391,0.201782
7.011,74.4330,0.201782
7.042,74.4270,0.201782
7.073,74.4205,0.201782
7.104,74.4146,0.201782
7.135,74.4082,0.201782
7.167,74.4019,0.201782
7.198,74.3957,0.201782
7.229,74.3891,0.257087
7.261,74.3831,0.257087
7.292,74.3767,0.257087
7.321,74.3710,0.257087
7.353,74.3648,0.257087
7.384,74.3586,0.257087
7.415,74.3523,0.257087
7.447,74.3458,0.257087
7.478,74.3398,0.317310
7.509,74.3333,0.317310
7.541,74.3271,0.317310
7.572,74.3208,0.317310
7.604,74.3143,0.317310
7.634,74.3084,0.317310
7.665,74.3024,0.317310
7.695,74.2962,0.317310
7.726,74.2900,0.382357
7.757,74.2838,0.382357
7.788,74.2778,0.382357
7.820,74.2714,0.382357
7.850,74.2652,0.382357
7.880,74.2593,0.382357
7.910,74.2532,0.382357
7.942,74.2469,0.382357
7.974,74.2406,0.451926
8.004,74.2345,0.451926
8.035,74.2283,0.451926
8.066,74.2220,0.451926
8.098,74.2157,0.451926
8.129,74.2093,0.451926
8.161,74.2032,0.451926
8.191,74.1971,0.451926
8.222,74.1908,0.525725
8.254,74.1846,0.525725
8.284,74.1784,0.525725
8.315,74.1723,0.525725
8.346,74.1663,0.525725
8.377,74.1599,0.525725
8.407,74.1539,0.525725
8.438,74.1477,0.525725
8.468,74.1417,0.603048
8.498,74.1356,0.603048
8.529,74.1296,0.603048
8.560,74.1234,0.603048
8.591,74.1172,0.603048
8.622,74.1108,0.603048
8.653,74.1049,0.603048
8.684,74.0985,0.603048
8.714,74.0925,0.683594
8.745,74.0863,0.683594
8.776,74.0799,0.683594
8.807,74.0737,0.683594
8.838,74.0677,0.683594
8.869,74.0615,0.683594
8.900,74.0550,0.683594
8.931,74.0492,0.683594
8.962,74.0429,0.766767
8.993,74.0368,0.766767
9.024,74.0305,0.766767
9.055,74.0243,0.766767
9.086,74.0181,0.766767
9.118,74.0116,0.766767
9.150,74.0053,0.766767
9.181,73.9991,0.766767
9.212,73.9929,0.852259
9.244,73.9864,0.852259
9.275,73.9802,0.852259
9.307,73.9739,0.852259
9.338,73.9677,0.852259
9.370,73.9613,0.852259
9.400,73.9553,0.852259
9.432,73.9489,0.852259
9.463,73.9428,0.852259
9.493,73.9366,0.940068
9.524,73.9305,0.940068
9.555,73.9242,0.940068
9.587,73.9178,0.940068
9.618,73.9116,0.940068
9.649,73.9053,0.940068
9.681,73.8992,0.940068
9.712,73.8928,1.029800
9.744,73.8866,1.029800
9.775,73.8803,1.029800
9.806,73.8741,1.029800
9.837,73.8677,1.029800
9.868,73.8617,1.029800
9.899,73.8553,1.029800
9.930,73.8493,1.029800
9.962,73.8429,1.122339
9.991,73.8371,1.122339
10.023,73.8308,1.122339
10.055,73.8243,1.122339
10.085,73.8183,1.122339
10.116,73.8119,1.122339
10.148,73.8059,1.122339
10.179,73.7997,1.122339
10.209,73.7936,1.217205
10.240,73.7874,1.217205
10.271,73.7810,1.217205
10.302,73.7748,1.217205
10.333,73.7688,1.217205
10.364,73.7626,1.217205
10.394,73.7565,1.217205
10.426,73.7502,1.217205
10.458,73.7438,1.314219
10.489,73.7375,1.314219
10.520,73.7312,1.314219
10.551,73.7250,1.314219
10.582,73.7188,1.314219
10.614,73.7126,1.314219
10.645,73.7064,1.314219
10.675,73.7002,1.314219
10.706,73.6941,1.413560
10.737,73.6879,1.413560
10.768,73.6817,1.413560
10.799,73.6755,1.413560
10.831,73.6692,1.413560
10.862,73.6630,1.413560
10.894,73.6565,1.413560
10.924,73.6503,1.413560
10.954,73.6445,1.514824
10.986,73.6380,1.514824
11.018,73.6318,1.514824
11.048,73.6256,1.514824
11.080,73.6193,1.514824
11.110,73.6132,1.514824
11.141,73.6072,1.514824
11.172,73.6008,1.514824
11.203,73.5948,1.617971
11.233,73.5887,1.617971
11.264,73.5826,1.617971
11.295,73.5763,1.617971
11.326,73.5701,1.617971
11.357,73.5639,1.617971
11.389,73.5576,1.617971
11.420,73.5514,1.617971
11.450,73.5453,1.722146
11.481,73.5391,1.722146
11.512,73.5330,1.722146
11.543,73.5267,1.722146
11.573,73.5207,1.722146
11.604,73.5145,1.722146
11.635,73.5084,1.722146
11.666,73.5021,1.722146
11.696,73.4960,1.826217
11.727,73.4898,1.826217
11.758,73.4838,1.826217
11.789,73.4777,1.826217
11.821,73.4712,1.826217
11.851,73.4650,1.826217
11.882,73.4590,1.826217
11.914,73.4526,1.826217
11.945,73.4463,1.930024
11.977,73.4399,1.930024
12.008,73.4338,1.930024
12.040,73.4273,1.930024
12.071,73.4211,1.930024
12.101,73.4151,1.930024
12.132,73.4089,1.930024
12.163,73.4027,1.930024
12.194,73.3965,2.035367
12.225,73.3901,2.035367
12.256,73.3842,2.035367
12.287,73.3777,2.035367
12.318,73.3718,2.035367
12.349,73.3654,2.035367
12.380,73.3595,2.035367
12.411,73.3530,2.035367
12.442,73.3470,2.142735
12.474,73.3404,2.142735
12.505,73.3343,2.142735
12.536,73.3281,2.142735
12.567,73.3220,2.142735
12.598,73.3157,2.142735
12.629,73.3096,2.142735
12.660,73.3033,2.142735
12.691,73.2971,2.251762
12.722,73.2910,2.251762
12.753,73.2848,2.251762
12.783,73.2786,2.251762
12.815,73.2724,2.251762
12.846,73.2660,2.251762
12.875,73.2601,2.251762
12.905,73.2543,2.251762
12.936,73.2481,2.362909
12.967,73.2418,2.362909
12.998,73.2358,2.362909
13.029,73.2295,2.362909
13.061,73.2232,2.362909
13.092,73.2167,2.362909
13.123,73.2108,2.362909
13.154,73.2046,2.362909
13.187,73.1979,2.362909
13.216,73.1921,2.475770
13.249,73.1855,2.475770
13.279,73.1795,2.475770
13.310,73.1735,2.475770
13.340,73.1673,2.475770
13.372,73.1611,2.475770
13.403,73.1549,2.475770
13.433,73.1488,2.475770
13.464,73.1426,2.589668
13.495,73.1362,2.589668
13.526,73.1302,2.589668
13.556,73.1240,2.589668
13.587,73.1178,2.589668
13.617,73.1118,2.589668
13.648,73.1057,2.589668
13.680,73.0993,2.589668
13.710,73.0933,2.704479
13.741,73.0870,2.704479
13.772,73.0811,2.704479
13.803,73.0746,2.704479
13.833,73.0687,2.704479
13.866,73.0621,2.704479
13.896,73.0561,2.704479
13.927,73.0498,2.704479
13.959,73.0436,2.820101
13.988,73.0375,2.820101
14.019,73.0316,2.820101
14.050,73.0252,2.820101
14.081,73.0192,2.820101
14.113,73.0126,2.820101
14.144,73.0065,2.820101
14.176,73.0001,2.820101
14.206,72.9941,2.935836
14.237,72.9879,2.935836
14.268,72.9817,2.935836
14.299,72.9755,2.935836
14.331,72.9691,2.935836
14.362,72.9630,2.935836
14.393,72.9569,2.935836
14.424,72.9506,2.935836
14.454,72.9445,3.054209
14.485,72.9382,3.054209
14.516,72.9320,3.054209
14.547,72.9260,3.054209
14.578,72.9198,3.054209
14.608,72.9138,3.054209
14.640,72.9074,3.054209
14.670,72.9013,3.054209
14.701,72.8953,3.176389
14.731,72.8889,3.176389
14.762,72.8830,3.176389
14.795,72.8764,3.176389
14.825,72.8705,3.176389
14.856,72.8641,3.176389
14.887,72.8578,3.176389
14.918,72.8517,3.176389
14.949,72.8455,3.299369
14.980,72.8393,3.299369
15.011,72.8331,3.299369
15.043,72.8268,3.299369
15.073,72.8207,3.299369
15.106,72.8142,3.299369
15.136,72.8082,3.299369
15.167,72.8019,3.299369
15.198,72.7958,3.423027
15.228,72.7896,3.423027
15.259,72.7835,3.423027
15.290,72.7774,3.423027
15.320,72.7714,3.423027
15.351,72.7650,3.423027
15.383,72.7588,3.423027
15.413,72.7526,3.423027
15.444,72.7466,3.547458
15.475,72.7402,3.547458
15.506,72.7340,3.547458
15.538,72.7278,3.547458
15.569,72.7216,3.547458
15.600,72.7152,3.547458
15.631,72.7091,3.547458
15.662,72.7028,3.547458
15.694,72.6966,3.673189
15.725,72.6904,3.673189
15.756,72.6842,3.673189
15.788,72.6777,3.673189
15.819,72.6717,3.673189
15.849,72.6656,3.673189
15.880,72.6594,3.673189
15.911,72.6532,3.673189
15.942,72.6470,3.800730
15.973,72.6408,3.800730
16.004,72.6347,3.800730
16.035,72.6284,3.800730
16.065,72.6224,3.800730
16.096,72.6162,3.800730
16.127,72.6100,3.800730
16.158,72.6038,3.800730
16.189,72.5974,3.800730
16.220,72.5913,3.800730
16.251,72.5852,3.929042
16.281,72.5790,3.929042
16.312,72.5729,3.929042
16.344,72.5665,3.929042
16.375,72.5603,3.929042
16.407,72.5538,3.929042
16.438,72.5479,3.929042
16.467,72.5418,3.929042
16.500,72.5355,4.058335
16.529,72.5295,4.058335
16.560,72.5232,4.058335
16.592,72.5170,4.058335
16.623,72.5108,4.058335
16.654,72.5045,4.058335
16.684,72.4985,4.058335
16.715,72.4922,4.188843
16.746,72.4861,4.188843
16.777,72.4798,4.188843
16.808,72.4737,4.188843
16.839,72.4674,4.188843
16.871,72.4612,4.188843
16.902,72.4549,4.188843
16.932,72.4488,4.188843
16.964,72.4426,4.321424
16.995,72.4364,4.321424
17.027,72.4299,4.321424
17.058,72.4236,4.321424
17.089,72.4175,4.321424
17.120,72.4113,4.321424
17.152,72.4050,4.321424
17.183,72.3988,4.321424
17.213,72.3922,4.321424
17.245,72.3864,4.455776
17.276,72.3803,4.455776
17.306,72.3741,4.455776
17.337,72.3679,4.455776
17.368,72.3617,4.455776
17.399,72.3556,4.455776
17.430,72.3494,4.455776
17.460,72.3434,4.591466
17.491,72.3372,4.591466
17.521,72.3311,4.591466
17.552,72.3248,4.591466
17.583,72.3188,4.591466
17.613,72.3127,4.591466
17.644,72.3065,4.591466
17.676,72.3002,4.591466
17.706,72.2941,4.729021
17.737,72.2879,4.729021
17.768,72.2819,4.729021
17.799,72.2755,4.729021
17.830,72.2693,4.729021
17.860,72.2632,4.729021
17.891,72.2572,4.729021
17.923,72.2508,4.729021
17.953,72.2448,4.867942
17.984,72.2386,4.867942
18.015,72.2324,4.867942
18.046,72.2260,4.867942
18.078,72.2198,4.867942
18.110,72.2134,4.867942
18.141,72.2069,4.867942
18.173,72.2006,4.867942
18.205,72.1942,5.007938
18.236,72.1881,5.007938
18.267,72.1819,5.007938
18.298,72.1757,5.007938
18.329,72.1696,5.007938
18.360,72.1632,5.007938
18.391,72.1571,5.007938
18.422,72.1509,5.007938
18.454,72.1447,5.147773
18.485,72.1382,5.147773
18.516,72.1322,5.147773
18.548,72.1257,5.147773
18.578,72.1198,5.147773
18.610,72.1134,5.147773
18.641,72.1072,5.147773
18.672,72.1010,5.147773
18.702,72.0949,5.287948
18.733,72.0887,5.287948
18.764,72.0824,5.287948
18.795,72.0765,5.287948
18.825,72.0704,5.287948
18.856,72.0643,5.287948
18.887,72.0579,5.287948
18.919,72.0515,5.287948
18.949,72.0456,5.428302
18.980,72.0393,5.428302
19.011,72.0332,5.428302
19.042,72.0269,5.428302
19.072,72.0209,5.428302
19.104,72.0146,5.428302
19.135,72.0084,5.428302
19.166,72.0021,5.428302
19.197,71.9960,5.568024
19.229,71.9894,5.568024
19.261,71.9833,5.568024
19.293,71.9766,5.568024
19.323,71.9708,5.568024
19.354,71.9646,5.568024
19.386,71.9590,5.568024
19.417,71.9541,5.568024
19.448,71.9498,5.706229
19.479,71.9465,5.706229
19.510,71.9439,5.706229
19.541,71.9419,5.706229
19.572,71.9408,5.706229
19.604,71.9403,5.706229
19.635,71.9403,5.706229
19.665,71.9403,5.706229
19.697,71.9403,5.790270
19.728,71.9403,5.790270
19.759,71.9403,5.790270
19.790,71.9403,5.790270
19.821,71.9403,5.790270
19.852,71.9403,5.790270
19.883,71.9403,5.790270
19.915,71.9403,5.790270
19.945,71.9403,5.757831
19.976,71.9403,5.757831
20.007,71.9403,5.757831
20.038,71.9403,5.757831
20.069,71.9403,5.757831
20.100,71.9403,5.757831
20.131,71.9403,5.757831
20.163,71.9404,5.757831
20.193,71.9412,5.757831
20.224,71.9428,5.668741
20.255,71.9449,5.668741
20.286,71.9480,5.668741
20.318,71.9516,5.668741
20.350,71.9563,5.668741
20.382,71.9616,5.668741
20.412,71.9675,5.668741
20.443,71.9734,5.668741
20.474,71.9797,5.567308
20.505,71.9859,5.567308
20.536,71.9920,5.567308
20.567,71.9982,5.567308
20.599,72.0045,5.567308
20.629,72.0107,5.567308
20.661,72.0169,5.567308
20.691,72.0233,5.358148
20.721,72.0291,5.358148
20.753,72.0355,5.358148
20.783,72.0415,5.358148
20.814,72.0478,5.358148
20.845,72.0540,5.358148
20.876,72.0601,5.358148
20.907,72.0664,5.358148
20.939,72.0726,5.358148
20.970,72.0791,5.070073
21.002,72.0854,5.070073
21.033,72.0916,5.070073
21.064,72.0977,5.070073
21.095,72.1040,5.070073
21.126,72.1101,5.070073
21.157,72.1165,5.070073
21.188,72.1225,4.802246
21.219,72.1292,4.802246
21.253,72.1354,4.802246
21.281,72.1411,4.802246
21.313,72.1474,4.802246
21.344,72.1536,4.802246
21.375,72.1601,4.802246
21.406,72.1661,4.802246
21.437,72.1722,4.802246
21.468,72.1785,4.802246
21.500,72.1847,4.554194
21.530,72.1909,4.554194
21.561,72.1971,4.554194
21.592,72.2032,4.554194
21.623,72.2095,4.554194
21.654,72.2157,4.554194
21.686,72.2221,4.554194
21.717,72.2283,4.320482
21.748,72.2345,4.320482
21.778,72.2406,4.320482
21.810,72.2469,4.320482
21.841,72.2532,4.320482
21.872,72.2594,4.320482
21.903,72.2655,4.320482
21.934,72.2717,4.320482
21.965,72.2779,4.099018
21.996,72.2842,4.099018
22.026,72.2902,4.099018
22.057,72.2965,4.099018
22.090,72.3028,4.099018
22.119,72.3089,4.099018
22.150,72.3148,4.099018
22.181,72.3212,4.099018
22.212,72.3272,3.888567
22.243,72.3337,3.888567
22.274,72.3396,3.888567
22.305,72.3460,3.888567
22.336,72.3519,3.888567
22.367,72.3584,3.888567
22.398,72.3645,3.888567
22.430,72.3708,3.888567
22.461,72.3771,3.687934
22.492,72.3834,3.687934
22.523,72.3894,3.687934
22.554,72.3957,3.687934
22.585,72.4020,3.687934
22.615,72.4079,3.687934
22.647,72.4143,3.687934
22.676,72.4201,3.687934
22.707,72.4263,3.496619
22.739,72.4327,3.496619
22.771,72.4390,3.496619
22.801,72.4451,3.496619
22.833,72.4514,3.496619
22.864,72.4577,3.496619
22.895,72.4638,3.496619
22.927,72.4704,3.496619
22.957,72.4763,3.312474
22.988,72.4825,3.312474
23.019,72.4887,3.312474
23.051,72.4950,3.312474
23.082,72.5015,3.312474
23.113,72.5075,3.312474
23.144,72.5138,3.312474
23.175,72.5199,3.312474
23.206,72.5261,3.135160
23.237,72.5323,3.135160
23.268,72.5386,3.135160
23.299,72.5447,3.135160
23.330,72.5510,3.135160
23.361,72.5571,3.135160
23.393,72.5634,3.135160
23.424,72.5696,3.135160
23.456,72.5760,3.135160
23.486,72.5821,2.964101
23.517,72.5884,2.964101
23.549,72.5948,2.964101
23.580,72.6010,2.964101
23.612,72.6072,2.964101
23.642,72.6132,2.964101
23.672,72.6194,2.964101
23.704,72.6258,2.799016
23.736,72.6321,2.799016
23.766,72.6383,2.799016
23.798,72.6444,2.799016
23.829,72.6507,2.799016
23.859,72.6568,2.799016
23.891,72.6631,2.799016
23.922,72.6693,2.799016
23.953,72.6755,2.799016
23.984,72.6817,2.639668
24.015,72.6879,2.639668
24.047,72.6942,2.639668
24.078,72.7007,2.639668
24.108,72.7065,2.639668
24.139,72.7126,2.639668
24.171,72.7192,2.639668
24.202,72.7252,2.639668
24.233,72.7316,2.485672
24.264,72.7376,2.485672
24.295,72.7438,2.485672
24.326,72.7500,2.485672
24.357,72.7562,2.485672
24.388,72.7627,2.485672
24.418,72.7685,2.485672
24.450,72.7748,2.485672
24.481,72.7812,2.337574
24.513,72.7874,2.337574
24.545,72.7938,2.337574
24.576,72.8000,2.337574
24.607,72.8062,2.337574
24.639,72.8127,2.337574
24.670,72.8189,2.337574
24.701,72.8251,2.337574
24.732,72.8313,2.195035
24.763,72.8376,2.195035
24.794,72.8437,2.195035
24.825,72.8498,2.195035
24.856,72.8562,2.195035
24.887,72.8622,2.195035
24.918,72.8684,2.195035
24.949,72.8746,2.195035
24.980,72.8808,2.058271
25.011,72.8870,2.058271
25.043,72.8934,2.058271
25.073,72.8996,2.058271
25.104,72.9056,2.058271
25.135,72.9119,2.058271
25.167,72.9182,2.058271
25.198,72.9245,2.058271
25.229,72.9306,1.926171
25.260,72.9368,1.926171
25.292,72.9433,1.926171
25.323,72.9495,1.926171
25.354,72.9555,1.926171
25.385,72.9620,1.926171
25.417,72.9682,1.926171
25.448,72.9744,1.798122
25.478,72.9804,1.798122
25.508,72.9866,1.798122
25.539,72.9929,1.798122
25.570,72.9990,1.798122
25.601,73.0053,1.798122
25.632,73.0114,1.798122
25.664,73.0178,1.798122
25.695,73.0239,1.798122
25.726,73.0302,1.675142
25.757,73.0364,1.675142
25.789,73.0427,1.675142
25.820,73.0488,1.675142
25.850,73.0549,1.675142
25.881,73.0611,1.675142
25.912,73.0672,1.675142
25.943,73.0736,1.557287
25.973,73.0796,1.557287
26.004,73.0856,1.557287
26.035,73.0918,1.557287
26.066,73.0982,1.557287
26.099,73.1046,1.557287
26.129,73.1107,1.557287
26.160,73.1169,1.557287
26.192,73.1231,1.557287
26.222,73.1292,1.444604
26.253,73.1355,1.444604
26.284,73.1417,1.444604
26.316,73.1480,1.444604
26.347,73.1542,1.444604
26.378,73.1606,1.444604
26.409,73.1669,1.444604
26.440,73.1730,1.335898
26.471,73.1790,1.335898
26.503,73.1854,1.335898
26.532,73.1913,1.335898
26.564,73.1976,1.335898
26.594,73.2036,1.335898
26.625,73.2100,1.335898
26.656,73.2161,1.335898
26.687,73.2224,1.335898
26.718,73.2285,1.231328
26.749,73.2348,1.231328
26.780,73.2409,1.231328
26.812,73.2474,1.231328
26.843,73.2535,1.231328
26.874,73.2599,1.231328
26.906,73.2661,1.231328
26.938,73.2726,1.131006
26.969,73.2786,1.131006
27.000,73.2848,1.131006
27.030,73.2909,1.131006
27.061,73.2970,1.131006
27.092,73.3034,1.131006
27.123,73.3095,1.131006
27.154,73.3156,1.131006
27.186,73.3220,1.131006
27.217,73.3282,1.034510
27.248,73.3344,1.034510
27.279,73.3406,1.034510
27.311,73.3470,1.034510
27.342,73.3532,1.034510
27.373,73.3595,1.034510
27.405,73.3658,1.034510
27.436,73.3720,1.034510
27.467,73.3782,0.942028
27.498,73.3843,0.942028
27.530,73.3907,0.942028
27.560,73.3969,0.942028
27.591,73.4031,0.942028
27.622,73.4093,0.942028
27.653,73.4154,0.942028
27.685,73.4219,0.853220
27.716,73.4281,0.853220
27.747,73.4343,0.853220
27.778,73.4406,0.853220
27.809,73.4467,0.853220
27.840,73.4529,0.853220
27.871,73.4591,0.853220
27.902,73.4653,0.853220
27.934,73.4716,0.853220
27.964,73.4778,0.768397
27.996,73.4840,0.768397
28.027,73.4905,0.768397
28.059,73.4967,0.768397
28.091,73.5031,0.768397
28.122,73.5093,0.768397
28.152,73.5155,0.768397
28.183,73.5216,0.768397
28.216,73.5280,0.687456
28.246,73.5340,0.687456
28.277,73.5402,0.687456
28.308,73.5463,0.687456
28.338,73.5525,0.687456
28.369,73.5587,0.687456
28.400,73.5647,0.687456
28.431,73.5710,0.610463
28.462,73.5773,0.610463
28.493,73.5835,0.610463
28.524,73.5898,0.610463
28.555,73.5959,0.610463
28.587,73.6023,0.610463
28.618,73.6084,0.610463
28.648,73.6145,0.610463
28.680,73.6208,0.610463
28.712,73.6273,0.537182
28.742,73.6333,0.537182
28.773,73.6395,0.537182
28.803,73.6455,0.537182
28.835,73.6521,0.537182
28.866,73.6580,0.537182
28.897,73.6643,0.537182
28.928,73.6704,0.537182
28.959,73.6766,0.467424
28.990,73.6828,0.467424
29.021,73.6891,0.467424
29.052,73.6953,0.467424
29.084,73.7015,0.467424
29.114,73.7077,0.467424
29.145,73.7138,0.467424
29.176,73.7204,0.467424
29.207,73.7264,0.401417
29.238,73.7324,0.401417
29.269,73.7386,0.401417
29.299,73.7447,0.401417
29.331,73.7510,0.401417
29.362,73.7572,0.401417
29.393,73.7633,0.401417
29.424,73.7696,0.401417
29.456,73.7760,0.401417
29.487,73.7823,0.339074
29.518,73.7886,0.339074
29.548,73.7944,0.339074
29.579,73.8006,0.339074
29.609,73.8067,0.339074
29.641,73.8130,0.339074
29.672,73.8192,0.339074
29.703,73.8254,0.339074
29.734,73.8319,0.339074
29.765,73.8378,0.280830
29.796,73.8442,0.280830
29.827,73.8503,0.280830
29.858,73.8565,0.280830
29.889,73.8628,0.280830
29.921,73.8689,0.280830
29.952,73.8752,0.280830
29.983,73.8814,0.226382
30.013,73.8876,0.226382
30.045,73.8939,0.226382
30.076,73.9002,0.226382
30.108,73.9063,0.226382
30.139,73.9126,0.226382
30.169,73.9187,0.226382
30.201,73.9249,0.226382
30.232,73.9312,0.175628
30.263,73.9373,0.175628
30.294,73.9435,0.175628
30.325,73.9498,0.175628
30.355,73.9559,0.175628
30.386,73.9620,0.175628
30.417,73.9682,0.175628
30.448,73.9745,0.175628
30.479,73.9806,0.129038
30.511,73.9869,0.129038
30.543,73.9933,0.129038
30.573,73.9996,0.129038
30.605,74.0058,0.129038
30.635,74.0120,0.129038
30.666,74.0181,0.129038
30.698,74.0245,0.129038
30.728,74.0305,0.086490
30.759,74.0367,0.086490
30.790,74.0429,0.086490
30.821,74.0491,0.086490
30.852,74.0553,0.086490
30.883,74.0615,0.086490
30.914,74.0675,0.086490
30.945,74.0739,0.086490
30.976,74.0801,0.047739
31.008,74.0864,0.047739
31.038,74.0925,0.047739
31.069,74.0988,0.047739
31.101,74.1050,0.047739
31.132,74.1112,0.047739
31.164,74.1176,0.047739
31.195,74.1238,0.047739
31.226,74.1300,0.012729
31.257,74.1362,0.012729
31.289,74.1427,0.012729
31.321,74.1491,0.012729
31.352,74.1551,0.012729
31.382,74.1613,0.012729
31.414,74.1675,0.012729
31.445,74.1738,0.012729
31.475,74.1800,-0.018438
31.506,74.1860,-0.018438
31.537,74.1923,-0.018438
31.568,74.1984,-0.018438
31.600,74.2048,-0.018438
31.630,74.2109,-0.018438
31.662,74.2172,-0.018438
31.693,74.2233,-0.018438
31.725,74.2299,-0.045977
31.756,74.2361,-0.045977
31.787,74.2423,-0.045977
31.817,74.2484,-0.045977
31.849,74.2546,-0.045977
31.879,74.2606,-0.045977
31.911,74.2670,-0.045977
31.942,74.2733,-0.045977
31.973,74.2794,-0.069842
32.004,74.2856,-0.069842
32.035,74.2919,-0.069842
32.067,74.2981,-0.069842
32.098,74.3044,-0.069842
32.130,74.3108,-0.069842
32.161,74.3170,-0.069842
32.193,74.3233,-0.069842
32.224,74.3296,-0.089948
32.256,74.3359,-0.089948
32.287,74.3423,-0.089948
32.319,74.3487,-0.089948
32.350,74.3549,-0.089948
32.381,74.3612,-0.089948
32.412,74.3673,-0.089948
32.443,74.3735,-0.089948
32.473,74.3795,-0.106634
32.505,74.3858,-0.106634
32.536,74.3921,-0.106634
32.568,74.3986,-0.106634
32.599,74.4046,-0.106634
32.629,74.4108,-0.106634
32.661,74.4169,-0.106634
32.692,74.4234,-0.106634
32.723,74.4294,-0.120135
32.755,74.4359,-0.120135
32.785,74.4418,-0.120135
32.817,74.4483,-0.120135
32.848,74.4542,-0.120135
32.878,74.4604,-0.120135
32.909,74.4665,-0.120135
32.940,74.4727,-0.120135
32.971,74.4789,-0.130857
33.002,74.4853,-0.130857
33.033,74.4916,-0.130857
33.064,74.4977,-0.130857
33.095,74.5037,-0.130857
33.126,74.5099,-0.130857
33.157,74.5161,-0.130857
33.187,74.5222,-0.130857
33.219,74.5285,-0.139270
33.250,74.5347,-0.139270
33.282,74.5412,-0.139270
33.312,74.5473,-0.139270
33.344,74.5536,-0.139270
33.378,74.5604,-0.139270
33.408,74.5664,-0.139270
33.438,74.5724,-0.139270
33.469,74.5786,-0.145780
33.499,74.5847,-0.145780
33.530,74.5909,-0.145780
33.562,74.5971,-0.145780
33.592,74.6032,-0.145780
33.623,74.6094,-0.145780
33.655,74.6158,-0.145780
33.686,74.6219,-0.150906
33.717,74.6284,-0.150906
33.748,74.6343,-0.150906
33.779,74.6407,-0.150906
33.810,74.6469,-0.150906
33.842,74.6533,-0.150906
33.873,74.6593,-0.150906
33.904,74.6656,-0.150906
33.935,74.6718,-0.155174
33.967,74.6782,-0.155174
33.998,74.6843,-0.155174
34.030,74.6908,-0.155174
34.061,74.6970,-0.155174
34.091,74.7030,-0.155174
34.122,74.7094,-0.155174
34.152,74.7153,-0.155174
34.183,74.7214,-0.155174
34.215,74.7277,-0.159055
34.246,74.7339,-0.159055
34.277,74.7402,-0.159055
34.309,74.7467,-0.159055
34.339,74.7526,-0.159055
34.370,74.7590,-0.159055
34.401,74.7650,-0.159055
34.433,74.7714,-0.159055
34.462,74.7773,-0.159055
34.494,74.7835,-0.163097
34.526,74.7901,-0.163097
34.557,74.7961,-0.163097
34.588,74.8025,-0.163097
34.619,74.8085,-0.163097
34.650,74.8149,-0.163097
34.682,74.8212,-0.163097
34.714,74.8277,-0.167846
34.745,74.8338,-0.167846
34.777,74.8402,-0.167846
34.807,74.8463,-0.167846
34.838,74.8524,-0.167846
34.868,74.8583,-0.167846
34.899,74.8646,-0.167846
34.931,74.8710,-0.167846
34.962,74.8773,-0.167846
34.994,74.8835,-0.173565
35.024,74.8896,-0.173565
35.056,74.8960,-0.173565
35.087,74.9022,-0.173565
35.118,74.9084,-0.173565
35.149,74.9146,-0.173565
35.180,74.9203,-0.173565
35.212,74.9255,-0.180565
35.244,74.9299,-0.180565
35.275,74.9335,-0.180565
35.305,74.9361,-0.180565
35.336,74.9383,-0.180565
35.367,74.9395,-0.180565
35.398,74.9403,-0.180565
35.430,74.9403,-0.180565
35.461,74.9403,-0.186086
35.493,74.9403,-0.186086
35.523,74.9403,-0.186086
35.554,74.9403,-0.186086
35.585,74.9403,-0.186086
35.616,74.9403,-0.186086
35.647,74.9403,-0.186086
35.679,74.9403,-0.186086
35.709,74.9403,-0.186086
35.740,74.9403,-0.182713
35.771,74.9403,-0.182713
35.803,74.9403,-0.182713
35.834,74.9403,-0.182713
35.865,74.9403,-0.182713
35.895,74.9403,-0.182713
35.927,74.9403,-0.182713
35.959,74.9403,-0.173103
35.989,74.9403,-0.173103
36.020,74.9403,-0.173103
36.051,74.9403,-0.173103
36.082,74.9403,-0.173103
36.113,74.9403,-0.173103
36.145,74.9403,-0.173103
36.176,74.9403,-0.173103
36.207,74.9403,-0.164492
36.238,74.9403,-0.164492
36.269,74.9403,-0.164492
36.300,74.9403,-0.164492
36.331,74.9403,-0.164492
36.362,74.9403,-0.164492
36.392,74.9403,-0.164492
36.423,74.9403,-0.164492
36.454,74.9403,-0.156841
36.485,74.9403,-0.156841
36.515,74.9403,-0.156841
36.548,74.9403,-0.156841
36.580,74.9403,-0.156841
36.610,74.9403,-0.156841
36.642,74.9403,-0.156841
36.673,74.9403,-0.156841
36.705,74.9403,-0.149964
36.737,74.9403,-0.149964
36.768,74.9403,-0.149964
36.798,74.9403,-0.149964
36.829,74.9403,-0.149964
36.860,74.9403,-0.149964
36.891,74.9403,-0.149964
36.923,74.9403,-0.143745
36.953,74.9403,-0.143745
36.984,74.9403,-0.143745
37.015,74.9403,-0.143745
37.046,74.9403,-0.143745
37.078,74.9403,-0.143745
37.108,74.9403,-0.143745
37.139,74.9403,-0.143745
37.170,74.9403,-0.143745
37.202,74.9403,-0.138074
37.234,74.9403,-0.138074
37.265,74.9403,-0.138074
37.296,74.9403,-0.138074
37.327,74.9403,-0.138074
37.358,74.9403,-0.138074
37.389,74.9403,-0.138074
37.420,74.9403,-0.138074
37.452,74.9403,-0.138074
37.483,74.9403,-0.132976
37.514,74.9403,-0.132976
37.545,74.9403,-0.132976
37.576,74.9403,-0.132976
37.607,74.9403,-0.132976
37.638,74.9403,-0.132976
37.669,74.9403,-0.132976
37.700,74.9403,-0.132976
37.731,74.9403,-0.128322
37.762,74.9403,-0.128322
37.793,74.9403,-0.128322
37.825,74.9403,-0.128322
37.856,74.9403,-0.128322
37.887,74.9403,-0.128322
37.918,74.9403,-0.128322
37.950,74.9403,-0.124035
37.980,74.9403,-0.124035
38.011,74.9403,-0.124035
38.042,74.9403,-0.124035
38.073,74.9403,-0.124035
38.105,74.9403,-0.124035
38.135,74.9403,-0.124035
38.167,74.9403,-0.124035
38.198,74.9403,-0.120050
38.228,74.9403,-0.120050
38.259,74.9403,-0.120050
38.290,74.9403,-0.120050
38.320,74.9403,-0.120050
38.352,74.9403,-0.120050
38.384,74.9403,-0.120050
38.415,74.9403,-0.120050
38.446,74.9403,-0.120050
38.477,74.9403,-0.120050
38.509,74.9403,-0.116272
38.539,74.9403,-0.116272
38.570,74.9403,-0.116272
38.602,74.9403,-0.116272
38.632,74.9403,-0.116272
38.663,74.9403,-0.116272
38.694,74.9403,-0.116272
38.725,74.9403,-0.112729
38.756,74.9403,-0.112729
38.787,74.9403,-0.112729
38.818,74.9403,-0.112729
38.850,74.9403,-0.112729
38.881,74.9403,-0.112729
38.912,74.9403,-0.112729
38.943,74.9403,-0.112729
38.974,74.9403,-0.109385
39.005,74.9403,-0.109385
39.036,74.9403,-0.109385
39.067,74.9403,-0.109385
39.098,74.9403,-0.109385
39.128,74.9403,-0.109385
39.159,74.9403,-0.109385
39.190,74.9403,-0.109385
39.221,74.9403,-0.106200
39.251,74.9403,-0.106200
39.282,74.9403,-0.106200
39.314,74.9403,-0.106200
39.345,74.9403,-0.106200
39.376,74.9403,-0.106200
39.407,74.9403,-0.106200
39.438,74.9403,-0.106200
39.468,74.9403,-0.103138
39.499,74.9403,-0.103138
39.530,74.9403,-0.103138
39.561,74.9403,-0.103138
39.592,74.9403,-0.103138
39.623,74.9403,-0.103138
39.653,74.9403,-0.103138
39.684,74.9403,-0.103138
39.715,74.9403,-0.100236
39.746,74.9403,-0.100236
39.777,74.9403,-0.100236
39.808,74.9403,-0.100236
39.839,74.9403,-0.100236
39.871,74.9403,-0.100236
39.901,74.9403,-0.100236
39.933,74.9403,-0.100236
39.963,74.9403,-0.097495
39.994,74.9403,-0.097495
40.025,74.9403,-0.097495
40.056,74.9400,-0.097495
40.088,74.9391,-0.097495
40.118,74.9374,-0.097495
40.149,74.9351,-0.097495
40.180,74.9320,-0.097495
40.211,74.9281,-0.094800
40.242,74.9236,-0.094800
40.272,74.9183,-0.094800
40.304,74.9120,-0.094800
40.335,74.9059,-0.094800
40.366,74.8997,-0.094800
40.397,74.8935,-0.094800
40.428,74.8875,-0.094800
40.459,74.8813,-0.089109
40.490,74.8752,-0.089109
40.521,74.8687,-0.089109
40.552,74.8627,-0.089109
40.584,74.8563,-0.089109
40.614,74.8503,-0.089109
40.646,74.8439,-0.089109
40.677,74.8376,-0.089109
40.709,74.8313,-0.079217
40.738,74.8252,-0.079217
40.770,74.8191,-0.079217
40.801,74.8129,-0.079217
40.832,74.8066,-0.079217
40.863,74.8005,-0.079217
40.894,74.7943,-0.079217
40.925,74.7880,-0.079217
40.956,74.7818,-0.068391
40.987,74.7755,-0.068391
41.018,74.7695,-0.068391
41.049,74.7633,-0.068391
41.080,74.7571,-0.068391
41.111,74.7509,-0.068391
41.142,74.7445,-0.068391
41.172,74.7386,-0.068391
41.203,74.7324,-0.068391
41.234,74.7264,-0.068391
41.264,74.7200,-0.057161
41.297,74.7137,-0.057161
41.327,74.7076,-0.057161
41.357,74.7017,-0.057161
41.389,74.6953,-0.057161
41.420,74.6891,-0.057161
41.450,74.6829,-0.057161
41.481,74.6769,-0.043556
41.512,74.6707,-0.043556
41.544,74.6641,-0.043556
41.576,74.6579,-0.043556
41.606,74.6519,-0.043556
41.636,74.6459,-0.043556
41.668,74.6395,-0.043556
41.699,74.6331,-0.043556
41.730,74.6270,-0.026032
41.762,74.6207,-0.026032
41.793,74.6146,-0.026032
41.824,74.6083,-0.026032
41.855,74.6021,-0.026032
41.886,74.5959,-0.026032
41.917,74.5897,-0.026032
41.948,74.5835,-0.026032
41.978,74.5774,-0.003392
42.010,74.5711,-0.003392
42.041,74.5649,-0.003392
42.072,74.5587,-0.003392
42.104,74.5523,-0.003392
42.134,74.5463,-0.003392
42.165,74.5399,-0.003392
42.196,74.5339,-0.003392
42.227,74.5278,0.025288
42.258,74.5215,0.025288
42.290,74.5151,0.025288
42.320,74.5089,0.025288
42.351,74.5027,0.025288
42.382,74.4965,0.025288
42.413,74.4905,0.025288
42.444,74.4841,0.025288
42.477,74.4777,0.060440
42.506,74.4717,0.060440
42.538,74.4655,0.060440
42.567,74.4595,0.060440
42.599,74.4533,0.060440
42.630,74.4468,0.060440
42.661,74.4409,0.060440
42.692,74.4345,0.102092
42.723,74.4284,0.102092
42.754,74.4222,0.102092
42.786,74.4158,0.102092
42.817,74.4097,0.102092
42.848,74.4035,0.102092
42.879,74.3973,0.102092
42.910,74.3911,0.102092
42.941,74.3848,0.150180
42.971,74.3788,0.150180
43.003,74.3726,0.150180
43.033,74.3664,0.150180
43.064,74.3604,0.150180
43.096,74.3539,0.150180
43.127,74.3477,0.150180
43.159,74.3413,0.150180
43.189,74.3352,0.204307
43.220,74.3291,0.204307
43.251,74.3229,0.204307
43.282,74.3166,0.204307
43.313,74.3105,0.204307
43.345,74.3041,0.204307
43.376,74.2980,0.204307
43.406,74.2919,0.204307
43.436,74.2857,0.204307
43.468,74.2795,0.264182
43.499,74.2733,0.264182
43.529,74.2673,0.264182
43.560,74.2611,0.264182
43.591,74.2548,0.264182
43.621,74.2489,0.264182
43.652,74.2427,0.264182
43.683,74.2365,0.329549
43.715,74.2301,0.329549
43.746,74.2241,0.329549
43.776,74.2179,0.329549
43.807,74.2117,0.329549
43.839,74.2053,0.329549
43.869,74.1994,0.329549
43.901,74.1929,0.329549
43.932,74.1867,0.329549
43.963,74.1804,0.329549
43.993,74.1744,0.399768
44.024,74.1681,0.399768
44.055,74.1619,0.399768
44.087,74.1556,0.399768
44.118,74.1495,0.399768
44.149,74.1432,0.399768
44.180,74.1372,0.399768
44.211,74.1307,0.474161
44.241,74.1248,0.474161
44.272,74.1188,0.474161
44.303,74.1124,0.474161
44.334,74.1062,0.474161
44.365,74.0999,0.474161
44.396,74.0938,0.474161
44.427,74.0875,0.474161
44.458,74.0814,0.551851
44.489,74.0752,0.551851
44.520,74.0692,0.551851
44.552,74.0627,0.551851
44.582,74.0566,0.551851
44.613,74.0504,0.551851
44.644,74.0443,0.551851
44.675,74.0379,0.551851
44.706,74.0318,0.632745
44.738,74.0254,0.632745
44.769,74.0193,0.632745
44.800,74.0130,0.632745
44.832,74.0066,0.632745
44.863,74.0003,0.632745
44.894,73.9944,0.632745
44.925,73.9882,0.632745
44.955,73.9821,0.716871
44.987,73.9756,0.716871
45.017,73.9694,0.716871
45.048,73.9635,0.716871
45.078,73.9574,0.716871
45.110,73.9512,0.716871
45.140,73.9451,0.716871
45.171,73.9389,0.716871
45.202,73.9326,0.804162
45.232,73.9267,0.804162
45.264,73.9203,0.804162
45.295,73.9142,0.804162
45.326,73.9079,0.804162
45.356,73.9018,0.804162
45.387,73.8958,0.804162
45.418,73.8896,0.804162
45.449,73.8834,0.804162
45.480,73.8772,0.894524
45.512,73.8707,0.894524
45.543,73.8646,0.894524
45.574,73.8583,0.894524
45.605,73.8519,0.894524
45.636,73.8460,0.894524
45.668,73.8395,0.894524
45.698,73.8335,0.894524
45.729,73.8273,0.987855
45.760,73.8212,0.987855
45.792,73.8148,0.987855
45.821,73.8088,0.987855
45.853,73.8025,0.987855
45.885,73.7961,0.987855
45.915,73.7900,0.987855
45.946,73.7839,1.084040
45.977,73.7778,1.084040
46.008,73.7715,1.084040
46.039,73.7653,1.084040
46.070,73.7590,1.084040
46.101,73.7529,1.084040
46.132,73.7464,1.084040
46.164,73.7404,1.084040
46.195,73.7340,1.182269
46.226,73.7280,1.182269
46.256,73.7216,1.182269
46.287,73.7157,1.182269
46.318,73.7094,1.182269
46.350,73.7032,1.182269
46.381,73.6967,1.182269
46.413,73.6906,1.182269
46.444,73.6841,1.282506
46.475,73.6781,1.282506
46.505,73.6722,1.282506
46.536,73.6658,1.282506
46.568,73.6596,1.282506
46.600,73.6532,1.282506
46.630,73.6471,1.282506
46.662,73.6408,1.282506
46.692,73.6347,1.384966
46.724,73.6282,1.384966
46.755,73.6222,1.384966
46.785,73.6161,1.384966
46.817,73.6098,1.384966
46.848,73.6034,1.384966
46.879,73.5971,1.384966
46.910,73.5910,1.384966
46.942,73.5847,1.489432
46.973,73.5784,1.489432
47.005,73.5721,1.489432
47.035,73.5661,1.489432
47.066,73.5598,1.489432
47.096,73.5538,1.489432
47.128,73.5474,1.489432
47.159,73.5412,1.489432
47.190,73.5351,1.595538
47.220,73.5289,1.595538
47.251,73.5227,1.595538
47.282,73.5166,1.595538
47.314,73.5103,1.595538
47.345,73.5040,1.595538
47.375,73.4980,1.595538
47.406,73.4918,1.595538
47.436,73.4857,1.595538
47.468,73.4794,1.702596
47.498,73.4735,1.702596
47.529,73.4673,1.702596
47.561,73.4611,1.702596
47.591,73.4550,1.702596
47.621,73.4488,1.702596
47.652,73.4427,1.702596
47.684,73.4363,1.702596
47.714,73.4303,1.811133
47.746,73.4240,1.811133
47.776,73.4179,1.811133
47.808,73.4116,1.811133
47.838,73.4055,1.811133
47.870,73.3992,1.811133
47.901,73.3930,1.811133
47.933,73.3867,1.811133
47.963,73.3806,1.920772
47.994,73.3744,1.920772
48.025,73.3682,1.920772
48.056,73.3618,1.920772
48.088,73.3556,1.920772
48.120,73.3491,1.920772
48.151,73.3430,1.920772
48.182,73.3367,1.920772
48.213,73.3303,2.031212
48.244,73.3243,2.031212
48.275,73.3181,2.031212
48.306,73.3119,2.031212
48.337,73.3057,2.031212
48.369,73.2993,2.031212
48.399,73.2933,2.031212
48.431,73.2868,2.031212
48.462,73.2807,2.142349
48.493,73.2744,2.142349
48.525,73.2682,2.142349
48.555,73.2619,2.142349
48.586,73.2559,2.142349
48.617,73.2496,2.142349
48.648,73.2434,2.142349
48.680,73.2370,2.142349
48.711,73.2310,2.254315
48.741,73.2248,2.254315
48.773,73.2186,2.254315
48.804,73.2123,2.254315
48.835,73.2061,2.254315
48.866,73.2000,2.254315
48.897,73.1937,2.254315
48.928,73.1875,2.254315
48.959,73.1814,2.368392
48.990,73.1752,2.368392
49.021,73.1690,2.368392
49.052,73.1627,2.368392
49.084,73.1563,2.368392
49.114,73.1501,2.368392
49.145,73.1441,2.368392
49.176,73.1379,2.368392
49.208,73.1317,2.484137
49.240,73.1252,2.484137
49.271,73.1190,2.484137
49.302,73.1127,2.484137
49.334,73.1065,2.484137
49.364,73.1003,2.484137
49.395,73.0943,2.484137
49.425,73.0881,2.484137
49.456,73.0821,2.601756
49.486,73.0758,2.601756
49.518,73.0694,2.601756
49.549,73.0633,2.601756
49.581,73.0569,2.601756
49.612,73.0508,2.601756
49.642,73.0446,2.601756
49.673,73.0385,2.601756
49.704,73.0322,2.720675
49.736,73.0260,2.720675
49.767,73.0195,2.720675
49.799,73.0133,2.720675
49.830,73.0070,2.720675
49.862,73.0008,2.720675
49.893,72.9945,2.720675
49.924,72.9883,2.720675
49.955,72.9821,2.720675
49.986,72.9759,2.841159
50.018,72.9697,2.841159
50.048,72.9634,2.841159
50.080,72.9573,2.841159
50.110,72.9512,2.841159
50.141,72.9450,2.841159
50.172,72.9388,2.841159
50.202,72.9327,2.964751
50.234,72.9264,2.964751
50.265,72.9201,2.964751
50.297,72.9138,2.964751
50.328,72.9075,2.964751
50.359,72.9013,2.964751
50.390,72.8953,2.964751
50.421,72.8889,2.964751
50.452,72.8827,3.090285
50.484,72.8763,3.090285
50.515,72.8702,3.090285
50.546,72.8640,3.090285
50.578,72.8574,3.090285
50.608,72.8515,3.090285
50.639,72.8453,3.090285
50.670,72.8391,3.090285
50.701,72.8329,3.216063
50.732,72.8268,3.216063
50.763,72.8205,3.216063
50.794,72.8143,3.216063
50.825,72.8082,3.216063
50.855,72.8021,3.216063
50.887,72.7958,3.216063
50.918,72.7894,3.216063
50.949,72.7834,3.341389
50.980,72.7772,3.341389
51.011,72.7710,3.341389
51.041,72.7648,3.341389
51.072,72.7586,3.341389
51.103,72.7526,3.341389
51.134,72.7464,3.341389
51.164,72.7404,3.341389
51.195,72.7342,3.468157
51.226,72.7278,3.468157
51.258,72.7215,3.468157
51.290,72.7152,3.468157
51.320,72.7091,3.468157
51.351,72.7028,3.468157
51.382,72.6966,3.468157
51.413,72.6906,3.468157
51.444,72.6844,3.597204
51.475,72.6781,3.597204
51.506,72.6719,3.597204
51.538,72.6655,3.597204
51.569,72.6594,3.597204
51.600,72.6531,3.597204
51.630,72.6470,3.597204
51.662,72.6407,3.597204
51.693,72.6345,3.597204
51.725,72.6281,3.728127
51.756,72.6219,3.728127
51.787,72.6157,3.728127
51.817,72.6096,3.728127
51.849,72.6033,3.728127
51.880,72.5970,3.728127
51.912,72.5905,3.728127
51.944,72.5842,3.728127
51.976,72.5779,3.861245
52.007,72.5718,3.861245
52.038,72.5656,3.861245
52.069,72.5593,3.861245
52.100,72.5531,3.861245
52.131,72.5469,3.861245
52.161,72.5407,3.861245
52.192,72.5346,3.861245
52.224,72.5283,3.996011
52.254,72.5223,3.996011
52.285,72.5161,3.996011
52.316,72.5101,3.996011
52.346,72.5040,3.996011
52.378,72.4975,3.996011
52.410,72.4912,3.996011
52.441,72.4849,3.996011
52.472,72.4788,4.132210
52.502,72.4726,4.132210
52.533,72.4664,4.132210
52.565,72.4603,4.132210
52.596,72.4540,4.132210
52.628,72.4477,4.132210
52.657,72.4417,4.132210
52.688,72.4355,4.132210
52.719,72.4294,4.132210
52.750,72.4230,4.269181
52.782,72.4168,4.269181
52.813,72.4105,4.269181
52.844,72.4045,4.269181
52.875,72.3981,4.269181
52.906,72.3920,4.269181
52.937,72.3858,4.269181
52.969,72.3795,4.407311
53.000,72.3730,4.407311
53.030,72.3672,4.407311
53.062,72.3606,4.407311
53.093,72.3547,4.407311
53.123,72.3486,4.407311
53.154,72.3424,4.407311
53.185,72.3362,4.407311
53.217,72.3297,4.546883
53.248,72.3235,4.546883
53.279,72.3174,4.546883
53.311,72.3110,4.546883
53.341,72.3050,4.546883
53.372,72.2986,4.546883
53.403,72.2926,4.546883
53.434,72.2862,4.546883
53.465,72.2802,4.687670
53.496,72.2738,4.687670
53.526,72.2680,4.687670
53.557,72.2616,4.687670
53.589,72.2554,4.687670
53.619,72.2494,4.687670
53.650,72.2433,4.687670
53.680,72.2372,4.687670
53.711,72.2310,4.829823
53.743,72.2247,4.829823
53.774,72.2184,4.829823
53.805,72.2122,4.829823
53.836,72.2059,4.829823
53.867,72.1997,4.829823
53.898,72.1935,4.829823
53.929,72.1875,4.829823
53.960,72.1811,4.972240
53.991,72.1749,4.972240
54.021,72.1689,4.972240
54.052,72.1628,4.972240
54.083,72.1566,4.972240
54.114,72.1505,4.972240
54.144,72.1443,4.972240
54.176,72.1379,4.972240
54.207,72.1319,5.115241
54.238,72.1255,5.115241
54.270,72.1193,5.115241
54.300,72.1131,5.115241
54.331,72.1069,5.115241
54.363,72.1005,5.115241
54.394,72.0940,5.115241
54.425,72.0881,5.115241
54.456,72.0819,5.257818
54.487,72.0758,5.257818
54.517,72.0696,5.257818
54.548,72.0633,5.257818
54.579,72.0572,5.257818
54.611,72.0509,5.257818
54.642,72.0446,5.257818
54.674,72.0384,5.257818
54.705,72.0321,5.397907
54.738,72.0257,5.397907
54.768,72.0197,5.397907
54.798,72.0136,5.397907
54.829,72.0075,5.397907
54.860,72.0009,5.397907
54.892,71.9949,5.397907
54.922,71.9888,5.397907
54.954,71.9825,5.535397
54.985,71.9763,5.535397
55.015,71.9702,5.535397
55.046,71.9640,5.535397
55.076,71.9579,5.535397
55.108,71.9515,5.535397
55.139,71.9454,5.535397
55.170,71.9393,5.535397
55.201,71.9330,5.660384
55.232,71.9268,5.660384
55.263,71.9206,5.660384
55.293,71.9146,5.660384
55.325,71.9089,5.660384
55.356,71.9041,5.660384
55.387,71.9000,5.660384
55.417,71.8966,5.660384
55.448,71.8940,5.660384
55.479,71.8920,5.660384
55.510,71.8908,2.869320
55.542,71.8903,2.869320
55.572,71.8903,2.869320
55.603,71.8903,2.869320
55.634,71.8903,2.869320
55.665,71.8903,2.869320
55.696,71.8903,2.869320
55.728,71.8903,0.020652
55.758,71.8903,0.020652
55.790,71.8903,0.020652
55.822,71.8903,0.020652
55.853,71.8903,0.020652
55.883,71.8903,0.020652
55.914,71.8903,0.020652
55.945,71.8903,0.020652
55.976,71.8903,0.019870
56.007,71.8906,0.019870
56.038,71.8915,0.019870
56.068,71.8932,0.019870
56.099,71.8956,0.019870
56.130,71.8987,0.019870
56.161,71.9025,0.019870
56.192,71.9072,0.019870
56.222,71.9123,0.019512
56.253,71.9183,0.019512
56.284,71.9245,0.019512
56.316,71.9310,0.019512
56.348,71.9373,0.019512
56.380,71.9439,0.019512
56.410,71.9497,0.019512
56.441,71.9560,0.019116
56.475,71.9626,0.019116
56.504,71.9686,0.019116
56.535,71.9749,0.019116
56.567,71.9812,0.019116
56.599,71.9874,0.019116
56.629,71.9936,0.019116
56.660,71.9998,0.019116
56.692,72.0060,0.018777
56.723,72.0122,0.018777
56.752,72.0182,0.018777
56.784,72.0245,0.018777
56.814,72.0306,0.018777
56.846,72.0369,0.018777
56.877,72.0431,0.018777
56.908,72.0496,0.018777
56.940,72.0556,0.018579
56.971,72.0621,0.018579
57.002,72.0682,0.018579
57.033,72.0744,0.018579
57.065,72.0806,0.018579
57.096,72.0870,0.018579
57.128,72.0932,0.018579
57.158,72.0995,0.018579
57.189,72.1054,0.018363
57.220,72.1117,0.018363
57.250,72.1178,0.018363
57.282,72.1241,0.018363
57.313,72.1303,0.018363
57.344,72.1366,0.018363
57.375,72.1427,0.018363
57.407,72.1490,0.018363
57.438,72.1553,0.018146
57.469,72.1614,0.018146
57.500,72.1676,0.018146
57.531,72.1740,0.018146
57.561,72.1802,0.018146
57.593,72.1864,0.018146
57.624,72.1924,0.018146
57.655,72.1988,0.018146
57.687,72.2051,0.018061
57.717,72.2113,0.018061
57.748,72.2172,0.018061
57.779,72.2234,0.018061
57.811,72.2298,0.018061
57.841,72.2360,0.018061
57.872,72.2420,0.018061
57.904,72.2484,0.018061
57.935,72.2547,0.017995
57.966,72.2609,0.017995
57.997,72.2671,0.017995
58.029,72.2734,0.017995
58.060,72.2796,0.017995
58.092,72.2862,0.017995
58.124,72.2925,0.017995
58.155,72.2986,0.017995
58.186,72.3049,0.017995
58.218,72.3114,0.017882
58.249,72.3176,0.017882
58.280,72.3236,0.017882
58.313,72.3302,0.017882
58.342,72.3362,0.017882
58.373,72.3423,0.017882
58.404,72.3486,0.017882
58.435,72.3547,0.017882
58.466,72.3610,0.017750
58.499,72.3674,0.017750
58.528,72.3734,0.017750
58.559,72.3795,0.017750
58.590,72.3859,0.017750
58.621,72.3920,0.017750
58.651,72.3981,0.017750
58.681,72.4040,0.017750
58.712,72.4101,0.017665
58.743,72.4162,0.017665
58.774,72.4225,0.017665
58.805,72.4287,0.017665
58.835,72.4348,0.017665
58.866,72.4410,0.017665
58.897,72.4472,0.017665
58.927,72.4531,0.017665
58.958,72.4593,0.017665
58.990,72.4657,0.017600
59.020,72.4717,0.017600
59.052,72.4781,0.017600
59.084,72.4845,0.017600
59.115,72.4907,0.017600
59.146,72.4969,0.017600
59.177,72.5030,0.017600
59.207,72.5093,0.017515
59.240,72.5158,0.017515
59.270,72.5217,0.017515
59.301,72.5278,0.017515
59.332,72.5340,0.017515
59.363,72.5404,0.017515
59.394,72.5465,0.017515
59.425,72.5530,0.017515
59.457,72.5590,0.017515
59.488,72.5654,0.017421
59.519,72.5716,0.017421
59.550,72.5779,0.017421
59.582,72.5840,0.017421
59.613,72.5903,0.017421
59.644,72.5965,0.017421
59.676,72.6029,0.017421
59.707,72.6091,0.017421
59.739,72.6156,0.017373
59.770,72.6218,0.017373
59.802,72.6281,0.017373
59.834,72.6345,0.017373
59.865,72.6407,0.017373
59.896,72.6469,0.017373
59.927,72.6529,0.017373
59.957,72.6590,0.017373
59.988,72.6653,0.017317
60.020,72.6715,0.017317
60.051,72.6779,0.017317
60.082,72.6842,0.017317
60.114,72.6904,0.017317
60.144,72.6966,0.017317
60.175,72.7025,0.017317
60.206,72.7090,0.017185
60.237,72.7151,0.017185
60.268,72.7214,0.017185
60.299,72.7277,0.017185
60.331,72.7338,0.017185
60.363,72.7402,0.017185
60.394,72.7464,0.017185
60.425,72.7528,0.017185
60.456,72.7588,0.017128
60.486,72.7650,0.017128
60.518,72.7712,0.017128
60.549,72.7774,0.017128
60.580,72.7837,0.017128
60.611,72.7900,0.017128
60.643,72.7962,0.017128
60.673,72.8025,0.017128
60.705,72.8086,0.017119
60.736,72.8149,0.017119
60.766,72.8210,0.017119
60.797,72.8273,0.017119
60.829,72.8336,0.017119
60.860,72.8398,0.017119
60.891,72.8459,0.017119
60.922,72.8520,0.017053
60.953,72.8582,0.017053
60.983,72.8643,0.017053
61.014,72.8705,0.017053
61.044,72.8765,0.017053
61.076,72.8829,0.017053
61.107,72.8891,0.017053
61.137,72.8951,0.017053
61.168,72.9013,0.017053
61.200,72.9078,0.016968
61.231,72.9141,0.016968
61.262,72.9202,0.016968
61.294,72.9265,0.016968
61.325,72.9327,0.016968
61.357,72.9389,0.016968
61.387,72.9453,0.016968
61.418,72.9513,0.016968
61.448,72.9573,0.016968
61.480,72.9637,0.016912
61.510,72.9697,0.016912
61.541,72.9759,0.016912
61.572,72.9821,0.016912
61.603,72.9883,0.016912
61.635,72.9946,0.016912
61.665,73.0007,0.016912
61.697,73.0070,0.016912
61.728,73.0132,0.016818
61.759,73.0195,0.016818
61.791,73.0259,0.016818
61.821,73.0319,0.016818
61.852,73.0380,0.016818
61.882,73.0442,0.016818
61.914,73.0503,0.016818
61.945,73.0567,0.016818
61.976,73.0628,0.016657
62.007,73.0692,0.016657
62.038,73.0752,0.016657
62.069,73.0816,0.016657
62.100,73.0878,0.016657
62.130,73.0940,0.016657
62.161,73.0999,0.016657
62.193,73.1064,0.016648
62.225,73.1127,0.016648
62.255,73.1189,0.016648
62.287,73.1251,0.016648
62.318,73.1313,0.016648
62.349,73.1375,0.016648
62.380,73.1436,0.016648
62.411,73.1500,0.016648
62.442,73.1560,0.016573
62.473,73.1623,0.016573
62.504,73.1685,0.016573
62.536,73.1748,0.016573
62.567,73.1811,0.016573
62.597,73.1870,0.016573
62.627,73.1932,0.016573
62.657,73.1993,0.016573
62.688,73.2053,0.016573
62.719,73.2115,0.016573
62.750,73.2177,0.016403
62.781,73.2241,0.016403
62.813,73.2305,0.016403
62.844,73.2365,0.016403
62.875,73.2427,0.016403
62.906,73.2487,0.016403
62.936,73.2549,0.016403
62.967,73.2611,0.016299
62.998,73.2672,0.016299
63.029,73.2737,0.016299
63.061,73.2799,0.016299
63.091,73.2859,0.016299
63.121,73.2919,0.016299
63.152,73.2981,0.016299
63.184,73.3043,0.016299
63.214,73.3106,0.016186
63.245,73.3167,0.016186
63.275,73.3228,0.016186
63.306,73.3290,0.016186
63.337,73.3349,0.016186
63.368,73.3414,0.016186
63.399,73.3475,0.016186
63.430,73.3535,0.016186
63.461,73.3597,0.016102
63.492,73.3659,0.016102
63.523,73.3723,0.016102
63.554,73.3786,0.016102
63.584,73.3845,0.016102
63.615,73.3907,0.016102
63.646,73.3971,0.016102
63.677,73.4031,0.016102
63.709,73.4095,0.016026
63.740,73.4157,0.016026
63.771,73.4219,0.016026
63.802,73.4282,0.016026
63.832,73.4342,0.016026
63.864,73.4406,0.016026
63.895,73.4468,0.016026
63.926,73.4530,0.016026
63.958,73.4592,0.015828
63.989,73.4654,0.015828
64.020,73.4717,0.015828
64.051,73.4779,0.015828
64.083,73.4841,0.015828
64.114,73.4905,0.015828
64.145,73.4967,0.015828
64.176,73.5029,0.015828
64.207,73.5091,0.015593
64.238,73.5153,0.015593
64.269,73.5215,0.015593
64.301,73.5278,0.015593
64.332,73.5340,0.015593
64.364,73.5404,0.015593
64.393,73.5463,0.015593
64.425,73.5526,0.015593
64.457,73.5589,0.015385
64.488,73.5652,0.015385
64.519,73.5713,0.015385
64.551,73.5778,0.015385
64.581,73.5840,0.015385
64.612,73.5901,0.015385
64.643,73.5963,0.015385
64.674,73.6025,0.015385
64.704,73.6085,0.015112
64.735,73.6147,0.015112
64.766,73.6208,0.015112
64.797,73.6271,0.015112
64.828,73.6332,0.015112
64.859,73.6395,0.015112
64.890,73.6457,0.015112
64.921,73.6519,0.015112
64.954,73.6583,0.014848
64.984,73.6645,0.014848
65.014,73.6705,0.014848
65.046,73.6767,0.014848
65.076,73.6828,0.014848
65.107,73.6890,0.014848
65.138,73.6953,0.014848
65.170,73.7015,0.014848
65.201,73.7077,0.014848
65.231,73.7138,0.014481
65.262,73.7200,0.014481
65.293,73.7262,0.014481
65.324,73.7324,0.014481
65.355,73.7385,0.014481
65.387,73.7450,0.014481
65.417,73.7510,0.014481
65.448,73.7572,0.014481
65.479,73.7636,0.014029
65.512,73.7700,0.014029
65.543,73.7762,0.014029
65.574,73.7828,0.014029
65.606,73.7887,0.014029
65.637,73.7951,0.014029
65.668,73.8014,0.014029
65.699,73.8073,0.013529
65.730,73.8137,0.013529
65.761,73.8200,0.013529
65.791,73.8259,0.013529
65.823,73.8324,0.013529
65.854,73.8385,0.013529
65.886,73.8448,0.013529
65.917,73.8511,0.013529
65.947,73.8572,0.013529
65.978,73.8633,0.012804
66.009,73.8696,0.012804
66.041,73.8759,0.012804
66.072,73.8821,0.012804
66.103,73.8881,0.012804
66.134,73.8947,0.012804
66.166,73.9007,0.012804
66.198,73.9073,0.012804
66.229,73.9134,0.011937
66.260,73.9197,0.011937
66.291,73.9258,0.011937
66.322,73.9320,0.011937
66.353,73.9383,0.011937
66.383,73.9444,0.011937
66.414,73.9503,0.011937
66.445,73.9565,0.011937
66.476,73.9627,0.010788
66.507,73.9689,0.010788
66.538,73.9753,0.010788
66.570,73.9816,0.010788
66.602,73.9879,0.010788
66.634,73.9944,0.010788
66.664,74.0004,0.010788
66.696,74.0069,0.010788
66.727,74.0130,0.009346
66.758,74.0193,0.009346
66.789,74.0254,0.009346
66.820,74.0318,0.009346
66.852,74.0379,0.009346
66.883,74.0443,0.009346
66.913,74.0503,0.009346
66.945,74.0566,0.007434
66.976,74.0630,0.007434
67.006,74.0689,0.007434
67.038,74.0751,0.007434
67.068,74.0813,0.007434
67.099,74.0875,0.007434
67.130,74.0937,0.007434
67.161,74.0998,0.007434
67.192,74.1060,0.007434
67.222,74.1121,0.004909
67.253,74.1181,0.004909
67.285,74.1246,0.004909
67.317,74.1309,0.004909
67.348,74.1372,0.004909
67.378,74.1434,0.004909
67.409,74.1494,0.004909
67.440,74.1556,0.004909
67.471,74.1618,0.001479
67.502,74.1681,0.001479
67.533,74.1743,0.001479
67.563,74.1803,0.001479
67.595,74.1867,0.001479
67.626,74.1928,0.001479
67.657,74.1991,0.001479
67.687,74.2052,0.001479
67.719,74.2114,-0.002996
67.750,74.2176,-0.002996
67.781,74.2239,-0.002996
67.812,74.2299,-0.002996
67.843,74.2365,-0.002996
67.874,74.2424,-0.002996
67.905,74.2487,-0.002996
67.936,74.2548,-0.008658
67.967,74.2610,-0.008658
67.999,74.2673,-0.008658
68.030,74.2737,-0.008658
68.061,74.2800,-0.008658
68.093,74.2862,-0.008658
68.124,74.2923,-0.008658
68.155,74.2986,-0.008658
68.187,74.3049,-0.008658
68.218,74.3112,-0.008658
68.249,74.3174,-0.015659
68.281,74.3238,-0.015659
68.314,74.3303,-0.015659
68.343,74.3363,-0.015659
68.375,74.3426,-0.015659
68.406,74.3488,-0.015659
68.437,74.3550,-0.015659
68.468,74.3614,-0.015659
68.500,74.3676,-0.023695
68.531,74.3739,-0.023695
68.560,74.3798,-0.023695
68.591,74.3859,-0.023695
68.623,74.3922,-0.023695
68.653,74.3983,-0.023695
68.685,74.4048,-0.023695
68.716,74.4110,-0.023695
68.748,74.4173,-0.032580
68.778,74.4232,-0.032580
68.810,74.4297,-0.032580
68.840,74.4356,-0.032580
68.871,74.4418,-0.032580
68.902,74.4480,-0.032580
68.933,74.4544,-0.032580
68.964,74.4603,-0.032580
68.995,74.4668,-0.041936
69.027,74.4730,-0.041936
69.058,74.4793,-0.041936
69.089,74.4855,-0.041936
69.120,74.4917,-0.041936
69.151,74.4977,-0.041936
69.183,74.5042,-0.041936
69.215,74.5106,-0.051433
69.246,74.5169,-0.051433
69.277,74.5231,-0.051433
69.309,74.5295,-0.051433
69.340,74.5356,-0.051433
69.371,74.5422,-0.051433
69.402,74.5480,-0.051433
69.433,74.5542,-0.051433
69.464,74.5604,-0.060487
69.495,74.5666,-0.060487
69.526,74.5729,-0.060487
69.557,74.5789,-0.060487
69.588,74.5853,-0.060487
69.618,74.5914,-0.060487
69.649,74.5976,-0.060487
69.680,74.6037,-0.060487
69.711,74.6098,-0.068552
69.742,74.6161,-0.068552
69.774,74.6223,-0.068552
69.804,74.6285,-0.068552
69.836,74.6348,-0.068552
69.867,74.6410,-0.068552
69.898,74.6472,-0.068552
69.929,74.6534,-0.068552
69.960,74.6596,-0.075637
69.992,74.6661,-0.075637
70.023,74.6722,-0.075637
70.054,74.6785,-0.075637
70.085,74.6848,-0.075637
70.116,74.6909,-0.075637
70.147,74.6970,-0.075637
70.179,74.7034,-0.075637
70.209,74.7094,-0.081723
70.239,74.7156,-0.081723
70.271,74.7218,-0.081723
70.302,74.7281,-0.081723
70.334,74.7344,-0.081723
70.365,74.7407,-0.081723
70.396,74.7468,-0.081723
70.428,74.7531,-0.081723
70.459,74.7593,-0.086829
70.490,74.7657,-0.086829
70.522,74.7719,-0.086829
70.553,74.7782,-0.086829
70.584,74.7844,-0.086829
70.615,74.7907,-0.086829
70.646,74.7967,-0.086829
70.677,74.8030,-0.086829
70.708,74.8091,-0.091154
70.739,74.8155,-0.091154
70.770,74.8219,-0.091154
70.802,74.8281,-0.091154
70.833,74.8344,-0.091154
70.864,74.8405,-0.091154
70.896,74.8469,-0.091154
70.927,74.8530,-0.091154
70.958,74.8593,-0.094876
70.989,74.8655,-0.094876
71.020,74.8712,-0.094876
71.052,74.8760,-0.094876
71.083,74.8803,-0.094876
71.114,74.8839,-0.094876
71.145,74.8866,-0.094876
71.177,74.8885,-0.094876
71.208,74.8898,-0.097872
71.239,74.8903,-0.097872
71.269,74.8903,-0.097872
71.300,74.8903,-0.097872
71.331,74.8903,-0.097872
71.361,74.8903,-0.097872
71.393,74.8903,-0.097872
71.423,74.8903,-0.097872
71.455,74.8903,-0.097872
71.486,74.8903,-0.097985
71.517,74.8903,-0.097985
71.549,74.8903,-0.097985
71.579,74.8903,-0.097985
71.612,74.8903,-0.097985
71.643,74.8903,-0.097985
71.674,74.8903,-0.097985
71.706,74.8903,-0.097985
71.737,74.8903,-0.095205
71.768,74.8903,-0.095205
71.800,74.8903,-0.095205
71.830,74.8903,-0.095205
71.861,74.8903,-0.095205
71.892,74.8903,-0.095205
71.924,74.8903,-0.095205
71.954,74.8903,-0.095205
71.985,74.8903,-0.092228
72.016,74.8903,-0.092228
72.047,74.8903,-0.092228
72.078,74.8903,-0.092228
72.110,74.8903,-0.092228
72.141,74.8903,-0.092228
72.171,74.8903,-0.092228
72.203,74.8903,-0.092228
72.234,74.8903,-0.089552
72.265,74.8903,-0.089552
72.296,74.8903,-0.089552
72.326,74.8903,-0.089552
72.358,74.8903,-0.089552
72.389,74.8903,-0.089552
72.420,74.8903,-0.089552
72.451,74.8903,-0.087046
72.482,74.8903,-0.087046
72.513,74.8903,-0.087046
72.544,74.8903,-0.087046
72.575,74.8903,-0.087046
72.606,74.8903,-0.087046
72.637,74.8903,-0.087046
72.668,74.8903,-0.087046
72.699,74.8903,-0.084700
72.730,74.8903,-0.084700
72.761,74.8903,-0.084700
72.793,74.8903,-0.084700
72.822,74.8903,-0.084700
72.854,74.8903,-0.084700
72.885,74.8903,-0.084700
72.916,74.8903,-0.084700
72.946,74.8903,-0.082458
72.977,74.8903,-0.082458
73.008,74.8903,-0.082458
73.039,74.8903,-0.082458
73.070,74.8903,-0.082458
73.101,74.8903,-0.082458
73.133,74.8903,-0.082458
73.164,74.8903,-0.082458
73.196,74.8903,-0.080310
73.227,74.8903,-0.080310
73.258,74.8903,-0.080310
73.290,74.8903,-0.080310
73.320,74.8903,-0.080310
73.352,74.8903,-0.080310
73.383,74.8903,-0.080310
73.414,74.8903,-0.080310
73.446,74.8903,-0.078237
73.477,74.8903,-0.078237
73.507,74.8903,-0.078237
73.538,74.8903,-0.078237
73.569,74.8903,-0.078237
73.600,74.8903,-0.078237
73.632,74.8903,-0.078237
73.661,74.8903,-0.078237
73.694,74.8903,-0.076277
73.724,74.8903,-0.076277
73.755,74.8903,-0.076277
73.787,74.8903,-0.076277
73.818,74.8903,-0.076277
73.848,74.8903,-0.076277
73.879,74.8903,-0.076277
73.909,74.8903,-0.076277
73.941,74.8903,-0.076277
73.971,74.8903,-0.074393
74.003,74.8903,-0.074393
74.034,74.8903,-0.074393
74.064,74.8903,-0.074393
74.095,74.8903,-0.074393
74.127,74.8903,-0.074393
74.158,74.8903,-0.074393
74.189,74.8903,-0.074393
74.219,74.8903,-0.072603
74.251,74.8903,-0.072603
74.282,74.8903,-0.072603
74.314,74.8903,-0.072603
74.344,74.8903,-0.072603
74.375,74.8903,-0.072603
74.407,74.8903,-0.072603
74.438,74.8903,-0.072603
74.469,74.8903,-0.070775
74.500,74.8903,-0.070775
74.532,74.8903,-0.070775
74.563,74.8903,-0.070775
74.595,74.8903,-0.070775
74.626,74.8903,-0.070775
74.657,74.8903,-0.070775
74.688,74.8903,-0.070775
74.719,74.8903,-0.069004
74.750,74.8903,-0.069004
74.781,74.8903,-0.069004
74.813,74.8903,-0.069004
74.844,74.8903,-0.069004
74.876,74.8903,-0.069004
74.907,74.8903,-0.069004
74.939,74.8903,-0.069004
74.970,74.8903,-0.067336
75.001,74.8903,-0.067336
75.031,74.8903,-0.067336
75.064,74.8903,-0.067336
75.094,74.8903,-0.067336
75.125,74.8903,-0.067336
75.155,74.8903,-0.067336
75.186,74.8903,-0.067336
75.217,74.8903,-0.065763
75.248,74.8903,-0.065763
75.279,74.8903,-0.065763
75.310,74.8903,-0.065763
75.341,74.8903,-0.065763
75.372,74.8903,-0.065763
75.404,74.8903,-0.065763
75.436,74.8903,-0.065763
75.467,74.8903,-0.064877
75.498,74.8903,-0.064877
75.529,74.8903,-0.064877
75.561,74.8903,-0.064877
75.592,74.8903,-0.064877
75.623,74.8903,-0.064877
75.652,74.8903,-0.064877
75.683,74.8903,-0.064877
75.714,74.8903,-0.064481
75.745,74.8903,-0.064481
75.776,74.8903,-0.064481
75.807,74.8901,-0.064481
75.839,74.8891,-0.064481
75.868,74.8873,-0.064481
75.900,74.8850,-0.064481
75.931,74.8818,-0.064481
75.962,74.8779,-0.063492
75.993,74.8733,-0.063492
76.023,74.8680,-0.063492
76.055,74.8619,-0.063492
76.086,74.8556,-0.063492
76.117,74.8495,-0.063492
76.148,74.8433,-0.063492
76.179,74.8371,-0.063492
76.210,74.8308,-0.058668
76.241,74.8248,-0.058668
76.272,74.8185,-0.058668
76.303,74.8123,-0.058668
76.333,74.8062,-0.058668
76.364,74.8000,-0.058668
76.395,74.7938,-0.058668
76.427,74.7875,-0.058668
76.457,74.7815,-0.048012
76.488,74.7751,-0.048012
76.518,74.7693,-0.048012
76.549,74.7631,-0.048012
76.580,74.7569,-0.048012
76.611,74.7507,-0.048012
76.642,74.7443,-0.048012
76.673,74.7381,-0.048012
76.704,74.7316,-0.033946
76.735,74.7259,-0.033946
76.766,74.7197,-0.033946
76.798,74.7135,-0.033946
76.828,74.7071,-0.033946
76.859,74.7011,-0.033946
76.890,74.6947,-0.033946
76.922,74.6885,-0.033946
76.953,74.6823,-0.017232
76.984,74.6761,-0.017232
77.015,74.6699,-0.017232
77.046,74.6638,-0.017232
77.076,74.6575,-0.017232
77.107,74.6513,-0.017232
77.138,74.6452,-0.017232
77.169,74.6390,-0.017232
77.200,74.6328,-0.017232
77.231,74.6268,-0.017232
77.262,74.6204,0.003618
77.293,74.6142,0.003618
77.325,74.6079,0.003618
77.356,74.6018,0.003618
77.389,74.5951,0.003618
77.418,74.5893,0.003618
77.449,74.5832,0.003618
77.480,74.5769,0.029612
77.512,74.5705,0.029612
77.543,74.5644,0.029612
77.574,74.5581,0.029612
77.605,74.5519,0.029612
77.636,74.5457,0.029612
77.667,74.5396,0.029612
77.698,74.5334,0.029612
77.730,74.5270,0.061306
77.760,74.5208,0.061306
77.792,74.5146,0.061306
77.822,74.5084,0.061306
77.852,74.5022,0.061306
77.883,74.4962,0.061306
77.914,74.4900,0.061306
77.946,74.4838,0.061306
77.977,74.4774,0.098927
78.007,74.4715,0.098927
78.038,74.4652,0.098927
78.069,74.4590,0.098927
78.100,74.4528,0.098927
78.132,74.4464,0.098927
78.164,74.4402,0.098927
78.194,74.4342,0.098927
78.225,74.4281,0.142342
78.255,74.4218,0.142342
78.286,74.4157,0.142342
78.317,74.4096,0.142342
78.348,74.4034,0.142342
78.379,74.3971,0.142342
78.409,74.3911,0.142342
78.439,74.3850,0.142342
78.471,74.3788,0.191739
78.502,74.3725,0.191739
78.533,74.3663,0.191739
78.566,74.3597,0.191739
78.596,74.3537,0.191739
78.628,74.3473,0.191739
78.658,74.3413,0.191739
78.688,74.3352,0.191739
78.719,74.3289,0.246639
78.751,74.3225,0.246639
78.783,74.3163,0.246639
78.814,74.3101,0.246639
78.844,74.3041,0.246639
78.876,74.2977,0.246639
78.906,74.2918,0.246639
78.938,74.2852,0.246639
78.968,74.2794,0.306466
78.998,74.2732,0.306466
79.029,74.2671,0.306466
79.060,74.2608,0.306466
79.092,74.2546,0.306466
79.123,74.2482,0.306466
79.154,74.2420,0.306466
79.186,74.2356,0.306466
79.217,74.2295,0.371183
79.249,74.2231,0.371183
79.280,74.2169,0.371183
79.311,74.2107,0.371183
79.341,74.2047,0.371183
79.372,74.1985,0.371183
79.402,74.1926,0.371183
79.433,74.1862,0.371183
79.464,74.1799,0.439734
79.494,74.1740,0.439734
79.526,74.1676,0.439734
79.556,74.1617,0.439734
79.587,74.1555,0.439734
79.617,74.1495,0.439734
79.649,74.1431,0.439734
79.678,74.1372,0.511555
79.710,74.1309,0.511555
79.740,74.1250,0.511555
79.771,74.1188,0.511555
79.803,74.1123,0.511555
79.833,74.1062,0.511555
79.864,74.1000,0.511555
79.895,74.0940,0.511555
79.926,74.0876,0.511555
79.957,74.0814,0.586485
79.989,74.0752,0.586485
80.021,74.0688,0.586485
80.052,74.0626,0.586485
80.082,74.0565,0.586485
80.113,74.0504,0.586485
80.144,74.0442,0.586485
80.175,74.0379,0.586485
80.206,74.0316,0.664590
80.238,74.0254,0.664590
80.268,74.0192,0.664590
80.299,74.0131,0.664590
80.332,74.0065,0.664590
80.362,74.0006,0.664590
80.393,73.9942,0.664590
80.424,73.9879,0.664590
80.456,73.9816,0.664590
80.487,73.9754,0.745889
80.518,73.9694,0.745889
80.548,73.9631,0.745889
80.579,73.9570,0.745889
80.610,73.9508,0.745889
80.641,73.9446,0.745889
80.672,73.9384,0.745889
80.703,73.9322,0.745889
80.734,73.9262,0.830212
80.765,73.9198,0.830212
80.796,73.9138,0.830212
80.827,73.9074,0.830212
80.859,73.9011,0.830212
80.891,73.8948,0.830212
80.922,73.8886,0.830212
80.953,73.8822,0.830212
80.984,73.8760,0.917287
81.015,73.8700,0.917287
81.047,73.8635,0.917287
81.077,73.8574,0.917287
81.109,73.8512,0.917287
81.139,73.8450,0.917287
81.170,73.8388,0.917287
81.201,73.8328,0.917287
81.232,73.8266,1.006962
81.263,73.8204,1.006962
81.293,73.8143,1.006962
81.325,73.8078,1.006962
81.355,73.8019,1.006962
81.387,73.7956,1.006962
81.419,73.7892,1.006962
81.450,73.7830,1.006962
81.481,73.7768,1.099501
81.512,73.7704,1.099501
81.542,73.7644,1.099501
81.574,73.7582,1.099501
81.605,73.7519,1.099501
81.636,73.7458,1.099501
81.667,73.7396,1.099501
81.697,73.7334,1.099501
81.728,73.7273,1.194263
81.759,73.7211,1.194263
81.790,73.7149,1.194263
81.821,73.7087,1.194263
81.852,73.7025,1.194263
81.883,73.6963,1.194263
81.915,73.6900,1.194263
81.946,73.6838,1.194263
81.977,73.6775,1.291258
82.008,73.6713,1.291258
82.040,73.6650,1.291258
82.072,73.6586,1.291258
82.102,73.6524,1.291258
82.133,73.6462,1.291258
82.164,73.6402,1.291258
82.195,73.6340,1.291258
82.225,73.6279,1.390374
82.256,73.6218,1.390374
82.287,73.6154,1.390374
82.318,73.6094,1.390374
82.349,73.6029,1.390374
82.381,73.5966,1.390374
82.412,73.5905,1.390374
82.442,73.5845,1.390374
82.473,73.5783,1.490949
82.504,73.5721,1.490949
82.535,73.5657,1.490949
82.567,73.5595,1.490949
82.599,73.5530,1.490949
82.630,73.5469,1.490949
82.661,73.5407,1.490949
82.691,73.5345,1.490949
82.722,73.5285,1.592665
82.754,73.5222,1.592665
82.784,73.5160,1.592665
82.815,73.5099,1.592665
82.846,73.5036,1.592665
82.876,73.4977,1.592665
82.907,73.4916,1.592665
82.938,73.4853,1.592665
82.969,73.4790,1.694625
83.001,73.4727,1.694625
83.032,73.4664,1.694625
83.063,73.4603,1.694625
83.093,73.4542,1.694625
83.125,73.4479,1.694625
83.157,73.4415,1.694625
83.188,73.4354,1.694625
83.219,73.4292,1.796445
83.251,73.4229,1.796445
83.282,73.4167,1.796445
83.313,73.4102,1.796445
83.344,73.4040,1.796445
83.376,73.3977,1.796445
83.407,73.3915,1.796445
83.438,73.3853,1.898622
83.470,73.3790,1.898622
83.501,73.3728,1.898622
83.532,73.3666,1.898622
83.562,73.3604,1.898622
83.593,73.3543,1.898622
83.624,73.3482,1.898622
83.655,73.3419,1.898622
83.686,73.3358,2.002307
83.718,73.3292,2.002307
83.749,73.3232,2.002307
83.780,73.3168,2.002307
83.811,73.3106,2.002307
83.842,73.3044,2.002307
83.873,73.2983,2.002307
83.904,73.2921,2.002307
83.935,73.2858,2.107989
83.966,73.2796,2.107989
83.998,73.2733,2.107989
84.028,73.2673,2.107989
84.060,73.2609,2.107989
84.091,73.2548,2.107989
84.122,73.2485,2.107989
84.152,73.2424,2.107989
84.183,73.2362,2.107989
84.216,73.2296,2.215517
84.246,73.2238,2.215517
84.277,73.2176,2.215517
84.308,73.2112,2.215517
84.340,73.2051,2.215517
84.371,73.1988,2.215517
84.402,73.1927,2.215517
84.432,73.1865,2.325646
84.464,73.1800,2.325646
84.496,73.1736,2.325646
84.527,73.1676,2.325646
84.558,73.1614,2.325646
84.588,73.1553,2.325646
84.619,73.1491,2.325646
84.651,73.1428,2.325646
84.682,73.1366,2.325646
84.714,73.1303,2.437839
84.744,73.1241,2.437839
84.776,73.1178,2.437839
84.807,73.1116,2.437839
84.838,73.1055,2.437839
84.868,73.0993,2.437839
84.899,73.0931,2.437839
84.930,73.0869,2.551840
84.961,73.0808,2.551840
84.993,73.0744,2.551840
85.024,73.0680,2.551840
85.056,73.0615,2.551840
85.088,73.0553,2.551840
85.119,73.0491,2.551840
85.149,73.0431,2.551840
85.181,73.0368,2.666567
85.212,73.0306,2.666567
85.243,73.0243,2.666567
85.274,73.0182,2.666567
85.305,73.0117,2.666567
85.336,73.0059,2.666567
85.367,72.9995,2.666567
85.398,72.9932,2.666567
85.430,72.9868,2.666567
85.461,72.9808,2.781331
85.493,72.9744,2.781331
85.524,72.9683,2.781331
85.555,72.9620,2.781331
85.585,72.9558,2.781331
85.615,72.9498,2.781331
85.646,72.9436,2.781331
85.678,72.9373,2.781331
85.710,72.9311,2.898272
85.742,72.9245,2.898272
85.774,72.9181,2.898272
85.804,72.9121,2.898272
85.835,72.9059,2.898272
85.866,72.8997,2.898272
85.898,72.8934,2.898272
85.929,72.8870,3.017832
85.959,72.8809,3.017832
85.991,72.8748,3.017832
86.022,72.8686,3.017832
86.053,72.8623,3.017832
86.084,72.8560,3.017832
86.115,72.8500,3.017832
86.147,72.8436,3.017832
86.178,72.8374,3.017832
86.209,72.8310,3.138966
86.240,72.8251,3.138966
86.271,72.8186,3.138966
86.302,72.8127,3.138966
86.332,72.8065,3.138966
86.363,72.8004,3.138966
86.395,72.7939,3.138966
86.426,72.7877,3.138966
86.457,72.7815,3.259770
86.488,72.7753,3.259770
86.519,72.7690,3.259770
86.550,72.7631,3.259770
86.580,72.7569,3.259770
86.611,72.7507,3.259770
86.642,72.7445,3.259770
86.672,72.7385,3.259770
86.703,72.7322,3.259770
86.734,72.7261,3.381289
86.766,72.7197,3.381289
86.797,72.7135,3.381289
86.828,72.7073,3.381289
86.859,72.7012,3.381289
86.890,72.6950,3.381289
86.921,72.6888,3.381289
86.952,72.6824,3.381289
86.983,72.6762,3.504760
87.014,72.6702,3.504760
87.045,72.6640,3.504760
87.076,72.6579,3.504760
87.107,72.6517,3.504760
87.137,72.6455,3.504760
87.169,72.6393,3.504760
87.199,72.6332,3.630952
87.231,72.6268,3.630952
87.262,72.6206,3.630952
87.293,72.6144,3.630952
87.325,72.6080,3.630952
87.356,72.6018,3.630952
87.387,72.5956,3.630952
87.418,72.5894,3.630952
87.448,72.5832,3.759708
87.479,72.5773,3.759708
87.510,72.5710,3.759708
87.541,72.5647,3.759708
87.572,72.5587,3.759708
87.603,72.5523,3.759708
87.633,72.5464,3.759708
87.664,72.5401,3.759708
87.694,72.5341,3.759708
87.726,72.5277,3.889293
87.757,72.5215,3.889293
87.788,72.5153,3.889293
87.819,72.5092,3.889293
87.851,72.5027,3.889293
87.882,72.4965,3.889293
87.914,72.4900,3.889293
87.946,72.4838,4.020639
87.978,72.4773,4.020639
88.009,72.4712,4.020639
88.040,72.4648,4.020639
88.072,72.4587,4.020639
88.103,72.4524,4.020639
88.133,72.4464,4.020639
88.163,72.4404,4.020639
88.194,72.4340,4.152824
88.226,72.4278,4.152824
88.256,72.4217,4.152824
88.287,72.4155,4.152824
88.318,72.4093,4.152824
88.349,72.4033,4.152824
88.379,72.3972,4.152824
88.410,72.3910,4.152824
88.442,72.3845,4.285527
88.471,72.3786,4.285527
88.504,72.3721,4.285527
88.533,72.3662,4.285527
88.565,72.3601,4.285527
88.596,72.3538,4.285527
88.627,72.3476,4.285527
88.658,72.3414,4.285527
88.689,72.3351,4.285527
88.719,72.3291,4.420049
88.751,72.3227,4.420049
88.781,72.3167,4.420049
88.812,72.3105,4.420049
88.843,72.3043,4.420049
88.874,72.2981,4.420049
88.905,72.2919,4.420049
88.937,72.2856,4.420049
88.969,72.2792,4.556314
89.000,72.2730,4.556314
89.030,72.2670,4.556314
89.062,72.2606,4.556314
89.093,72.2543,4.556314
89.124,72.2482,4.556314
89.154,72.2422,4.556314
89.184,72.2361,4.556314
89.215,72.2299,4.694189
89.246,72.2236,4.694189
89.277,72.2177,4.694189
89.308,72.2114,4.694189
89.338,72.2053,4.694189
89.370,72.1988,4.694189
89.402,72.1926,4.694189
89.432,72.1865,4.694189
89.463,72.1805,4.832593
89.494,72.1741,4.832593
89.525,72.1681,4.832593
89.555,72.1618,4.832593
89.587,72.1557,4.832593
89.617,72.1495,4.832593
89.648,72.1434,4.832593
89.679,72.1371,4.832593
89.710,72.1309,4.970808
89.741,72.1247,4.970808
89.772,72.1184,4.970808
89.804,72.1122,4.970808
89.834,72.1062,4.970808
89.865,72.0999,4.970808
89.896,72.0936,4.970808
89.927,72.0876,4.970808
89.958,72.0813,5.108542
89.989,72.0752,5.108542
90.020,72.0692,5.108542
90.050,72.0628,5.108542
90.082,72.0565,5.108542
90.113,72.0503,5.108542
90.145,72.0441,5.108542
90.175,72.0378,5.108542
90.206,72.0317,5.246983
90.237,72.0254,5.246983
90.268,72.0194,5.246983
90.299,72.0132,5.246983
90.331,72.0068,5.246983
90.361,72.0008,5.246983
90.392,71.9944,5.246983
90.423,71.9883,5.246983
90.455,71.9820,5.386385
90.485,71.9758,5.386385
90.516,71.9697,5.386385
90.547,71.9636,5.386385
90.579,71.9570,5.386385
90.610,71.9511,5.386385
90.642,71.9445,5.386385
90.673,71.9386,5.386385
90.705,71.9321,5.386385
90.735,71.9259,5.524524
90.768,71.9195,5.524524
90.797,71.9135,5.524524
90.828,71.9073,5.524524
90.860,71.9010,5.524524
90.891,71.8948,5.524524
90.921,71.8889,5.524524
90.951,71.8827,5.524524
90.982,71.8765,5.524524
91.014,71.8701,5.659508
91.046,71.8638,5.659508
91.076,71.8584,5.659508
91.107,71.8537,5.659508
91.138,71.8496,5.659508
91.169,71.8463,5.659508
91.200,71.8437,5.659508
91.230,71.8418,2.894136
91.262,71.8407,2.894136
91.293,71.8402,2.894136
91.324,71.8402,2.894136
91.355,71.8402,2.894136
91.386,71.8402,2.894136
91.417,71.8402,2.894136
91.448,71.8402,2.894136
91.479,71.8402,0.041351
91.510,71.8402,0.041351
91.540,71.8402,0.041351
91.571,71.8402,0.041351
91.602,71.8402,0.041351
91.632,71.8402,0.041351
91.663,71.8402,0.041351
91.694,71.8402,0.041351
91.725,71.8402,0.020011
91.756,71.8406,0.020011
91.788,71.8417,0.020011
91.819,71.8436,0.020011
91.850,71.8462,0.020011
91.880,71.8494,0.020011
91.911,71.8534,0.020011
91.942,71.8581,0.020011
91.972,71.8634,0.019588
92.004,71.8696,0.019588
92.035,71.8759,0.019588
92.067,71.8822,0.019588
92.098,71.8884,0.019588
92.129,71.8947,0.019588
92.160,71.9009,0.019588
92.191,71.9069,0.019588
92.221,71.9130,0.019239
92.253,71.9193,0.019239
92.284,71.9257,0.019239
92.316,71.9320,0.019239
92.346,71.9381,0.019239
92.378,71.9444,0.019239
92.409,71.9506,0.019239
92.441,71.9569,0.019239
92.472,71.9632,0.018881
92.502,71.9693,0.018881
92.533,71.9754,0.018881
92.565,71.9817,0.018881
92.596,71.9879,0.018881
92.627,71.9942,0.018881
92.658,72.0004,0.018881
92.690,72.0068,0.018589
92.722,72.0131,0.018589
92.751,72.0190,0.018589
92.782,72.0252,0.018589
92.813,72.0314,0.018589
92.844,72.0378,0.018589
92.875,72.0437,0.018589
92.906,72.0501,0.018589
92.937,72.0563,0.018589
92.969,72.0627,0.018382
93.000,72.0689,0.018382
93.032,72.0752,0.018382
93.064,72.0814,0.018382
93.096,72.0880,0.018382
93.127,72.0942,0.018382
93.160,72.1010,0.018382
93.191,72.1069,0.018250
93.221,72.1128,0.018250
93.251,72.1190,0.018250
93.282,72.1251,0.018250
93.313,72.1314,0.018250
93.345,72.1376,0.018250
93.376,72.1441,0.018250
93.407,72.1500,0.018250
93.438,72.1565,0.018250
93.470,72.1629,0.018127
93.501,72.1691,0.018127
93.532,72.1753,0.018127
93.563,72.1815,0.018127
93.594,72.1876,0.018127
93.626,72.1939,0.018127
93.656,72.2000,0.018127
93.688,72.2063,0.018127
93.719,72.2125,0.017967
93.750,72.2187,0.017967
93.780,72.2248,0.017967
93.812,72.2312,0.017967
93.844,72.2376,0.017967
93.875,72.2439,0.017967
93.906,72.2500,0.017967
93.936,72.2561,0.017910
93.968,72.2623,0.017910
93.999,72.2686,0.017910
94.030,72.2747,0.017910
94.061,72.2809,0.017910
94.093,72.2873,0.017910
94.123,72.2934,0.017910
94.154,72.2996,0.017910
94.185,72.3057,0.017910
94.216,72.3120,0.017816
94.247,72.3182,0.017816
94.279,72.3245,0.017816
94.310,72.3308,0.017816
94.342,72.3372,0.017816
94.373,72.3434,0.017816
94.404,72.3496,0.017816
94.435,72.3558,0.017816
94.467,72.3621,0.017656
94.498,72.3683,0.017656
94.530,72.3746,0.017656
94.560,72.3808,0.017656
94.592,72.3870,0.017656
94.623,72.3935,0.017656
94.655,72.3997,0.017656
94.685,72.4058,0.017600
94.717,72.4122,0.017600
94.748,72.4184,0.017600
94.779,72.4247,0.017600
94.811,72.4309,0.017600
94.842,72.4371,0.017600
94.872,72.4432,0.017600
94.903,72.4494,0.017600
94.934,72.4556,0.017600
94.965,72.4617,0.017505
94.996,72.4680,0.017505
95.028,72.4743,0.017505
95.059,72.4805,0.017505
95.091,72.4869,0.017505
95.122,72.4932,0.017505
95.153,72.4995,0.017505
95.184,72.5055,0.017505
95.215,72.5117,0.017458
95.246,72.5180,0.017458
95.277,72.5241,0.017458
95.307,72.5300,0.017458
95.339,72.5365,0.017458
95.370,72.5428,0.017458
95.401,72.5490,0.017458
95.432,72.5551,0.017458
95.463,72.5614,0.017421
95.494,72.5675,0.017421
95.525,72.5738,0.017421
95.556,72.5800,0.017421
95.587,72.5861,0.017421
95.618,72.5924,0.017421
95.649,72.5986,0.017421
95.680,72.6048,0.017421
95.712,72.6111,0.017421
95.742,72.6173,0.017279
95.773,72.6234,0.017279
95.803,72.6296,0.017279
95.835,72.6357,0.017279
95.865,72.6418,0.017279
95.899,72.6485,0.017279
95.928,72.6544,0.017279
95.960,72.6609,0.017242
95.991,72.6669,0.017242
96.022,72.6733,0.017242
96.053,72.6793,0.017242
96.084,72.6855,0.017242
96.116,72.6920,0.017242
96.146,72.6980,0.017242
96.176,72.7040,0.017242
96.207,72.7102,0.017242
96.238,72.7164,0.017204
96.270,72.7226,0.017204
96.301,72.7291,0.017204
96.333,72.7353,0.017204
96.364,72.7417,0.017204
96.396,72.7479,0.017204
96.427,72.7543,0.017204
96.458,72.7603,0.017204
96.490,72.7668,0.017147
96.521,72.7731,0.017147
96.553,72.7797,0.017147
96.584,72.7854,0.017147
96.614,72.7916,0.017147
96.645,72.7978,0.017147
96.675,72.8037,0.017147
96.705,72.8099,0.017091
96.736,72.8160,0.017091
96.767,72.8222,0.017091
96.799,72.8284,0.017091
96.830,72.8347,0.017091
96.861,72.8409,0.017091
96.892,72.8473,0.017091
96.924,72.8535,0.017091
96.954,72.8597,0.017091
96.987,72.8661,0.016940
97.016,72.8720,0.016940
97.047,72.8780,0.016940
97.078,72.8845,0.016940
97.109,72.8907,0.016940
97.139,72.8966,0.016940
97.170,72.9026,0.016940
97.201,72.9090,0.016940
97.233,72.9152,0.016799
97.264,72.9214,0.016799
97.295,72.9276,0.016799
97.326,72.9338,0.016799
97.357,72.9400,0.016799
97.388,72.9464,0.016799
97.419,72.9526,0.016799
97.450,72.9588,0.016799
97.481,72.9650,0.016770
97.512,72.9712,0.016770
97.544,72.9775,0.016770
97.575,72.9837,0.016770
97.604,72.9895,0.016770
97.636,72.9959,0.016770
97.668,73.0024,0.016770
97.699,73.0085,0.016799
97.730,73.0147,0.016799
97.761,73.0209,0.016799
97.792,73.0271,0.016799
97.823,73.0336,0.016799
97.854,73.0395,0.016799
97.886,73.0460,0.016799
97.917,73.0520,0.016799
97.948,73.0584,0.016799
97.979,73.0644,0.016695
98.010,73.0709,0.016695
98.042,73.0771,0.016695
98.072,73.0832,0.016695
98.104,73.0895,0.016695
98.133,73.0956,0.016695
98.166,73.1019,0.016695
98.196,73.1080,0.016695
98.228,73.1144,0.016563
98.258,73.1204,0.016563
98.289,73.1266,0.016563
98.321,73.1330,0.016563
98.353,73.1393,0.016563
98.383,73.1454,0.016563
98.415,73.1518,0.016563
98.444,73.1576,0.016535
98.476,73.1640,0.016535
98.506,73.1700,0.016535
98.537,73.1762,0.016535
98.569,73.1825,0.016535
98.600,73.1887,0.016535
98.631,73.1949,0.016535
98.662,73.2011,0.016535
98.693,73.2074,0.016450
98.724,73.2136,0.016450
98.755,73.2197,0.016450
98.787,73.2260,0.016450
98.817,73.2321,0.016450
98.848,73.2382,0.016450
98.879,73.2446,0.016450
98.910,73.2507,0.016450
98.941,73.2569,0.016243
98.972,73.2631,0.016243
99.003,73.2693,0.016243
99.034,73.2757,0.016243
99.065,73.2817,0.016243
99.096,73.2881,0.016243
99.128,73.2943,0.016243
99.159,73.3006,0.016243
99.190,73.3067,0.016243
99.221,73.3130,0.016073
99.252,73.3192,0.016073
99.283,73.3254,0.016073
99.315,73.3317,0.016073
99.346,73.3378,0.016073
99.377,73.3441,0.016073
99.408,73.3503,0.016073
99.439,73.3565,0.015988
99.469,73.3626,0.015988
99.500,73.3688,0.015988
99.530,73.3746,0.015988
99.561,73.3808,0.015988
99.592,73.3870,0.015988
99.622,73.3931,0.015988
99.653,73.3993,0.015988
99.683,73.4053,0.015988
99.714,73.4117,0.015866
99.746,73.4178,0.015866
99.777,73.4241,0.015866
99.808,73.4304,0.015866
99.839,73.4365,0.015866
99.870,73.4427,0.015866
99.901,73.4492,0.015866
99.932,73.4551,0.015866
99.962,73.4613,0.015678
99.993,73.4674,0.015678
100.024,73.4736,0.015678
100.056,73.4799,0.015678
100.087,73.4861,0.015678
100.118,73.4923,0.015678
100.150,73.4988,0.015678
100.181,73.5050,0.015678
100.213,73.5113,0.015423
100.244,73.5175,0.015423
100.276,73.5239,0.015423
100.307,73.5301,0.015423
100.337,73.5362,0.015423
100.369,73.5424,0.015423
100.400,73.5486,0.015423
100.431,73.5550,0.015423
100.461,73.5609,0.015206
100.493,73.5675,0.015206
100.525,73.5737,0.015206
100.556,73.5800,0.015206
100.587,73.5861,0.015206
100.619,73.5925,0.015206
100.651,73.5990,0.015206
100.683,73.6054,0.015206
100.712,73.6111,0.014905
100.743,73.6175,0.014905
100.768,73.6224,0.014905
100.806,73.6300,0.014905
100.837,73.6362,0.014905
100.868,73.6425,0.014905
100.899,73.6486,0.014905
100.930,73.6548,0.014905
100.962,73.6611,0.014538
100.992,73.6672,0.014538
101.024,73.6736,0.014538
101.054,73.6796,0.014538
101.085,73.6858,0.014538
101.117,73.6920,0.014538
101.148,73.6983,0.014538
101.180,73.7046,0.014538
101.210,73.7106,0.014076
101.241,73.7168,0.014076
101.274,73.7235,0.014076
101.303,73.7293,0.014076
101.334,73.7355,0.014076
101.365,73.7419,0.014076
101.397,73.7482,0.014076
101.428,73.7544,0.013539
101.458,73.7605,0.013539
101.489,73.7667,0.013539
101.521,73.7729,0.013539
101.552,73.7793,0.013539
101.584,73.7855,0.013539
101.614,73.7916,0.013539
101.644,73.7977,0.013539
101.676,73.8041,0.013539
101.708,73.8102,0.012879
101.738,73.8165,0.012879
101.770,73.8226,0.012879
101.801,73.8289,0.012879
101.831,73.8349,0.012879
101.862,73.8411,0.012879
101.893,73.8474,0.012879
101.924,73.8535,0.012879
101.955,73.8598,0.011890
101.986,73.8659,0.011890
102.016,73.8720,0.011890
102.047,73.8780,0.011890
102.078,73.8842,0.011890
102.109,73.8904,0.011890
102.139,73.8964,0.011890
102.169,73.9026,0.011890
102.201,73.9088,0.010731
102.232,73.9152,0.010731
102.263,73.9213,0.010731
102.294,73.9276,0.010731
102.324,73.9336,0.010731
102.357,73.9402,0.010731
102.387,73.9461,0.010731
102.417,73.9521,0.010731
102.448,73.9585,0.010731
102.479,73.9644,0.009327
102.510,73.9708,0.009327
102.540,73.9768,0.009327
102.572,73.9832,0.009327
102.602,73.9893,0.009327
102.633,73.9955,0.009327
102.665,74.0018,0.009327
102.696,74.0079,0.007255
102.727,74.0141,0.007255
102.758,74.0203,0.007255
102.790,74.0267,0.007255
102.821,74.0328,0.007255
102.852,74.0391,0.007255
102.884,74.0453,0.007255
102.914,74.0515,0.007255
102.945,74.0579,0.004400
102.976,74.0639,0.004400
103.008,74.0704,0.004400
103.039,74.0766,0.004400
103.070,74.0827,0.004400
103.100,74.0887,0.004400
103.132,74.0950,0.004400
103.163,74.1014,0.004400
103.194,74.1075,0.000735
103.225,74.1137,0.000735
103.256,74.1198,0.000735
103.286,74.1261,0.000735
103.318,74.1323,0.000735
103.349,74.1386,0.000735
103.379,74.1446,0.000735
103.410,74.1508,0.000735
103.441,74.1568,-0.003995
103.472,74.1632,-0.003995
103.503,74.1695,-0.003995
103.534,74.1756,-0.003995
103.566,74.1819,-0.003995
103.596,74.1878,-0.003995
103.626,74.1940,-0.003995
103.658,74.2002,-0.003995
103.688,74.2064,-0.003995
103.719,74.2124,-0.010006
103.750,74.2190,-0.010006
103.782,74.2249,-0.010006
103.814,74.2315,-0.010006
103.844,74.2376,-0.010006
103.876,74.2439,-0.010006
103.907,74.2500,-0.010006
103.938,74.2563,-0.010006
103.969,74.2625,-0.017411
104.000,74.2687,-0.017411
104.032,74.2749,-0.017411
104.062,74.2810,-0.017411
104.092,74.2872,-0.017411
104.124,74.2935,-0.017411
104.155,74.2997,-0.017411
104.185,74.3057,-0.017411
104.216,74.3119,-0.026051
104.246,74.3179,-0.026051
104.278,74.3241,-0.026051
104.309,74.3306,-0.026051
104.340,74.3367,-0.026051
104.371,74.3429,-0.026051
104.402,74.3491,-0.026051
104.434,74.3555,-0.026051
104.465,74.3616,-0.035548
104.496,74.3678,-0.035548
104.527,74.3740,-0.035548
104.558,74.3802,-0.035548
104.589,74.3867,-0.035548
104.620,74.3927,-0.035548
104.651,74.3992,-0.035548
104.682,74.4051,-0.035548
104.713,74.4115,-0.045365
104.745,74.4177,-0.045365
104.776,74.4239,-0.045365
104.806,74.4298,-0.045365
104.837,74.4361,-0.045365
104.868,74.4425,-0.045365
104.900,74.4485,-0.045365
104.931,74.4549,-0.045365
104.963,74.4612,-0.055060
104.994,74.4674,-0.055060
105.025,74.4737,-0.055060
105.057,74.4802,-0.055060
105.087,74.4861,-0.055060
105.118,74.4923,-0.055060
105.149,74.4984,-0.055060
105.180,74.5046,-0.055060
105.210,74.5110,-0.055060
105.241,74.5169,-0.064265
105.272,74.5232,-0.064265
105.302,74.5290,-0.064265
105.333,74.5354,-0.064265
105.365,74.5417,-0.064265
105.395,74.5479,-0.064265
105.426,74.5541,-0.064265
105.458,74.5604,-0.072575
105.489,74.5665,-0.072575
105.520,74.5726,-0.072575
105.551,74.5789,-0.072575
105.582,74.5851,-0.072575
105.613,74.5914,-0.072575
105.643,74.5974,-0.072575
105.674,74.6034,-0.072575
105.705,74.6098,-0.079801
105.737,74.6161,-0.079801
105.768,74.6222,-0.079801
105.798,74.6284,-0.079801
105.830,74.6347,-0.079801
105.862,74.6410,-0.079801
105.892,74.6472,-0.079801
105.923,74.6533,-0.079801
105.954,74.6594,-0.085897
105.985,74.6657,-0.085897
106.016,74.6718,-0.085897
106.046,74.6780,-0.085897
106.076,74.6839,-0.085897
106.107,74.6900,-0.085897
106.137,74.6961,-0.085897
106.168,74.7024,-0.085897
106.199,74.7085,-0.090947
106.229,74.7147,-0.090947
106.261,74.7209,-0.090947
106.292,74.7272,-0.090947
106.323,74.7333,-0.090947
106.354,74.7396,-0.090947
106.386,74.7461,-0.090947
106.417,74.7523,-0.090947
106.448,74.7582,-0.095234
106.479,74.7644,-0.095234
106.510,74.7706,-0.095234
106.540,74.7770,-0.095234
106.571,74.7829,-0.095234
106.603,74.7894,-0.095234
106.634,74.7956,-0.095234
106.666,74.8020,-0.095234
106.698,74.8082,-0.098964
106.729,74.8147,-0.098964
106.760,74.8202,-0.098964
106.791,74.8252,-0.098964
106.822,74.8295,-0.098964
106.853,74.8331,-0.098964
106.884,74.8360,-0.098964
106.916,74.8381,-0.098964
106.947,74.8396,-0.101961
106.978,74.8402,-0.101961
107.009,74.8402,-0.101961
107.040,74.8402,-0.101961
107.071,74.8402,-0.101961
107.102,74.8402,-0.101961
107.133,74.8402,-0.101961
107.165,74.8402,-0.101961
107.196,74.8402,-0.101998
107.227,74.8402,-0.101998
107.258,74.8402,-0.101998
107.289,74.8402,-0.101998
107.320,74.8402,-0.101998
107.351,74.8402,-0.101998
107.382,74.8402,-0.101998
107.413,74.8402,-0.101998
107.445,74.8402,-0.101998
107.475,74.8402,-0.099125
107.507,74.8402,-0.099125
107.538,74.8402,-0.099125
107.570,74.8402,-0.099125
107.601,74.8402,-0.099125
107.632,74.8402,-0.099125
107.663,74.8402,-0.099125
107.693,74.8402,-0.095987
107.724,74.8402,-0.095987
107.755,74.8402,-0.095987
107.786,74.8402,-0.095987
107.817,74.8402,-0.095987
107.848,74.8402,-0.095987
107.880,74.8402,-0.095987
107.910,74.8402,-0.095987
107.942,74.8402,-0.093180
107.973,74.8402,-0.093180
108.005,74.8402,-0.093180
108.035,74.8402,-0.093180
108.066,74.8402,-0.093180
108.098,74.8402,-0.093180
108.128,74.8402,-0.093180
108.159,74.8402,-0.093180
108.191,74.8402,-0.090589
108.222,74.8402,-0.090589
108.252,74.8402,-0.090589
108.284,74.8402,-0.090589
108.315,74.8402,-0.090589
108.346,74.8402,-0.090589
108.378,74.8402,-0.090589
108.408,74.8402,-0.090589
108.439,74.8402,-0.088243
108.470,74.8402,-0.088243
108.501,74.8402,-0.088243
108.533,74.8402,-0.088243
108.564,74.8402,-0.088243
108.595,74.8402,-0.088243
108.627,74.8402,-0.088243
108.659,74.8402,-0.088243
108.689,74.8402,-0.085953
108.720,74.8402,-0.085953
108.751,74.8402,-0.085953
108.782,74.8402,-0.085953
108.814,74.8402,-0.085953
108.844,74.8402,-0.085953
108.875,74.8402,-0.085953
108.906,74.8402,-0.085953
108.937,74.8402,-0.083739
108.968,74.8402,-0.083739
108.998,74.8402,-0.083739
109.030,74.8402,-0.083739
109.061,74.8402,-0.083739
109.092,74.8402,-0.083739
109.123,74.8402,-0.083739
109.154,74.8402,-0.083739
109.186,74.8402,-0.083739
109.218,74.8402,-0.081695
109.249,74.8402,-0.081695
109.279,74.8402,-0.081695
109.310,74.8402,-0.081695
109.341,74.8402,-0.081695
109.372,74.8402,-0.081695
109.402,74.8402,-0.081695
109.433,74.8402,-0.081695
109.464,74.8402,-0.081695
109.495,74.8402,-0.079669
109.526,74.8402,-0.079669
109.558,74.8402,-0.079669
109.590,74.8402,-0.079669
109.621,74.8402,-0.079669
109.651,74.8402,-0.079669
109.681,74.8402,-0.079669
109.712,74.8402,-0.077700
109.743,74.8402,-0.077700
109.774,74.8402,-0.077700
109.805,74.8402,-0.077700
109.835,74.8402,-0.077700
109.866,74.8402,-0.077700
109.897,74.8402,-0.077700
109.928,74.8402,-0.077700
109.959,74.8402,-0.077700
109.991,74.8402,-0.075825
110.023,74.8402,-0.075825
110.055,74.8402,-0.075825
110.086,74.8402,-0.075825
110.117,74.8402,-0.075825
110.148,74.8402,-0.075825
110.180,74.8402,-0.075825
110.211,74.8402,-0.074007
110.242,74.8402,-0.074007
110.273,74.8402,-0.074007
110.304,74.8402,-0.074007
110.335,74.8402,-0.074007
110.365,74.8402,-0.074007
110.396,74.8402,-0.074007
110.427,74.8402,-0.074007
110.458,74.8402,-0.074007
110.489,74.8402,-0.072245
110.520,74.8402,-0.072245
110.551,74.8402,-0.072245
110.582,74.8402,-0.072245
110.614,74.8402,-0.072245
110.645,74.8402,-0.072245
110.676,74.8402,-0.072245
110.708,74.8402,-0.072245
110.739,74.8402,-0.070483
110.771,74.8402,-0.070483
110.802,74.8402,-0.070483
110.833,74.8402,-0.070483
110.864,74.8402,-0.070483
110.895,74.8402,-0.070483
110.926,74.8402,-0.070483
110.957,74.8402,-0.068787
110.988,74.8402,-0.068787
111.019,74.8402,-0.068787
111.050,74.8402,-0.068787
111.081,74.8402,-0.068787
111.112,74.8402,-0.068787
111.143,74.8402,-0.068787
111.174,74.8402,-0.068787
111.205,74.8402,-0.068787
111.235,74.8402,-0.067647
111.267,74.8402,-0.067647
111.297,74.8402,-0.067647
111.328,74.8402,-0.067647
111.359,74.8402,-0.067647
111.390,74.8402,-0.067647
111.421,74.8402,-0.067647
111.451,74.8402,-0.067647
111.483,74.8402,-0.067157
111.514,74.8402,-0.067157
111.545,74.8402,-0.067157
111.576,74.8402,-0.067157
111.607,74.8402,-0.067157
111.637,74.8402,-0.067157
111.667,74.8401,-0.067157
111.698,74.8392,-0.066413
111.729,74.8376,-0.066413
111.759,74.8354,-0.066413
111.790,74.8323,-0.066413
111.822,74.8283,-0.066413
111.853,74.8240,-0.066413
111.883,74.8189,-0.066413
111.914,74.8128,-0.066413
111.947,74.8065,-0.063643
111.977,74.8003,-0.063643
112.008,74.7941,-0.063643
112.039,74.7879,-0.063643
112.070,74.7817,-0.063643
112.101,74.7755,-0.063643
112.133,74.7691,-0.063643
112.164,74.7629,-0.063643
112.195,74.7567,-0.055578
112.225,74.7507,-0.055578
112.256,74.7445,-0.055578
112.287,74.7383,-0.055578
112.319,74.7321,-0.055578
112.350,74.7259,-0.055578
112.381,74.7194,-0.055578
112.412,74.7133,-0.055578
112.444,74.7068,-0.055578
112.474,74.7009,-0.042849
112.505,74.6947,-0.042849
112.536,74.6887,-0.042849
112.566,74.6824,-0.042849
112.597,74.6762,-0.042849
112.628,74.6700,-0.042849
112.659,74.6640,-0.042849
112.690,74.6576,-0.042849
112.721,74.6516,-0.027841
112.752,74.6452,-0.027841
112.783,74.6392,-0.027841
112.813,74.6331,-0.027841
112.845,74.6268,-0.027841
112.875,74.6207,-0.027841
112.906,74.6145,-0.027841
112.938,74.6079,-0.027841
112.969,74.6020,-0.009422
113.001,74.5954,-0.009422
113.033,74.5892,-0.009422
113.063,74.5830,-0.009422
113.094,74.5770,-0.009422
113.125,74.5706,-0.009422
113.156,74.5646,-0.009422
113.188,74.5582,-0.009422
113.219,74.5520,0.013642
113.250,74.5457,0.013642
113.281,74.5395,0.013642
113.314,74.5329,0.013642
113.345,74.5268,0.013642
113.377,74.5202,0.013642
113.408,74.5141,0.013642
113.439,74.5078,0.042190
113.471,74.5015,0.042190
113.503,74.4949,0.042190
113.533,74.4892,0.042190
113.564,74.4829,0.042190
113.595,74.4768,0.042190
113.625,74.4707,0.042190
113.656,74.4644,0.042190
113.687,74.4585,0.042190
113.719,74.4520,0.076588
113.748,74.4462,0.076588
113.779,74.4399,0.076588
113.810,74.4337,0.076588
113.842,74.4272,0.076588
113.872,74.4214,0.076588
113.903,74.4151,0.076588
113.934,74.4090,0.116960
113.966,74.4025,0.116960
113.997,74.3965,0.116960
114.027,74.3905,0.116960
114.058,74.3840,0.116960
114.089,74.3778,0.116960
114.120,74.3716,0.116960
114.151,74.3654,0.116960
114.183,74.3591,0.163257
114.213,74.3532,0.163257
114.244,74.3470,0.163257
114.275,74.3409,0.163257
114.306,74.3346,0.163257
114.338,74.3281,0.163257
114.369,74.3219,0.163257
114.400,74.3158,0.163257
114.431,74.3096,0.163257
114.461,74.3034,0.215152
114.493,74.2971,0.215152
114.524,74.2909,0.215152
114.556,74.2846,0.215152
114.588,74.2783,0.215152
114.619,74.2721,0.215152
114.649,74.2660,0.215152
114.681,74.2595,0.215152
114.711,74.2535,0.272341
114.743,74.2473,0.272341
114.774,74.2409,0.272341
114.806,74.2347,0.272341
114.837,74.2283,0.272341
114.867,74.2222,0.272341
114.898,74.2160,0.272341
114.930,74.2098,0.272341
114.961,74.2035,0.334354
114.992,74.1973,0.334354
115.023,74.1909,0.334354
115.054,74.1850,0.334354
115.085,74.1788,0.334354
115.116,74.1726,0.334354
115.147,74.1661,0.334354
115.179,74.1599,0.334354
115.210,74.1537,0.400295
115.240,74.1478,0.400295
115.272,74.1415,0.400295
115.303,74.1351,0.400295
115.334,74.1291,0.400295
115.365,74.1227,0.400295
115.396,74.1167,0.400295
115.427,74.1103,0.400295
115.457,74.1044,0.469827
115.488,74.0982,0.469827
115.519,74.0918,0.469827
115.550,74.0859,0.469827
115.580,74.0796,0.469827
115.611,74.0736,0.469827
115.642,74.0673,0.469827
115.672,74.0613,0.469827
115.704,74.0549,0.542948
115.735,74.0488,0.542948
115.767,74.0424,0.542948
115.798,74.0362,0.542948
115.831,74.0296,0.542948
115.861,74.0236,0.542948
115.893,74.0171,0.542948
115.924,74.0110,0.542948
115.956,74.0044,0.542948
115.986,73.9985,0.619687
116.017,73.9924,0.619687
116.049,73.9861,0.619687
116.079,73.9800,0.619687
116.110,73.9737,0.619687
116.141,73.9676,0.619687
116.171,73.9615,0.619687
116.203,73.9552,0.619687
116.234,73.9491,0.619687
116.265,73.9428,0.699591
116.296,73.9364,0.699591
116.327,73.9304,0.699591
116.358,73.9242,0.699591
116.389,73.9180,0.699591
116.420,73.9118,0.699591
116.451,73.9056,0.699591
116.482,73.8994,0.782473
116.513,73.8932,0.782473
116.544,73.8870,0.782473
116.575,73.8808,0.782473
116.606,73.8747,0.782473
116.638,73.8681,0.782473
116.669,73.8620,0.782473
116.700,73.8558,0.782473
116.732,73.8494,0.868389
116.763,73.8431,0.868389
116.794,73.8366,0.868389
116.825,73.8307,0.868389
116.856,73.8246,0.868389
116.888,73.8183,0.868389
116.919,73.8121,0.868389
116.949,73.8060,0.868389
116.980,73.7998,0.957244
117.011,73.7934,0.957244
117.041,73.7876,0.957244
117.072,73.7814,0.957244
117.103,73.7751,0.957244
117.135,73.7689,0.957244
117.166,73.7624,0.957244
117.197,73.7564,0.957244
117.229,73.7500,1.048878
117.260,73.7438,1.048878
117.291,73.7376,1.048878
117.322,73.7313,1.048878
117.353,73.7254,1.048878
117.382,73.7192,1.048878
117.413,73.7131,1.048878
117.444,73.7070,1.048878
117.475,73.7007,1.142425
117.507,73.6944,1.142425
117.538,73.6883,1.142425
117.568,73.6822,1.142425
117.599,73.6760,1.142425
117.630,73.6697,1.142425
117.661,73.6637,1.142425
117.692,73.6575,1.142425
117.722,73.6513,1.238055
117.752,73.6452,1.238055
117.783,73.6390,1.238055
117.814,73.6331,1.238055
117.845,73.6266,1.238055
117.875,73.6208,1.238055
117.905,73.6146,1.238055
117.937,73.6084,1.238055
117.967,73.6023,1.335766
117.999,73.5960,1.335766
118.030,73.5899,1.335766
118.059,73.5838,1.335766
118.091,73.5776,1.335766
118.122,73.5713,1.335766
118.153,73.5652,1.335766
118.184,73.5589,1.335766
118.215,73.5528,1.435051
118.246,73.5464,1.435051
118.277,73.5403,1.435051
118.309,73.5340,1.435051
118.341,73.5277,1.435051
118.372,73.5215,1.435051
118.404,73.5149,1.435051
118.435,73.5088,1.435051
118.466,73.5027,1.535410
118.497,73.4964,1.535410
118.528,73.4901,1.535410
118.559,73.4839,1.535410
118.590,73.4779,1.535410
118.620,73.4716,1.535410
118.651,73.4655,1.535410
118.681,73.4595,1.535410
118.713,73.4533,1.636579
118.743,73.4472,1.636579
118.774,73.4411,1.636579
118.805,73.4348,1.636579
118.836,73.4286,1.636579
118.866,73.4225,1.636579
118.897,73.4164,1.636579
118.928,73.4101,1.738153
118.959,73.4038,1.738153
118.990,73.3977,1.738153
119.022,73.3914,1.738153
119.053,73.3852,1.738153
119.083,73.3790,1.738153
119.114,73.3730,1.738153
119.146,73.3664,1.738153
119.177,73.3605,1.738153
119.209,73.3539,1.839803
119.240,73.3478,1.839803
119.270,73.3418,1.839803
119.301,73.3357,1.839803
119.332,73.3294,1.839803
119.362,73.3233,1.839803
119.393,73.3172,1.839803
119.424,73.3111,1.839803
119.455,73.3048,1.839803
119.485,73.2987,1.942960
119.517,73.2923,1.942960
119.548,73.2862,1.942960
119.579,73.2799,1.942960
119.610,73.2737,1.942960
119.641,73.2677,1.942960
119.671,73.2616,1.942960
119.702,73.2553,1.942960
119.734,73.2490,2.047502
119.765,73.2425,2.047502
119.797,73.2365,2.047502
119.828,73.2301,2.047502
119.859,73.2239,2.047502
119.891,73.2175,2.047502
119.922,73.2114,2.047502
119.953,73.2052,2.047502
119.984,73.1990,2.153005
120.016,73.1927,2.153005
120.047,73.1864,2.153005
120.078,73.1803,2.153005
120.108,73.1741,2.153005
120.140,73.1678,2.153005
120.170,73.1617,2.153005
120.202,73.1553,2.153005
120.233,73.1493,2.260185
120.264,73.1431,2.260185
120.295,73.1369,2.260185
120.326,73.1307,2.260185
120.357,73.1245,2.260185
120.388,73.1183,2.260185
120.419,73.1119,2.260185
120.451,73.1056,2.260185
120.482,73.0993,2.369297
120.514,73.0930,2.369297
120.546,73.0866,2.369297
120.578,73.0803,2.369297
120.608,73.0741,2.369297
120.639,73.0679,2.369297
120.670,73.0620,2.369297
120.700,73.0558,2.369297
120.730,73.0498,2.480424
120.761,73.0436,2.480424
120.792,73.0373,2.480424
120.824,73.0311,2.480424
120.854,73.0248,2.480424
120.886,73.0187,2.480424
120.916,73.0123,2.480424
120.948,73.0063,2.480424
120.979,72.9998,2.593314
121.011,72.9935,2.593314
121.042,72.9873,2.593314
121.073,72.9812,2.593314
121.104,72.9748,2.593314
121.136,72.9686,2.593314
121.167,72.9624,2.593314
121.200,72.9559,2.593314
121.230,72.9500,2.708691
121.260,72.9438,2.708691
121.292,72.9374,2.708691
121.322,72.9312,2.708691
121.353,72.9252,2.708691
121.384,72.9190,2.708691
121.414,72.9129,2.708691
121.446,72.9067,2.708691
121.476,72.9006,2.826659
121.508,72.8942,2.826659
121.539,72.8881,2.826659
121.570,72.8819,2.826659
121.602,72.8754,2.826659
121.632,72.8694,2.826659
121.663,72.8633,2.826659
121.693,72.8571,2.826659
121.725,72.8507,2.945239
121.756,72.8445,2.945239
121.788,72.8383,2.945239
121.818,72.8321,2.945239
121.850,72.8258,2.945239
121.880,72.8196,2.945239
121.911,72.8137,2.945239
121.942,72.8073,2.945239
121.973,72.8013,3.063791
122.004,72.7948,3.063791
122.035,72.7889,3.063791
122.066,72.7825,3.063791
122.097,72.7763,3.063791
122.129,72.7699,3.063791
122.161,72.7637,3.063791
122.191,72.7575,3.063791
122.222,72.7513,3.184387
122.254,72.7450,3.184387
122.284,72.7390,3.184387
122.315,72.7328,3.184387
122.346,72.7266,3.184387
122.377,72.7205,3.184387
122.409,72.7139,3.184387
122.439,72.7081,3.184387
122.470,72.7017,3.308055
122.501,72.6957,3.308055
122.532,72.6893,3.308055
122.563,72.6833,3.308055
122.594,72.6769,3.308055
122.625,72.6709,3.308055
122.656,72.6646,3.308055
122.687,72.6585,3.308055
122.718,72.6521,3.308055
122.750,72.6459,3.432600
122.781,72.6395,3.432600
122.812,72.6335,3.432600
122.843,72.6270,3.432600
122.874,72.6209,3.432600
122.905,72.6147,3.432600
122.937,72.6085,3.432600
122.967,72.6023,3.557728
122.998,72.5963,3.557728
123.029,72.5898,3.557728
123.060,72.5837,3.557728
123.092,72.5773,3.557728
123.123,72.5713,3.557728
123.155,72.5647,3.557728
123.186,72.5587,3.557728
123.217,72.5523,3.557728
123.248,72.5464,3.683591
123.278,72.5401,3.683591
123.310,72.5339,3.683591
123.341,72.5275,3.683591
123.372,72.5213,3.683591
123.403,72.5151,3.683591
123.433,72.5093,3.683591
123.465,72.5029,3.683591
123.496,72.4964,3.810556
123.528,72.4903,3.810556
123.559,72.4841,3.810556
123.590,72.4778,3.810556
123.620,72.4717,3.810556
123.652,72.4654,3.810556
123.683,72.4593,3.810556
123.714,72.4529,3.939482
123.745,72.4468,3.939482
123.776,72.4405,3.939482
123.807,72.4344,3.939482
123.839,72.4280,3.939482
123.870,72.4219,3.939482
123.902,72.4153,3.939482
123.933,72.4093,3.939482
123.965,72.4028,4.068567
123.994,72.3969,4.068567
124.024,72.3909,4.068567
124.056,72.3847,4.068567
124.088,72.3781,4.068567
124.120,72.3718,4.068567
124.150,72.3657,4.068567
124.182,72.3594,4.068567
124.212,72.3534,4.068567
124.243,72.3472,4.198660
124.275,72.3408,4.198660
124.306,72.3344,4.198660
124.337,72.3285,4.198660
124.368,72.3223,4.198660
124.398,72.3161,4.198660
124.429,72.3100,4.198660
124.461,72.3036,4.198660
124.493,72.2971,4.330224
124.524,72.2909,4.330224
124.555,72.2848,4.330224
124.586,72.2786,4.330224
124.616,72.2725,4.330224
124.648,72.2663,4.330224
124.680,72.2599,4.330224
124.711,72.2537,4.463511
124.742,72.2474,4.463511
124.773,72.2413,4.463511
124.804,72.2350,4.463511
124.835,72.2286,4.463511
124.866,72.2226,4.463511
124.897,72.2164,4.463511
124.928,72.2100,4.463511
124.960,72.2040,4.598579
124.990,72.1976,4.598579
125.021,72.1916,4.598579
125.052,72.1852,4.598579
125.083,72.1792,4.598579
125.114,72.1730,4.598579
125.145,72.1668,4.598579
125.176,72.1606,4.598579
125.208,72.1541,4.734580
125.238,72.1482,4.734580
125.270,72.1418,4.734580
125.302,72.1354,4.734580
125.333,72.1292,4.734580
125.363,72.1231,4.734580
125.394,72.1170,4.734580
125.425,72.1107,4.734580
125.456,72.1045,4.872399
125.488,72.0982,4.872399
125.520,72.0920,4.872399
125.551,72.0856,4.872399
125.583,72.0793,4.872399
125.613,72.0732,4.872399
125.643,72.0672,4.872399
125.673,72.0610,4.872399
125.704,72.0550,4.872399
125.734,72.0489,5.011499
125.766,72.0426,5.011499
125.797,72.0363,5.011499
125.829,72.0301,5.011499
125.860,72.0238,5.011499
125.891,72.0176,5.011499
125.922,72.0115,5.011499
125.953,72.0052,5.011499
125.984,71.9991,5.152739
126.015,71.9928,5.152739
126.046,71.9866,5.152739
126.078,71.9802,5.152739
126.109,71.9740,5.152739
126.140,71.9678,5.152739
126.171,71.9617,5.152739
126.202,71.9555,5.152739
126.233,71.9492,5.295410
126.265,71.9429,5.295410
126.296,71.9367,5.295410
126.328,71.9304,5.295410
126.359,71.9242,5.295410
126.390,71.9177,5.295410
126.422,71.9115,5.295410
126.453,71.9053,5.295410
126.485,71.8990,5.437092
126.516,71.8927,5.437092
126.547,71.8866,5.437092
126.577,71.8804,5.437092
126.608,71.8742,5.437092
126.638,71.8681,5.437092
126.669,71.8620,5.437092
126.701,71.8556,5.575806
126.733,71.8491,5.575806
126.763,71.8432,5.575806
126.795,71.8370,5.575806
126.826,71.8307,5.575806
126.858,71.8243,5.575806
126.888,71.8181,5.575806
126.918,71.8124,5.575806
126.949,71.8070,5.575806
126.981,71.8025,5.708302
127.012,71.7985,5.708302
127.042,71.7954,5.708302
127.073,71.7931,5.708302
127.104,71.7915,5.708302
127.134,71.7905,5.708302
127.165,71.7902,5.708302
127.195,71.7902,5.799126
127.226,71.7902,5.799126
127.256,71.7902,5.799126
127.287,71.7902,5.799126
127.319,71.7902,5.799126
127.350,71.7906,5.799126
127.381,71.7916,5.799126
127.412,71.7934,5.799126
127.443,71.7959,5.773217
127.475,71.7993,5.773217
127.506,71.8032,5.773217
127.537,71.8081,5.773217
127.567,71.8132,5.773217
127.597,71.8192,5.773217
127.628,71.8252,5.773217
127.659,71.8315,5.773217
127.690,71.8380,5.620493
127.721,71.8440,5.620493
127.752,71.8502,5.620493
127.784,71.8566,5.620493
127.815,71.8628,5.620493
127.845,71.8689,5.620493
127.876,71.8749,5.620493
127.907,71.8810,5.620493
127.938,71.8873,5.355991
127.968,71.8934,5.355991
127.999,71.8995,5.355991
128.030,71.9057,5.355991
128.062,71.9120,5.355991
128.092,71.9183,5.355991
128.124,71.9245,5.355991
128.155,71.9307,5.355991
128.186,71.9369,5.355991
128.217,71.9431,5.046633
128.248,71.9496,5.046633
128.279,71.9555,5.046633
128.309,71.9616,5.046633
128.340,71.9679,5.046633
128.371,71.9739,5.046633
128.402,71.9801,5.046633
128.433,71.9863,5.046633
128.463,71.9924,4.769703
128.494,71.9987,4.769703
128.525,72.0048,4.769703
128.555,72.0109,4.769703
128.587,72.0172,4.769703
128.618,72.0233,4.769703
128.649,72.0295,4.769703
128.680,72.0358,4.769703
128.711,72.0420,4.515631
128.742,72.0483,4.515631
128.774,72.0545,4.515631
128.805,72.0608,4.515631
128.836,72.0669,4.515631
128.866,72.0731,4.515631
128.897,72.0793,4.515631
128.927,72.0854,4.515631
128.957,72.0911,4.278942
128.989,72.0976,4.278942
129.019,72.1036,4.278942
129.050,72.1097,4.278942
129.081,72.1159,4.278942
129.113,72.1225,4.278942
129.144,72.1284,4.278942
129.175,72.1348,4.278942
129.207,72.1411,4.057129
129.238,72.1475,4.057129
129.269,72.1539,4.057129
129.301,72.1599,4.057129
129.332,72.1661,4.057129
129.363,72.1725,4.057129
129.394,72.1785,4.057129
129.425,72.1847,4.057129
129.457,72.1911,3.848318
129.487,72.1970,3.848318
129.517,72.2032,3.848318
129.548,72.2094,3.848318
129.579,72.2155,3.848318
129.610,72.2217,3.848318
129.643,72.2284,3.848318
129.673,72.2344,3.848318
129.705,72.2408,3.650860
129.735,72.2469,3.650860
129.765,72.2528,3.650860
129.797,72.2590,3.650860
129.828,72.2654,3.650860
129.859,72.2714,3.650860
129.890,72.2778,3.650860
129.920,72.2837,3.650860
129.951,72.2900,3.461797
129.982,72.2962,3.461797
130.013,72.3024,3.461797
130.044,72.3086,3.461797
130.076,72.3150,3.461797
130.107,72.3212,3.461797
130.138,72.3275,3.461797
130.169,72.3334,3.461797
130.200,72.3398,3.461797
130.231,72.3458,3.279781
130.263,72.3524,3.279781
130.293,72.3585,3.279781
130.325,72.3647,3.279781
130.356,72.3709,3.279781
130.386,72.3771,3.279781
130.417,72.3831,3.279781
130.448,72.3895,3.279781
130.479,72.3956,3.105284
130.510,72.4018,3.105284
130.541,72.4079,3.105284
130.572,72.4143,3.105284
130.603,72.4204,3.105284
130.634,72.4267,3.105284
130.666,72.4329,3.105284
130.697,72.4394,3.105284
130.728,72.4453,2.937542
130.760,72.4518,2.937542
130.791,72.4580,2.937542
130.822,72.4643,2.937542
130.853,72.4704,2.937542
130.884,72.4766,2.937542
130.915,72.4826,2.937542
130.945,72.4888,2.937542
130.977,72.4952,2.776140
131.008,72.5014,2.776140
131.039,72.5075,2.776140
131.070,72.5138,2.776140
131.100,72.5197,2.776140
131.131,72.5261,2.776140
131.162,72.5321,2.776140
131.194,72.5385,2.776140
131.225,72.5448,2.620184
131.257,72.5511,2.620184
131.288,72.5574,2.620184
131.319,72.5635,2.620184
131.351,72.5698,2.620184
131.382,72.5762,2.620184
131.414,72.5826,2.620184
131.445,72.5888,2.469712
131.477,72.5950,2.469712
131.508,72.6016,2.469712
131.540,72.6077,2.469712
131.570,72.6137,2.469712
131.601,72.6198,2.469712
131.631,72.6259,2.469712
131.663,72.6323,2.469712
131.694,72.6384,2.324356
131.724,72.6447,2.324356
131.755,72.6508,2.324356
131.787,72.6573,2.324356
131.818,72.6633,2.324356
131.849,72.6698,2.324356
131.881,72.6759,2.324356
131.911,72.6822,2.324356
131.942,72.6883,2.324356
131.973,72.6945,2.183757
132.005,72.7007,2.183757
132.035,72.7069,2.183757
132.066,72.7130,2.183757
132.096,72.7190,2.183757
132.128,72.7254,2.183757
132.161,72.7319,2.183757
132.190,72.7378,2.048275
132.221,72.7441,2.048275
132.253,72.7503,2.048275
132.284,72.7565,2.048275
132.315,72.7627,2.048275
132.346,72.7689,2.048275
132.377,72.7751,2.048275
132.408,72.7813,2.048275
132.439,72.7876,2.048275
132.471,72.7939,1.917691
132.502,72.8001,1.917691
132.533,72.8065,1.917691
132.565,72.8127,1.917691
132.596,72.8189,1.917691
132.625,72.8250,1.917691
132.657,72.8312,1.917691
132.688,72.8375,1.792572
132.719,72.8436,1.792572
132.750,72.8498,1.792572
132.781,72.8561,1.792572
132.812,72.8623,1.792572
132.844,72.8686,1.792572
132.875,72.8748,1.792572
132.906,72.8810,1.792572
132.936,72.8870,1.792572
132.968,72.8934,1.672409
132.999,72.8995,1.672409
133.030,72.9059,1.672409
133.061,72.9120,1.672409
133.092,72.9182,1.672409
133.124,72.9245,1.672409
133.154,72.9307,1.672409
133.186,72.9368,1.556109
133.218,72.9436,1.556109
133.249,72.9496,1.556109
133.280,72.9555,1.556109
133.312,72.9621,1.556109
133.342,72.9682,1.556109
133.374,72.9745,1.556109
133.405,72.9807,1.556109
133.437,72.9872,1.443738
133.468,72.9934,1.443738
133.500,72.9997,1.443738
133.532,73.0061,1.443738
133.561,73.0120,1.443738
133.592,73.0182,1.443738
133.622,73.0240,1.443738
133.653,73.0303,1.443738
133.683,73.0364,1.443738
133.716,73.0430,1.336115
133.746,73.0489,1.336115
133.778,73.0554,1.336115
133.809,73.0615,1.336115
133.840,73.0677,1.336115
133.870,73.0739,1.336115
133.902,73.0801,1.336115
133.932,73.0863,1.336115
133.965,73.0928,1.233542
133.995,73.0988,1.233542
134.027,73.1052,1.233542
134.058,73.1114,1.233542
134.089,73.1175,1.233542
134.120,73.1238,1.233542
134.151,73.1299,1.233542
134.183,73.1362,1.135105
134.214,73.1426,1.135105
134.245,73.1487,1.135105
134.276,73.1550,1.135105
134.307,73.1612,1.135105
134.338,73.1675,1.135105
134.371,73.1738,1.135105
134.400,73.1798,1.135105
134.431,73.1860,1.135105
134.463,73.1923,1.040587
134.493,73.1983,1.040587
134.525,73.2046,1.040587
134.557,73.2110,1.040587
134.589,73.2175,1.040587
134.619,73.2236,1.040587
134.652,73.2301,1.040587
134.682,73.2361,1.040587
134.714,73.2425,0.949820
134.744,73.2487,0.949820
134.775,73.2548,0.949820
134.805,73.2608,0.949820
134.837,73.2671,0.949820
134.870,73.2737,0.949820
134.900,73.2797,0.949820
134.931,73.2858,0.949820
134.962,73.2921,0.862953
134.992,73.2982,0.862953
135.024,73.3044,0.862953
135.056,73.3110,0.862953
135.085,73.3168,0.862953
135.118,73.3234,0.862953
135.148,73.3294,0.862953
135.179,73.3354,0.862953
135.210,73.3418,0.862953
135.241,73.3480,0.779732
135.273,73.3543,0.779732
135.304,73.3605,0.779732
135.335,73.3667,0.779732
135.366,73.3730,0.779732
135.397,73.3792,0.779732
135.429,73.3854,0.779732
135.460,73.3917,0.699884
135.491,73.3978,0.699884
135.523,73.4044,0.699884
135.554,73.4105,0.699884
135.585,73.4167,0.699884
135.614,73.4225,0.699884
135.645,73.4288,0.699884
135.677,73.4351,0.699884
135.706,73.4411,0.699884
135.738,73.4474,0.623804
135.769,73.4536,0.623804
135.801,73.4600,0.623804
135.832,73.4663,0.623804
135.865,73.4728,0.623804
135.896,73.4789,0.623804
135.927,73.4851,0.623804
135.959,73.4916,0.623804
135.990,73.4978,0.551390
136.022,73.5040,0.551390
136.052,73.5102,0.551390
136.083,73.5164,0.551390
136.115,73.5228,0.551390
136.146,73.5289,0.551390
136.178,73.5355,0.551390
136.209,73.5416,0.482791
136.239,73.5475,0.482791
136.270,73.5537,0.482791
136.301,73.5599,0.482791
136.332,73.5661,0.482791
136.363,73.5722,0.482791
136.394,73.5785,0.482791
136.425,73.5847,0.482791
136.456,73.5908,0.482791
136.486,73.5971,0.417688
136.517,73.6032,0.417688
136.548,73.6095,0.417688
136.579,73.6155,0.417688
136.610,73.6219,0.417688
136.642,73.6284,0.417688
136.674,73.6346,0.417688
136.705,73.6408,0.417688
136.736,73.6470,0.356127
136.767,73.6532,0.356127
136.800,73.6600,0.356127
136.830,73.6657,0.356127
136.862,73.6720,0.356127
136.893,73.6784,0.356127
136.925,73.6846,0.356127
136.956,73.6910,0.298203
136.987,73.6970,0.298203
137.018,73.7033,0.298203
137.051,73.7099,0.298203
137.080,73.7158,0.298203
137.111,73.7220,0.298203
137.142,73.7282,0.298203
137.173,73.7344,0.298203
137.204,73.7404,0.298203
137.236,73.7468,0.243605
137.266,73.7529,0.243605
137.297,73.7593,0.243605
137.329,73.7657,0.243605
137.360,73.7717,0.243605
137.391,73.7779,0.243605
137.424,73.7845,0.243605
137.453,73.7905,0.243605
137.484,73.7965,0.192719
137.515,73.8026,0.192719
137.546,73.8088,0.192719
137.577,73.8152,0.192719
137.608,73.8214,0.192719
137.639,73.8276,0.192719
137.671,73.8340,0.192719
137.701,73.8401,0.145441
137.734,73.8465,0.145441
137.764,73.8525,0.145441
137.795,73.8587,0.145441
137.826,73.8649,0.145441
137.858,73.8712,0.145441
137.889,73.8774,0.145441
137.920,73.8837,0.145441
137.951,73.8898,0.145441
137.981,73.8959,0.101640
138.012,73.9021,0.101640
138.043,73.9082,0.101640
138.075,73.9146,0.101640
138.106,73.9209,0.101640
138.137,73.9270,0.101640
138.167,73.9331,0.101640
138.199,73.9397,0.061532
138.230,73.9457,0.061532
138.262,73.9521,0.061532
138.293,73.9583,0.061532
138.324,73.9646,0.061532
138.355,73.9708,0.061532
138.386,73.9769,0.061532
138.417,73.9832,0.061532
138.448,73.9893,0.061532
138.479,73.9957,0.025363
138.510,74.0018,0.025363
138.541,74.0081,0.025363
138.573,74.0143,0.025363
138.604,74.0205,0.025363
138.634,74.0265,0.025363
138.665,74.0327,0.025363
138.696,74.0388,-0.006963
138.727,74.0451,-0.006963
138.758,74.0514,-0.006963
138.790,74.0577,-0.006963
138.820,74.0638,-0.006963
138.851,74.0699,-0.006963
138.882,74.0761,-0.006963
138.912,74.0822,-0.006963
138.943,74.0884,-0.006963
138.974,74.0946,-0.035755
139.006,74.1008,-0.035755
139.036,74.1070,-0.035755
139.068,74.1133,-0.035755
139.099,74.1195,-0.035755
139.131,74.1260,-0.035755
139.162,74.1320,-0.035755
139.193,74.1384,-0.060892
139.224,74.1444,-0.060892
139.256,74.1509,-0.060892
139.287,74.1570,-0.060892
139.317,74.1632,-0.060892
139.347,74.1692,-0.060892
139.379,74.1754,-0.060892
139.409,74.1815,-0.060892
139.440,74.1877,-0.082477
139.471,74.1938,-0.082477
139.502,74.2002,-0.082477
139.534,74.2064,-0.082477
139.565,74.2128,-0.082477
139.596,74.2188,-0.082477
139.626,74.2251,-0.082477
139.657,74.2311,-0.082477
139.689,74.2376,-0.100613
139.720,74.2437,-0.100613
139.752,74.2502,-0.100613
139.783,74.2563,-0.100613
139.814,74.2624,-0.100613
139.846,74.2687,-0.100613
139.876,74.2750,-0.100613
139.907,74.2812,-0.100613
139.938,74.2873,-0.115490
139.969,74.2934,-0.115490
140.000,74.2996,-0.115490
140.031,74.3058,-0.115490
140.062,74.3120,-0.115490
140.093,74.3182,-0.115490
140.124,74.3245,-0.115490
140.155,74.3307,-0.115490
140.186,74.3369,-0.115490
140.217,74.3431,-0.127446
140.248,74.3493,-0.127446
140.280,74.3556,-0.127446
140.311,74.3620,-0.127446
140.343,74.3682,-0.127446
140.374,74.3745,-0.127446
140.405,74.3806,-0.127446
140.437,74.3870,-0.136783
140.467,74.3930,-0.136783
140.498,74.3992,-0.136783
140.529,74.4055,-0.136783
140.560,74.4116,-0.136783
140.591,74.4180,-0.136783
140.622,74.4241,-0.136783
140.653,74.4303,-0.136783
140.684,74.4365,-0.136783
140.715,74.4428,-0.144066
140.746,74.4489,-0.144066
140.778,74.4554,-0.144066
140.808,74.4614,-0.144066
140.839,74.4676,-0.144066
140.871,74.4740,-0.144066
140.903,74.4804,-0.144066
140.934,74.4865,-0.144066
140.965,74.4928,-0.149803
140.996,74.4988,-0.149803
141.027,74.5051,-0.149803
141.058,74.5112,-0.149803
141.089,74.5175,-0.149803
141.120,74.5238,-0.149803
141.152,74.5300,-0.149803
141.182,74.5362,-0.154505
141.214,74.5424,-0.154505
141.244,74.5486,-0.154505
141.275,74.5547,-0.154505
141.306,74.5609,-0.154505
141.337,74.5670,-0.154505
141.368,74.5736,-0.154505
141.400,74.5796,-0.154505
141.431,74.5861,-0.158669
141.463,74.5922,-0.158669
141.494,74.5986,-0.158669
141.524,74.6046,-0.158669
141.555,74.6108,-0.158669
141.586,74.6168,-0.158669
141.615,74.6227,-0.158669
141.647,74.6291,-0.158669
141.677,74.6349,-0.158669
141.708,74.6413,-0.162815
141.740,74.6476,-0.162815
141.771,74.6538,-0.162815
141.802,74.6602,-0.162815
141.834,74.6666,-0.162815
141.864,74.6725,-0.162815
141.896,74.6787,-0.162815
141.926,74.6849,-0.162815
141.958,74.6911,-0.167365
141.989,74.6975,-0.167365
142.020,74.7038,-0.167365
142.052,74.7100,-0.167365
142.082,74.7161,-0.167365
142.112,74.7220,-0.167365
142.143,74.7282,-0.167365
142.174,74.7345,-0.167365
142.205,74.7407,-0.167365
142.235,74.7467,-0.172707
142.267,74.7531,-0.172707
142.298,74.7592,-0.172707
142.329,74.7655,-0.172707
142.361,74.7712,-0.172707
142.392,74.7762,-0.172707
142.423,74.7803,-0.172707
142.454,74.7838,-0.172707
142.485,74.7864,-0.179114
142.515,74.7884,-0.179114
142.546,74.7896,-0.179114
142.578,74.7902,-0.179114
142.608,74.7902,-0.179114
142.639,74.7902,-0.179114
142.669,74.7902,-0.179114
142.701,74.7902,-0.179114
142.732,74.7902,-0.181545
142.763,74.7902,-0.181545
142.794,74.7902,-0.181545
142.826,74.7902,-0.181545
142.857,74.7902,-0.181545
142.888,74.7902,-0.181545
142.920,74.7902,-0.181545
142.950,74.7902,-0.181545
142.981,74.7902,-0.175327
143.012,74.7902,-0.175327
143.044,74.7902,-0.175327
143.074,74.7902,-0.175327
143.106,74.7902,-0.175327
143.136,74.7902,-0.175327
143.168,74.7902,-0.175327
143.199,74.7902,-0.175327
143.230,74.7902,-0.165688
143.261,74.7902,-0.165688
143.292,74.7902,-0.165688
143.324,74.7902,-0.165688
143.355,74.7902,-0.165688
143.386,74.7902,-0.165688
143.418,74.7902,-0.165688
143.449,74.7902,-0.165688
143.481,74.7902,-0.157388
143.512,74.7902,-0.157388
143.544,74.7902,-0.157388
143.574,74.7902,-0.157388
143.606,74.7902,-0.157388
143.637,74.7902,-0.157388
143.667,74.7902,-0.157388
143.698,74.7902,-0.150077
143.728,74.7902,-0.150077
143.760,74.7902,-0.150077
143.791,74.7902,-0.150077
143.822,74.7902,-0.150077
143.853,74.7902,-0.150077
143.884,74.7902,-0.150077
143.915,74.7902,-0.150077
143.946,74.7902,-0.150077
143.978,74.7902,-0.143463
144.010,74.7902,-0.143463
144.040,74.7902,-0.143463
144.072,74.7902,-0.143463
144.102,74.7902,-0.143463
144.134,74.7902,-0.143463
144.165,74.7902,-0.143463
144.195,74.7902,-0.143463
144.226,74.7902,-0.137461
144.258,74.7902,-0.137461
144.290,74.7902,-0.137461
144.320,74.7902,-0.137461
144.351,74.7902,-0.137461
144.382,74.7902,-0.137461
144.414,74.7902,-0.137461
144.445,74.7902,-0.137461
144.475,74.7902,-0.132044
144.506,74.7902,-0.132044
144.537,74.7902,-0.132044
144.568,74.7902,-0.132044
144.599,74.7902,-0.132044
144.631,74.7902,-0.132044
144.662,74.7902,-0.132044
144.693,74.7902,-0.127079
144.725,74.7902,-0.127079
144.756,74.7902,-0.127079
144.787,74.7902,-0.127079
144.818,74.7902,-0.127079
144.849,74.7902,-0.127079
144.880,74.7902,-0.127079
144.911,74.7902,-0.127079
144.942,74.7902,-0.127079
144.973,74.7902,-0.122528
145.004,74.7902,-0.122528
145.035,74.7902,-0.122528
145.065,74.7902,-0.122528
145.096,74.7902,-0.122528
145.127,74.7902,-0.122528
145.159,74.7902,-0.122528
145.190,74.7902,-0.118279
145.222,74.7902,-0.118279
145.253,74.7902,-0.118279
145.284,74.7902,-0.118279
145.315,74.7902,-0.118279
145.347,74.7902,-0.118279
145.377,74.7902,-0.118279
145.408,74.7902,-0.118279
145.439,74.7902,-0.114227
145.471,74.7902,-0.114227
145.502,74.7902,-0.114227
145.533,74.7902,-0.114227
145.565,74.7902,-0.114227
145.597,74.7902,-0.114227
145.627,74.7902,-0.114227
145.659,74.7902,-0.114227
145.690,74.7902,-0.114227
145.720,74.7902,-0.110478
145.751,74.7902,-0.110478
145.782,74.7902,-0.110478
145.813,74.7902,-0.110478
145.845,74.7902,-0.110478
145.877,74.7902,-0.110478
145.909,74.7902,-0.110478
145.938,74.7902,-0.107029
145.970,74.7902,-0.107029
146.000,74.7902,-0.107029
146.033,74.7902,-0.107029
146.063,74.7902,-0.107029
146.096,74.7902,-0.107029
146.125,74.7902,-0.107029
146.156,74.7902,-0.107029
146.187,74.7902,-0.107029
146.218,74.7902,-0.103656
146.249,74.7902,-0.103656
146.280,74.7902,-0.103656
146.311,74.7902,-0.103656
146.342,74.7902,-0.103656
146.373,74.7902,-0.103656
146.404,74.7902,-0.103656
146.435,74.7902,-0.100359
146.466,74.7902,-0.100359
146.497,74.7902,-0.100359
146.528,74.7902,-0.100359
146.559,74.7902,-0.100359
146.590,74.7902,-0.100359
146.621,74.7902,-0.100359
146.652,74.7902,-0.100359
146.683,74.7902,-0.100359
146.714,74.7902,-0.097344
146.746,74.7902,-0.097344
146.777,74.7902,-0.097344
146.808,74.7902,-0.097344
146.838,74.7902,-0.097344
146.869,74.7902,-0.097344
146.901,74.7902,-0.097344
146.932,74.7902,-0.094527
146.964,74.7902,-0.094527
146.996,74.7902,-0.094527
147.027,74.7902,-0.094527
147.059,74.7902,-0.094527
147.090,74.7902,-0.094527
147.121,74.7902,-0.094527
147.152,74.7902,-0.094527
147.183,74.7896,-0.091832
147.215,74.7882,-0.091832
147.245,74.7863,-0.091832
147.275,74.7834,-0.091832
147.306,74.7798,-0.091832
147.338,74.7757,-0.091832
147.369,74.7705,-0.091832
147.401,74.7648,-0.091832
147.432,74.7585,-0.091832
147.463,74.7523,-0.091832
147.494,74.7461,-0.087998
147.525,74.7400,-0.087998
147.555,74.7338,-0.087998
147.586,74.7277,-0.087998
147.616,74.7218,-0.087998
147.647,74.7156,-0.087998
147.678,74.7095,-0.087998
147.708,74.7032,-0.079735
147.739,74.6972,-0.079735
147.770,74.6909,-0.079735
147.801,74.6849,-0.079735
147.832,74.6785,-0.079735
147.863,74.6725,-0.079735
147.894,74.6662,-0.079735
147.924,74.6601,-0.079735
147.955,74.6539,-0.079735
147.986,74.6478,-0.068241
148.018,74.6415,-0.068241
148.049,74.6352,-0.068241
148.081,74.6287,-0.068241
148.112,74.6227,-0.068241
148.143,74.6163,-0.068241
148.173,74.6101,-0.068241
148.204,74.6042,-0.055804
148.235,74.5980,-0.055804
148.265,74.5919,-0.055804
148.297,74.5856,-0.055804
148.328,74.5793,-0.055804
148.359,74.5732,-0.055804
148.390,74.5670,-0.055804
148.421,74.5608,-0.055804
148.452,74.5546,-0.055804
148.483,74.5484,-0.040777
148.515,74.5419,-0.040777
148.547,74.5356,-0.040777
148.578,74.5294,-0.040777
148.609,74.5232,-0.040777
148.641,74.5168,-0.040777
148.671,74.5108,-0.040777
148.702,74.5046,-0.021566
148.733,74.4984,-0.021566
148.764,74.4922,-0.021566
148.795,74.4859,-0.021566
148.826,74.4797,-0.021566
148.858,74.4733,-0.021566
148.888,74.4674,-0.021566
148.919,74.4611,-0.021566
148.950,74.4549,-0.021566
148.982,74.4487,0.003081
149.013,74.4423,0.003081
149.044,74.4361,0.003081
149.075,74.4301,0.003081
149.106,74.4236,0.003081
149.137,74.4177,0.003081
149.168,74.4113,0.003081
149.200,74.4050,0.033918
149.231,74.3988,0.033918
149.261,74.3926,0.033918
149.292,74.3865,0.033918
149.324,74.3802,0.033918
149.355,74.3739,0.033918
149.386,74.3678,0.033918
149.417,74.3616,0.033918
149.449,74.3553,0.071303
149.479,74.3491,0.071303
149.510,74.3430,0.071303
149.541,74.3367,0.071303
149.573,74.3303,0.071303
149.603,74.3243,0.071303
149.634,74.3182,0.071303
149.665,74.3120,0.071303
149.696,74.3058,0.114925
149.727,74.2996,0.114925
149.758,74.2935,0.114925
149.790,74.2871,0.114925
149.821,74.2807,0.114925
149.851,74.2748,0.114925
149.882,74.2686,0.114925
149.913,74.2621,0.114925
149.945,74.2561,0.164784
149.976,74.2496,0.164784
150.007,74.2437,0.164784
150.039,74.2371,0.164784
150.070,74.2310,0.164784
150.101,74.2248,0.164784
150.133,74.2185,0.164784
150.164,74.2122,0.164784
150.195,74.2060,0.220531
150.226,74.1997,0.220531
150.257,74.1937,0.220531
150.288,74.1873,0.220531
150.319,74.1811,0.220531
150.350,74.1749,0.220531
150.381,74.1687,0.220531
150.412,74.1627,0.220531
150.442,74.1565,0.281320
150.473,74.1504,0.281320
150.504,74.1441,0.281320
150.536,74.1379,0.281320
150.567,74.1315,0.281320
150.598,74.1253,0.281320
150.630,74.1190,0.281320
150.661,74.1128,0.281320
150.692,74.1064,0.346300
150.724,74.1002,0.346300
150.756,74.0937,0.346300
150.787,74.0876,0.346300
150.819,74.0811,0.346300
150.850,74.0750,0.346300
150.880,74.0690,0.346300
150.912,74.0626,0.346300
150.942,74.0566,0.414918
150.973,74.0502,0.414918
151.004,74.0441,0.414918
151.034,74.0381,0.414918
151.065,74.0321,0.414918
151.097,74.0257,0.414918
151.128,74.0194,0.414918
151.160,74.0131,0.414918
151.191,74.0068,0.414918
151.222,74.0007,0.487436
151.252,73.9946,0.487436
151.284,73.9883,0.487436
151.315,73.9821,0.487436
151.346,73.9759,0.487436
151.377,73.9696,0.487436
151.407,73.9635,0.487436
151.439,73.9572,0.487436
151.471,73.9508,0.563628
151.502,73.9445,0.563628
151.533,73.9382,0.563628
151.563,73.9324,0.563628
151.594,73.9263,0.563628
151.624,73.9202,0.563628
151.656,73.9139,0.563628
151.686,73.9077,0.563628
151.717,73.9015,0.643316
151.748,73.8954,0.643316
151.780,73.8889,0.643316
151.811,73.8826,0.643316
151.843,73.8765,0.643316
151.874,73.8702,0.643316
151.904,73.8641,0.643316
151.936,73.8578,0.725962
151.969,73.8512,0.725962
151.998,73.8452,0.725962
152.030,73.8391,0.725962
152.061,73.8329,0.725962
152.092,73.8266,0.725962
152.123,73.8205,0.725962
152.153,73.8145,0.725962
152.183,73.8085,0.725962
152.213,73.8024,0.811002
152.244,73.7962,0.811002
152.276,73.7899,0.811002
152.307,73.7837,0.811002
152.339,73.7773,0.811002
152.370,73.7711,0.811002
152.401,73.7648,0.811002
152.432,73.7586,0.811002
152.464,73.7523,0.899084
152.495,73.7461,0.899084
152.525,73.7401,0.899084
152.557,73.7337,0.899084
152.587,73.7276,0.899084
152.618,73.7214,0.899084
152.649,73.7151,0.899084
152.681,73.7089,0.990342
152.712,73.7025,0.990342
152.743,73.6965,0.990342
152.774,73.6903,0.990342
152.805,73.6839,0.990342
152.835,73.6780,0.990342
152.867,73.6715,0.990342
152.899,73.6653,0.990342
152.929,73.6590,0.990342
152.961,73.6529,1.084586
152.992,73.6466,1.084586
153.023,73.6404,1.084586
153.054,73.6341,1.084586
153.085,73.6280,1.084586
153.116,73.6216,1.084586
153.146,73.6158,1.084586
153.178,73.6095,1.181063
153.210,73.6031,1.181063
153.241,73.5969,1.181063
153.272,73.5905,1.181063
153.303,73.5843,1.181063
153.333,73.5784,1.181063
153.364,73.5722,1.181063
153.395,73.5660,1.181063
153.425,73.5600,1.181063
153.456,73.5538,1.279425
153.487,73.5478,1.279425
153.518,73.5414,1.279425
153.549,73.5352,1.279425
153.581,73.5287,1.279425
153.611,73.5228,1.279425
153.642,73.5165,1.279425
153.673,73.5103,1.279425
153.704,73.5044,1.379294
153.735,73.4979,1.379294
153.767,73.4917,1.379294
153.798,73.4853,1.379294
153.829,73.4790,1.379294
153.861,73.4728,1.379294
153.891,73.4666,1.379294
153.922,73.4606,1.379294
153.953,73.4542,1.480322
153.984,73.4483,1.480322
154.015,73.4420,1.480322
154.046,73.4359,1.480322
154.077,73.4294,1.480322
154.108,73.4234,1.480322
154.141,73.4168,1.480322
154.171,73.4108,1.480322
154.202,73.4045,1.480322
154.233,73.3984,1.582885
154.264,73.3921,1.582885
154.296,73.3858,1.582885
154.327,73.3797,1.582885
154.358,73.3733,1.582885
154.389,73.3672,1.582885
154.420,73.3609,1.582885
154.451,73.3548,1.582885
154.482,73.3485,1.686975
154.514,73.3421,1.686975
154.545,73.3359,1.686975
154.577,73.3297,1.686975
154.607,73.3235,1.686975
154.638,73.3173,1.686975
154.669,73.3112,1.686975
154.701,73.3048,1.686975
154.731,73.2988,1.793156
154.762,73.2926,1.793156
154.793,73.2864,1.793156
154.824,73.2802,1.793156
154.855,73.2740,1.793156
154.885,73.2678,1.793156
154.916,73.2619,1.793156
154.947,73.2554,1.793156
154.978,73.2495,1.900940
155.010,73.2432,1.900940
155.041,73.2370,1.900940
155.072,73.2305,1.900940
155.103,73.2243,1.900940
155.134,73.2182,1.900940
155.165,73.2119,1.900940
155.196,73.2058,1.900940
155.228,73.1995,2.010211
155.259,73.1932,2.010211
155.290,73.1871,2.010211
155.320,73.1809,2.010211
155.351,73.1748,2.010211
155.383,73.1684,2.010211
155.414,73.1623,2.010211
155.445,73.1560,2.010211
155.476,73.1499,2.120293
155.508,73.1434,2.120293
155.539,73.1372,2.120293
155.571,73.1308,2.120293
155.601,73.1247,2.120293
155.632,73.1185,2.120293
155.663,73.1126,2.120293
155.694,73.1061,2.120293
155.725,73.1000,2.229989
155.757,73.0935,2.229989
155.787,73.0876,2.229989
155.818,73.0813,2.229989
155.850,73.0751,2.229989
155.881,73.0687,2.229989
155.913,73.0625,2.229989
155.944,73.0561,2.229989
155.976,73.0499,2.340212
156.007,73.0437,2.340212
156.038,73.0375,2.340212
156.068,73.0313,2.340212
156.099,73.0252,2.340212
156.130,73.0188,2.340212
156.162,73.0127,2.340212
156.193,73.0064,2.340212
156.223,73.0004,2.451632
156.254,72.9940,2.451632
156.286,72.9879,2.451632
156.317,72.9815,2.451632
156.349,72.9751,2.451632
156.380,72.9691,2.451632
156.411,72.9626,2.451632
156.441,72.9567,2.565709
156.473,72.9505,2.565709
156.504,72.9441,2.565709
156.536,72.9377,2.565709
156.567,72.9316,2.565709
156.598,72.9255,2.565709
156.629,72.9193,2.565709
156.660,72.9130,2.565709
156.691,72.9067,2.565709
156.723,72.9004,2.682810
156.753,72.8944,2.682810
156.784,72.8881,2.682810
156.815,72.8820,2.682810
156.847,72.8757,2.682810
156.879,72.8692,2.682810
156.910,72.8631,2.682810
156.941,72.8569,2.682810
156.973,72.8505,2.800853
157.003,72.8445,2.800853
157.034,72.8382,2.800853
157.065,72.8319,2.800853
157.096,72.8258,2.800853
157.127,72.8196,2.800853
157.159,72.8132,2.800853
157.191,72.8068,2.800853
157.223,72.8005,2.918670
157.253,72.7943,2.918670
157.283,72.7884,2.918670
157.314,72.7822,2.918670
157.346,72.7758,2.918670
157.378,72.7695,2.918670
157.409,72.7632,2.918670
157.440,72.7570,3.037835
157.471,72.7509,3.037835
157.502,72.7447,3.037835
157.534,72.7383,3.037835
157.564,72.7322,3.037835
157.596,72.7257,3.037835
157.626,72.7199,3.037835
157.657,72.7137,3.037835
157.688,72.7075,3.159882
157.719,72.7012,3.159882
157.750,72.6951,3.159882
157.781,72.6888,3.159882
157.812,72.6826,3.159882
157.842,72.6765,3.159882
157.874,72.6703,3.159882
157.905,72.6641,3.159882
157.936,72.6578,3.159882
157.967,72.6516,3.283418
157.998,72.6455,3.283418
158.028,72.6393,3.283418
158.059,72.6332,3.283418
158.090,72.6270,3.283418
158.120,72.6211,3.283418
158.151,72.6149,3.283418
158.183,72.6085,3.283418
158.213,72.6023,3.407953
158.244,72.5963,3.407953
158.275,72.5902,3.407953
158.306,72.5838,3.407953
158.336,72.5779,3.407953
158.368,72.5713,3.407953
158.397,72.5656,3.407953
158.429,72.5593,3.407953
158.460,72.5532,3.532826
158.490,72.5469,3.532826
158.521,72.5408,3.532826
158.553,72.5345,3.532826
158.584,72.5284,3.532826
158.616,72.5220,3.532826
158.646,72.5158,3.532826
158.678,72.5096,3.532826
158.708,72.5035,3.658322
158.740,72.4972,3.658322
158.770,72.4911,3.658322
158.800,72.4850,3.658322
158.831,72.4789,3.658322
158.862,72.4726,3.658322
158.893,72.4664,3.658322
158.924,72.4603,3.658322
158.955,72.4541,3.787238
158.987,72.4477,3.787238
159.017,72.4416,3.787238
159.047,72.4355,3.787238
159.077,72.4297,3.787238
159.108,72.4234,3.787238
159.139,72.4174,3.787238
159.170,72.4110,3.787238
159.202,72.4048,3.918453
159.231,72.3987,3.918453
159.263,72.3926,3.918453
159.294,72.3862,3.918453
159.325,72.3802,3.918453
159.355,72.3739,3.918453
159.386,72.3678,3.918453
159.417,72.3617,3.918453
159.448,72.3555,4.049526
159.479,72.3492,4.049526
159.510,72.3429,4.049526
159.541,72.3368,4.049526
159.573,72.3305,4.049526
159.605,72.3241,4.049526
159.635,72.3181,4.049526
159.666,72.3119,4.049526
159.697,72.3058,4.049526
159.728,72.2995,4.180778
159.759,72.2933,4.180778
159.790,72.2869,4.180778
159.821,72.2809,4.180778
159.852,72.2744,4.180778
159.884,72.2683,4.180778
159.915,72.2620,4.180778
159.946,72.2558,4.313726
159.978,72.2495,4.313726
160.008,72.2434,4.313726
160.040,72.2371,4.313726
160.071,72.2309,4.313726
160.102,72.2247,4.313726
160.133,72.2185,4.313726
160.164,72.2122,4.313726
160.195,72.2058,4.447108
160.226,72.1997,4.447108
160.257,72.1937,4.447108
160.288,72.1873,4.447108
160.319,72.1813,4.447108
160.350,72.1749,4.447108
160.382,72.1687,4.447108
160.412,72.1625,4.447108
160.443,72.1565,4.579463
160.474,72.1504,4.579463
160.505,72.1441,4.579463
160.537,72.1377,4.579463
160.567,72.1317,4.579463
160.598,72.1255,4.579463
160.629,72.1193,4.579463
160.660,72.1129,4.579463
160.692,72.1067,4.579463
160.723,72.1005,4.712307
160.755,72.0941,4.712307
160.785,72.0881,4.712307
160.816,72.0818,4.712307
160.847,72.0756,4.712307
160.878,72.0694,4.712307
160.909,72.0632,4.712307
160.940,72.0569,4.712307
160.971,72.0509,4.844586
161.003,72.0446,4.844586
161.034,72.0384,4.844586
161.064,72.0322,4.844586
161.095,72.0261,4.844586
161.127,72.0195,4.844586
161.158,72.0135,4.844586
161.189,72.0071,4.844586
161.219,72.0012,4.975010
161.250,71.9950,4.975010
161.282,71.9885,4.975010
161.312,71.9826,4.975010
161.343,71.9765,4.975010
161.374,71.9703,4.975010
161.404,71.9642,4.975010
161.435,71.9580,4.975010
161.468,71.9516,5.100628
161.498,71.9456,5.100628
161.530,71.9392,5.100628
161.561,71.9330,5.100628
161.592,71.9266,5.100628
161.622,71.9206,5.100628
161.653,71.9146,5.100628
161.684,71.9083,5.218322
161.714,71.9022,5.218322
161.746,71.8958,5.218322
161.778,71.8896,5.218322
161.809,71.8832,5.218322
161.840,71.8770,5.218322
161.870,71.8711,5.218322
161.902,71.8645,5.218322
161.934,71.8582,5.327811
161.965,71.8521,5.327811
161.995,71.8460,5.327811
162.027,71.8397,5.327811
162.058,71.8334,5.327811
162.089,71.8271,5.327811
162.121,71.8210,5.327811
162.152,71.8144,5.327811
162.182,71.8087,5.327811
162.214,71.8021,5.327811
162.246,71.7959,5.429404
162.276,71.7899,5.429404
162.306,71.7839,5.429404
162.337,71.7777,5.429404
162.368,71.7712,5.429404
162.400,71.7652,5.429404
162.431,71.7593,5.429404
162.462,71.7545,3.637001
162.493,71.7503,3.637001
162.524,71.7469,3.637001
162.555,71.7442,3.637001
162.586,71.7421,3.637001
162.617,71.7409,3.637001
162.649,71.7402,3.637001
162.680,71.7402,3.637001
162.711,71.7402,0.908063
162.742,71.7402,0.908063
162.773,71.7402,0.908063
162.804,71.7402,0.908063
162.835,71.7402,0.908063
162.866,71.7402,0.908063
162.897,71.7402,0.908063
162.929,71.7402,0.908063
162.960,71.7402,0.908063
162.991,71.7402,0.020313
163.023,71.7402,0.020313
163.054,71.7402,0.020313
163.085,71.7402,0.020313
163.116,71.7402,0.020313
163.147,71.7402,0.020313
163.177,71.7406,0.020313
163.208,71.7416,0.019908
163.239,71.7435,0.019908
163.270,71.7459,0.019908
163.301,71.7492,0.019908
163.332,71.7533,0.019908
163.363,71.7580,0.019908
163.393,71.7632,0.019908
163.424,71.7694,0.019908
163.455,71.7755,0.019503
163.486,71.7817,0.019503
163.517,71.7881,0.019503
163.548,71.7941,0.019503
163.579,71.8001,0.019503
163.609,71.8062,0.019503
163.640,71.8125,0.019503
163.672,71.8187,0.019503
163.702,71.8249,0.019201
163.734,71.8313,0.019201
163.765,71.8376,0.019201
163.797,71.8438,0.019201
163.829,71.8504,0.019201
163.859,71.8563,0.019201
163.891,71.8625,0.019201
163.922,71.8687,0.019201
163.953,71.8749,0.018966
163.984,71.8814,0.018966
164.016,71.8876,0.018966
164.047,71.8939,0.018966
164.079,71.9002,0.018966
164.110,71.9064,0.018966
164.141,71.9128,0.018966
164.172,71.9187,0.018966
164.203,71.9249,0.018674
164.234,71.9311,0.018674
164.265,71.9373,0.018674
164.296,71.9435,0.018674
164.327,71.9497,0.018674
164.358,71.9559,0.018674
164.388,71.9620,0.018674
164.419,71.9682,0.018674
164.450,71.9744,0.018466
164.481,71.9806,0.018466
164.512,71.9867,0.018466
164.543,71.9930,0.018466
164.574,71.9992,0.018466
164.606,72.0057,0.018466
164.638,72.0119,0.018466
164.669,72.0184,0.018466
164.700,72.0246,0.018353
164.731,72.0307,0.018353
164.763,72.0369,0.018353
164.793,72.0430,0.018353
164.824,72.0492,0.018353
164.855,72.0555,0.018353
164.886,72.0616,0.018353
164.917,72.0679,0.018353
164.948,72.0741,0.018231
164.979,72.0802,0.018231
165.011,72.0865,0.018231
165.041,72.0927,0.018231
165.073,72.0989,0.018231
165.103,72.1051,0.018231
165.134,72.1113,0.018231
165.165,72.1174,0.018231
165.197,72.1236,0.018108
165.227,72.1298,0.018108
165.258,72.1361,0.018108
165.290,72.1423,0.018108
165.321,72.1488,0.018108
165.352,72.1547,0.018108
165.382,72.1609,0.018108
165.413,72.1671,0.018108
165.444,72.1733,0.018005
165.474,72.1793,0.018005
165.506,72.1857,0.018005
165.537,72.1917,0.018005
165.568,72.1980,0.018005
165.599,72.2041,0.018005
165.629,72.2102,0.018005
165.660,72.2165,0.018005
165.691,72.2226,0.017901
165.722,72.2286,0.017901
165.753,72.2350,0.017901
165.784,72.2412,0.017901
165.814,72.2472,0.017901
165.846,72.2536,0.017901
165.877,72.2598,0.017901
165.909,72.2661,0.017901
165.940,72.2723,0.017826
165.970,72.2785,0.017826
166.002,72.2847,0.017826
166.032,72.2908,0.017826
166.064,72.2971,0.017826
166.095,72.3034,0.017826
166.125,72.3095,0.017826
166.156,72.3157,0.017826
166.187,72.3217,0.017694
166.218,72.3281,0.017694
166.249,72.3342,0.017694
166.280,72.3405,0.017694
166.312,72.3467,0.017694
166.343,72.3532,0.017694
166.374,72.3592,0.017694
166.405,72.3654,0.017694
166.436,72.3715,0.017694
166.468,72.3780,0.017694
166.499,72.3840,0.017590
166.529,72.3904,0.017590
166.560,72.3964,0.017590
166.592,72.4029,0.017590
166.623,72.4091,0.017590
166.655,72.4154,0.017590
166.685,72.4214,0.017590
166.717,72.4277,0.017543
166.747,72.4338,0.017543
166.778,72.4401,0.017543
166.810,72.4464,0.017543
166.840,72.4525,0.017543
166.871,72.4586,0.017543
166.901,72.4644,0.017543
166.932,72.4707,0.017543
166.962,72.4767,0.017468
166.994,72.4833,0.017468
167.025,72.4895,0.017468
167.056,72.4957,0.017468
167.087,72.5017,0.017468
167.118,72.5079,0.017468
167.149,72.5141,0.017468
167.180,72.5203,0.017468
167.211,72.5268,0.017439
167.243,72.5330,0.017439
167.275,72.5393,0.017439
167.306,72.5456,0.017439
167.338,72.5519,0.017439
167.369,72.5583,0.017439
167.399,72.5641,0.017439
167.430,72.5705,0.017439
167.461,72.5764,0.017421
167.492,72.5829,0.017421
167.523,72.5891,0.017421
167.554,72.5954,0.017421
167.586,72.6016,0.017421
167.617,72.6079,0.017421
167.648,72.6139,0.017421
167.679,72.6203,0.017421
167.711,72.6265,0.017223
167.742,72.6327,0.017223
167.773,72.6389,0.017223
167.804,72.6452,0.017223
167.836,72.6517,0.017223
167.867,72.6578,0.017223
167.898,72.6640,0.017223
167.930,72.6703,0.017223
167.960,72.6765,0.017128
167.991,72.6827,0.017128
168.022,72.6889,0.017128
168.054,72.6953,0.017128
168.085,72.7013,0.017128
168.116,72.7077,0.017128
168.147,72.7137,0.017128
168.178,72.7202,0.017128
168.209,72.7262,0.017128
168.240,72.7324,0.017128
168.271,72.7388,0.017128
168.303,72.7451,0.017128
168.334,72.7512,0.017128
168.365,72.7574,0.017128
168.396,72.7636,0.017128
168.427,72.7698,0.017128
168.459,72.7761,0.017025
168.489,72.7822,0.017025
168.520,72.7885,0.017025
168.551,72.7946,0.017025
168.582,72.8008,0.017025
168.612,72.8070,0.017025
168.644,72.8132,0.017025
168.675,72.8195,0.017025
168.706,72.8256,0.017025
168.738,72.8320,0.016921
168.768,72.8381,0.016921
168.799,72.8443,0.016921
168.831,72.8505,0.016921
168.861,72.8567,0.016921
168.893,72.8629,0.016921
168.924,72.8692,0.016921
168.955,72.8754,0.016874
168.985,72.8814,0.016874
169.017,72.8878,0.016874
169.047,72.8939,0.016874
169.078,72.9000,0.016874
169.109,72.9062,0.016874
169.141,72.9125,0.016874
169.172,72.9188,0.016874
169.203,72.9250,0.016874
169.234,72.9311,0.016846
169.265,72.9374,0.016846
169.296,72.9435,0.016846
169.327,72.9498,0.016846
169.358,72.9559,0.016846
169.390,72.9624,0.016846
169.420,72.9683,0.016846
169.452,72.9748,0.016752
169.484,72.9811,0.016752
169.513,72.9870,0.016752
169.545,72.9934,0.016752
169.576,72.9996,0.016752
169.608,73.0059,0.016752
169.639,73.0122,0.016752
169.669,73.0182,0.016752
169.700,73.0244,0.016752
169.731,73.0306,0.016601
169.762,73.0368,0.016601
169.793,73.0429,0.016601
169.824,73.0491,0.016601
169.856,73.0556,0.016601
169.886,73.0615,0.016601
169.917,73.0677,0.016601
169.948,73.0740,0.016460
169.981,73.0804,0.016460
170.011,73.0865,0.016460
170.042,73.0928,0.016460
170.072,73.0989,0.016460
170.104,73.1051,0.016460
170.135,73.1113,0.016460
170.166,73.1176,0.016460
170.198,73.1241,0.016412
170.229,73.1302,0.016412
170.261,73.1365,0.016412
170.291,73.1425,0.016412
170.323,73.1489,0.016412
170.354,73.1551,0.016412
170.385,73.1615,0.016412
170.417,73.1676,0.016412
170.448,73.1740,0.016412
170.479,73.1800,0.016375
170.510,73.1864,0.016375
170.541,73.1924,0.016375
170.572,73.1989,0.016375
170.604,73.2052,0.016375
170.634,73.2112,0.016375
170.667,73.2176,0.016375
170.697,73.2238,0.016196
170.728,73.2299,0.016196
170.759,73.2362,0.016196
170.789,73.2422,0.016196
170.821,73.2486,0.016196
170.853,73.2551,0.016196
170.884,73.2611,0.016196
170.915,73.2672,0.016196
170.946,73.2734,0.016196
170.977,73.2799,0.016017
171.008,73.2858,0.016017
171.038,73.2920,0.016017
171.069,73.2981,0.016017
171.099,73.3043,0.016017
171.131,73.3105,0.016017
171.160,73.3163,0.016017
171.191,73.3227,0.015857
171.222,73.3289,0.015857
171.253,73.3349,0.015857
171.284,73.3410,0.015857
171.315,73.3473,0.015857
171.346,73.3537,0.015857
171.377,73.3597,0.015857
171.408,73.3659,0.015857
171.439,73.3721,0.015857
171.470,73.3783,0.015640
171.502,73.3847,0.015640
171.534,73.3911,0.015640
171.565,73.3973,0.015640
171.596,73.4036,0.015640
171.627,73.4097,0.015640
171.657,73.4158,0.015640
171.688,73.4221,0.015404
171.719,73.4281,0.015404
171.750,73.4343,0.015404
171.782,73.4407,0.015404
171.813,73.4469,0.015404
171.844,73.4534,0.015404
171.875,73.4593,0.015404
171.905,73.4653,0.015404
171.936,73.4716,0.015404
171.966,73.4776,0.015112
171.998,73.4839,0.015112
172.029,73.4902,0.015112
172.060,73.4964,0.015112
172.091,73.5025,0.015112
172.122,73.5087,0.015112
172.153,73.5149,0.015112
172.183,73.5210,0.014811
172.216,73.5274,0.014811
172.245,73.5335,0.014811
172.276,73.5396,0.014811
172.307,73.5458,0.014811
172.339,73.5521,0.014811
172.370,73.5583,0.014811
172.400,73.5644,0.014811
172.431,73.5706,0.014811
172.463,73.5769,0.014472
172.493,73.5830,0.014472
172.525,73.5894,0.014472
172.555,73.5954,0.014472
172.587,73.6018,0.014472
172.618,73.6079,0.014472
172.650,73.6145,0.014472
172.681,73.6204,0.014472
172.711,73.6265,0.014038
172.743,73.6330,0.014038
172.774,73.6393,0.014038
172.805,73.6454,0.014038
172.837,73.6518,0.014038
172.867,73.6576,0.014038
172.898,73.6640,0.014038
172.930,73.6704,0.013463
172.961,73.6767,0.013463
172.992,73.6827,0.013463
173.023,73.6890,0.013463
173.055,73.6952,0.013463
173.085,73.7013,0.013463
173.116,73.7076,0.013463
173.147,73.7138,0.013463
173.178,73.7199,0.013463
173.209,73.7261,0.012738
173.241,73.7326,0.012738
173.272,73.7386,0.012738
173.303,73.7448,0.012738
173.334,73.7510,0.012738
173.366,73.7575,0.012738
173.398,73.7639,0.012738
173.428,73.7699,0.012738
173.458,73.7760,0.011815
173.489,73.7822,0.011815
173.520,73.7882,0.011815
173.552,73.7948,0.011815
173.584,73.8011,0.011815
173.614,73.8072,0.011815
173.645,73.8133,0.011815
173.676,73.8196,0.011815
173.707,73.8257,0.010590
173.738,73.8320,0.010590
173.769,73.8381,0.010590
173.800,73.8444,0.010590
173.832,73.8507,0.010590
173.864,73.8572,0.010590
173.895,73.8633,0.010590
173.927,73.8698,0.010590
173.958,73.8758,0.008951
173.989,73.8821,0.008951
174.019,73.8882,0.008951
174.052,73.8947,0.008951
174.082,73.9007,0.008951
174.114,73.9073,0.008951
174.145,73.9133,0.008951
174.176,73.9196,0.008951
174.208,73.9260,0.006812
174.239,73.9321,0.006812
174.269,73.9382,0.006812
174.301,73.9445,0.006812
174.332,73.9507,0.006812
174.362,73.9567,0.006812
174.393,73.9630,0.006812
174.424,73.9691,0.004061
174.455,73.9754,0.004061
174.486,73.9815,0.004061
174.517,73.9877,0.004061
174.548,73.9940,0.004061
174.579,74.0002,0.004061
174.610,74.0064,0.004061
174.641,74.0127,0.004061
174.673,74.0188,0.004061
174.703,74.0250,0.004061
174.734,74.0312,0.000424
174.766,74.0374,0.000424
174.796,74.0435,0.000424
174.827,74.0497,0.000424
174.859,74.0563,0.000424
174.890,74.0623,0.000424
174.921,74.0684,0.000424
174.951,74.0746,0.000424
174.983,74.0808,-0.004296
175.014,74.0871,-0.004296
175.045,74.0932,-0.004296
175.076,74.0995,-0.004296
175.106,74.1057,-0.004296
175.137,74.1116,-0.004296
175.167,74.1178,-0.004296
175.199,74.1241,-0.004296
175.230,74.1303,-0.010298
175.261,74.1365,-0.010298
175.292,74.1427,-0.010298
175.324,74.1490,-0.010298
175.355,74.1552,-0.010298
175.387,74.1617,-0.010298
175.418,74.1679,-0.010298
175.449,74.1742,-0.010298
175.480,74.1803,-0.017534
175.511,74.1864,-0.017534
175.541,74.1926,-0.017534
175.573,74.1989,-0.017534
175.603,74.2050,-0.017534
175.635,74.2113,-0.017534
175.665,74.2174,-0.017534
175.696,74.2234,-0.017534
175.727,74.2299,-0.025909
175.758,74.2360,-0.025909
175.789,74.2423,-0.025909
175.821,74.2486,-0.025909
175.852,74.2548,-0.025909
175.884,74.2610,-0.025909
175.914,74.2672,-0.025909
175.944,74.2732,-0.035246
175.976,74.2795,-0.035246
176.007,74.2856,-0.035246
176.038,74.2920,-0.035246
176.068,74.2980,-0.035246
176.099,74.3041,-0.035246
176.130,74.3104,-0.035246
176.161,74.3166,-0.035246
176.191,74.3227,-0.044998
176.223,74.3289,-0.044998
176.254,74.3353,-0.044998
176.285,74.3414,-0.044998
176.316,74.3476,-0.044998
176.347,74.3538,-0.044998
176.378,74.3600,-0.044998
176.409,74.3663,-0.044998
176.440,74.3724,-0.054711
176.472,74.3786,-0.054711
176.503,74.3848,-0.054711
176.534,74.3912,-0.054711
176.565,74.3973,-0.054711
176.596,74.4035,-0.054711
176.626,74.4095,-0.054711
176.657,74.4157,-0.054711
176.687,74.4218,-0.054711
176.719,74.4281,-0.063897
176.751,74.4344,-0.063897
176.781,74.4404,-0.063897
176.812,74.4467,-0.063897
176.843,74.4529,-0.063897
176.873,74.4590,-0.063897
176.904,74.4652,-0.063897
176.936,74.4715,-0.072301
176.967,74.4777,-0.072301
176.997,74.4838,-0.072301
177.028,74.4900,-0.072301
177.058,74.4960,-0.072301
177.089,74.5021,-0.072301
177.121,74.5084,-0.072301
177.152,74.5148,-0.072301
177.183,74.5211,-0.072301
177.214,74.5272,-0.079773
177.246,74.5335,-0.079773
177.276,74.5396,-0.079773
177.307,74.5459,-0.079773
177.338,74.5519,-0.079773
177.369,74.5582,-0.079773
177.400,74.5644,-0.079773
177.432,74.5708,-0.079773
177.463,74.5769,-0.086066
177.494,74.5831,-0.086066
177.525,74.5893,-0.086066
177.556,74.5956,-0.086066
177.587,74.6016,-0.086066
177.618,74.6079,-0.086066
177.650,74.6144,-0.086066
177.681,74.6204,-0.086066
177.712,74.6269,-0.091399
177.743,74.6330,-0.091399
177.774,74.6390,-0.091399
177.806,74.6455,-0.091399
177.836,74.6516,-0.091399
177.867,74.6578,-0.091399
177.899,74.6641,-0.091399
177.931,74.6704,-0.091399
177.962,74.6767,-0.095959
177.993,74.6828,-0.095959
178.025,74.6893,-0.095959
178.054,74.6951,-0.095959
178.086,74.7014,-0.095959
178.117,74.7076,-0.095959
178.148,74.7138,-0.095959
178.179,74.7198,-0.099831
178.210,74.7249,-0.099831
178.241,74.7293,-0.099831
178.274,74.7331,-0.099831
178.304,74.7358,-0.099831
178.337,74.7381,-0.099831
178.365,74.7394,-0.099831
178.396,74.7401,-0.099831
178.425,74.7402,-0.099831
178.457,74.7402,-0.102281
178.487,74.7402,-0.102281
178.518,74.7402,-0.102281
178.549,74.7402,-0.102281
178.581,74.7402,-0.102281
178.612,74.7402,-0.102281
178.643,74.7402,-0.102281
178.674,74.7402,-0.102281
178.706,74.7402,-0.101254
178.737,74.7402,-0.101254
178.768,74.7402,-0.101254
178.798,74.7402,-0.101254
178.830,74.7402,-0.101254
178.861,74.7402,-0.101254
178.893,74.7402,-0.101254
178.923,74.7402,-0.101254
178.956,74.7402,-0.097881
178.985,74.7402,-0.097881
179.017,74.7402,-0.097881
179.047,74.7402,-0.097881
179.079,74.7402,-0.097881
179.109,74.7402,-0.097881
179.140,74.7402,-0.097881
179.171,74.7402,-0.097881
179.201,74.7402,-0.094687
179.232,74.7402,-0.094687
179.263,74.7402,-0.094687
179.294,74.7402,-0.094687
179.325,74.7402,-0.094687
179.356,74.7402,-0.094687
179.388,74.7402,-0.094687
179.418,74.7402,-0.094687
179.448,74.7402,-0.094687
179.479,74.7402,-0.091813
179.509,74.7402,-0.091813
179.540,74.7402,-0.091813
179.571,74.7402,-0.091813
179.602,74.7402,-0.091813
179.632,74.7402,-0.091813
179.663,74.7402,-0.091813
179.693,74.7402,-0.091813
179.724,74.7402,-0.089157
179.755,74.7402,-0.089157
179.787,74.7402,-0.089157
179.818,74.7402,-0.089157
179.849,74.7402,-0.089157
179.879,74.7402,-0.089157
179.910,74.7402,-0.089157
179.941,74.7402,-0.089157
179.972,74.7402,-0.086679
180.003,74.7402,-0.086679
180.035,74.7402,-0.086679
180.065,74.7402,-0.086679
180.096,74.7402,-0.086679
180.127,74.7402,-0.086679
180.158,74.7402,-0.086679
180.189,74.7402,-0.086679
180.220,74.7402,-0.084295
180.252,74.7402,-0.084295
180.283,74.7402,-0.084295
180.315,74.7402,-0.084295
180.346,74.7402,-0.084295
180.378,74.7402,-0.084295
180.408,74.7402,-0.084295
180.439,74.7402,-0.084295
180.471,74.7402,-0.081977
180.502,74.7402,-0.081977
180.533,74.7402,-0.081977
180.564,74.7402,-0.081977
180.595,74.7402,-0.081977
180.626,74.7402,-0.081977
180.657,74.7402,-0.081977
180.689,74.7402,-0.081977
180.720,74.7402,-0.079801
180.752,74.7402,-0.079801
180.783,74.7402,-0.079801
180.813,74.7402,-0.079801
180.845,74.7402,-0.079801
180.875,74.7402,-0.079801
180.905,74.7402,-0.079801
180.936,74.7402,-0.079801
180.967,74.7402,-0.077691
180.998,74.7402,-0.077691
181.030,74.7402,-0.077691
181.062,74.7402,-0.077691
181.093,74.7402,-0.077691
181.124,74.7402,-0.077691
181.154,74.7402,-0.077691
181.186,74.7402,-0.077691
181.217,74.7402,-0.075665
181.248,74.7402,-0.075665
181.279,74.7402,-0.075665
181.311,74.7402,-0.075665
181.342,74.7402,-0.075665
181.373,74.7402,-0.075665
181.404,74.7402,-0.075665
181.436,74.7402,-0.075665
181.466,74.7402,-0.073743
181.497,74.7402,-0.073743
181.528,74.7402,-0.073743
181.559,74.7402,-0.073743
181.590,74.7402,-0.073743
181.621,74.7402,-0.073743
181.652,74.7402,-0.073743
181.684,74.7402,-0.073743
181.715,74.7402,-0.071849
181.746,74.7402,-0.071849
181.777,74.7402,-0.071849
181.808,74.7402,-0.071849
181.840,74.7402,-0.071849
181.871,74.7402,-0.071849
181.901,74.7402,-0.071849
181.932,74.7402,-0.071849
181.963,74.7402,-0.069937
181.996,74.7402,-0.069937
182.025,74.7402,-0.069937
182.057,74.7402,-0.069937
182.088,74.7402,-0.069937
182.119,74.7402,-0.069937
182.150,74.7402,-0.069937
182.181,74.7402,-0.069937
182.212,74.7402,-0.068128
182.243,74.7402,-0.068128
182.274,74.7402,-0.068128
182.306,74.7402,-0.068128
182.337,74.7402,-0.068128
182.368,74.7402,-0.068128
182.399,74.7402,-0.068128
182.430,74.7402,-0.068128
182.461,74.7402,-0.066488
182.491,74.7402,-0.066488
182.522,74.7402,-0.066488
182.554,74.7402,-0.066488
182.585,74.7402,-0.066488
182.616,74.7402,-0.066488
182.648,74.7402,-0.066488
182.680,74.7402,-0.066488
182.710,74.7402,-0.066488
182.741,74.7402,-0.065471
182.772,74.7402,-0.065471
182.804,74.7402,-0.065471
182.835,74.7402,-0.065471
182.866,74.7402,-0.065471
182.897,74.7402,-0.065471
182.928,74.7402,-0.065471
182.960,74.7402,-0.065000
182.991,74.7402,-0.065000
183.022,74.7402,-0.065000
183.053,74.7400,-0.065000
183.084,74.7390,-0.065000
183.115,74.7373,-0.065000
183.147,74.7348,-0.065000
183.177,74.7317,-0.063897
183.208,74.7278,-0.063897
183.239,74.7233,-0.063897
183.270,74.7178,-0.063897
183.302,74.7117,-0.063897
183.332,74.7055,-0.063897
183.363,74.6994,-0.063897
183.395,74.6930,-0.063897
183.426,74.6868,-0.063897
183.458,74.6805,-0.058659
183.489,74.6744,-0.058659
183.520,74.6681,-0.058659
183.550,74.6621,-0.058659
183.582,74.6557,-0.058659
183.612,74.6498,-0.058659
183.643,74.6436,-0.058659
183.674,74.6374,-0.058659
183.706,74.6311,-0.047089
183.737,74.6248,-0.047089
183.768,74.6186,-0.047089
183.799,74.6124,-0.047089
183.832,74.6058,-0.047089
183.861,74.6000,-0.047089
183.892,74.5938,-0.047089
183.923,74.5877,-0.031591
183.954,74.5814,-0.031591
183.984,74.5752,-0.031591
184.016,74.5690,-0.031591
184.046,74.5630,-0.031591
184.077,74.5566,-0.031591
184.108,74.5507,-0.031591
184.138,74.5444,-0.031591
184.169,74.5385,-0.031591
184.199,74.5324,-0.031591
184.230,74.5262,-0.012879
184.261,74.5199,-0.012879
184.293,74.5135,-0.012879
184.324,74.5073,-0.012879
184.355,74.5013,-0.012879
184.385,74.4949,-0.012879
184.417,74.4888,-0.012879
184.448,74.4826,-0.012879
184.479,74.4763,0.010496
184.509,74.4705,0.010496
184.540,74.4642,0.010496
184.571,74.4580,0.010496
184.603,74.4516,0.010496
184.634,74.4453,0.010496
184.666,74.4391,0.010496
184.696,74.4330,0.039269
184.727,74.4267,0.039269
184.758,74.4205,0.039269
184.790,74.4143,0.039269
184.821,74.4080,0.039269
184.852,74.4018,0.039269
184.882,74.3957,0.039269
184.915,74.3893,0.039269
184.945,74.3829,0.073809
184.976,74.3769,0.073809
185.006,74.3709,0.073809
185.038,74.3645,0.073809
185.068,74.3586,0.073809
185.100,74.3521,0.073809
185.131,74.3460,0.073809
185.162,74.3396,0.073809
185.193,74.3336,0.114114
185.224,74.3272,0.114114
185.255,74.3212,0.114114
185.287,74.3148,0.114114
185.317,74.3088,0.114114
185.348,74.3026,0.114114
185.379,74.2965,0.114114
185.409,74.2903,0.114114
185.440,74.2838,0.114114
185.471,74.2780,0.159979
185.501,74.2719,0.159979
185.532,74.2657,0.159979
185.562,74.2595,0.159979
185.593,74.2536,0.159979
185.623,74.2474,0.159979
185.654,74.2413,0.159979
185.685,74.2352,0.211261
185.716,74.2290,0.211261
185.747,74.2227,0.211261
185.779,74.2164,0.211261
185.809,74.2104,0.211261
185.840,74.2041,0.211261
185.872,74.1979,0.211261
185.903,74.1917,0.211261
185.934,74.1854,0.211261
185.965,74.1792,0.211261
185.996,74.1728,0.267376
186.027,74.1665,0.267376
186.058,74.1606,0.267376
186.089,74.1545,0.267376
186.120,74.1480,0.267376
186.151,74.1421,0.267376
186.181,74.1359,0.267376
186.212,74.1298,0.327240
186.243,74.1235,0.327240
186.275,74.1173,0.327240
186.306,74.1111,0.327240
186.336,74.1049,0.327240
186.367,74.0988,0.327240
186.398,74.0925,0.327240
186.429,74.0864,0.327240
186.460,74.0801,0.389922
186.492,74.0739,0.389922
186.523,74.0677,0.389922
186.554,74.0613,0.389922
186.585,74.0553,0.389922
186.616,74.0491,0.389922
186.646,74.0430,0.389922
186.677,74.0368,0.389922
186.708,74.0306,0.455657
186.739,74.0243,0.455657
186.771,74.0181,0.455657
186.802,74.0117,0.455657
186.834,74.0054,0.455657
186.865,73.9991,0.455657
186.897,73.9929,0.455657
186.928,73.9867,0.455657
186.959,73.9804,0.524689
186.991,73.9740,0.524689
187.022,73.9680,0.524689
187.053,73.9616,0.524689
187.084,73.9554,0.524689
187.115,73.9491,0.524689
187.146,73.9429,0.524689
187.176,73.9369,0.524689
187.207,73.9306,0.596500
187.239,73.9245,0.596500
187.270,73.9181,0.596500
187.302,73.9118,0.596500
187.333,73.9056,0.596500
187.363,73.8996,0.596500
187.394,73.8932,0.596500
187.426,73.8868,0.596500
187.457,73.8808,0.670686
187.488,73.8746,0.670686
187.519,73.8682,0.670686
187.551,73.8620,0.670686
187.582,73.8557,0.670686
187.613,73.8496,0.670686
187.643,73.8436,0.670686
187.675,73.8372,0.670686
187.705,73.8312,0.747576
187.736,73.8250,0.747576
187.767,73.8187,0.747576
187.798,73.8125,0.747576
187.829,73.8063,0.747576
187.860,73.8003,0.747576
187.891,73.7939,0.747576
187.922,73.7879,0.747576
187.953,73.7817,0.828064
187.985,73.7752,0.828064
188.016,73.7690,0.828064
188.047,73.7627,0.828064
188.079,73.7564,0.828064
188.111,73.7499,0.828064
188.142,73.7437,0.828064
188.173,73.7375,0.828064
188.204,73.7314,0.828064
188.235,73.7251,0.911483
188.266,73.7188,0.911483
188.298,73.7127,0.911483
188.329,73.7065,0.911483
188.360,73.7003,0.911483
188.390,73.6941,0.911483
188.422,73.6877,0.911483
188.454,73.6815,0.997305
188.485,73.6751,0.997305
188.516,73.6692,0.997305
188.546,73.6630,0.997305
188.577,73.6568,0.997305
188.608,73.6506,0.997305
188.640,73.6442,0.997305
188.671,73.6379,0.997305
188.702,73.6317,1.085378
188.733,73.6258,1.085378
188.763,73.6193,1.085378
188.794,73.6132,1.085378
188.826,73.6070,1.085378
188.857,73.6010,1.085378
188.887,73.5949,1.085378
188.918,73.5887,1.085378
188.949,73.5825,1.175071
188.980,73.5762,1.175071
189.012,73.5700,1.175071
189.043,73.5636,1.175071
189.075,73.5573,1.175071
189.106,73.5511,1.175071
189.138,73.5447,1.175071
189.169,73.5383,1.175071
189.199,73.5325,1.266338
189.230,73.5262,1.266338
189.261,73.5200,1.266338
189.292,73.5138,1.266338
189.323,73.5076,1.266338
189.354,73.5014,1.266338
189.385,73.4953,1.266338
189.415,73.4891,1.266338
189.447,73.4828,1.358802
189.477,73.4768,1.358802
189.508,73.4705,1.358802
189.539,73.4644,1.358802
189.570,73.4580,1.358802
189.601,73.4519,1.358802
189.633,73.4454,1.358802
189.665,73.4392,1.358802
189.697,73.4325,1.452886
189.727,73.4268,1.452886
189.758,73.4208,1.452886
189.789,73.4143,1.452886
189.819,73.4084,1.452886
189.850,73.4020,1.452886
189.881,73.3960,1.452886
189.914,73.3895,1.452886
189.944,73.3834,1.452886
189.975,73.3771,1.548289
190.006,73.3709,1.548289
190.037,73.3647,1.548289
190.068,73.3587,1.548289
190.099,73.3524,1.548289
190.130,73.3462,1.548289
190.162,73.3398,1.548289
190.193,73.3336,1.548289
190.225,73.3271,1.645030
190.255,73.3212,1.645030
190.287,73.3150,1.645030
190.317,73.3088,1.645030
190.349,73.3026,1.645030
190.380,73.2961,1.645030
190.411,73.2899,1.645030
190.442,73.2837,1.645030
190.473,73.2776,1.743523
190.504,73.2713,1.743523
190.535,73.2652,1.743523
190.566,73.2589,1.743523
190.597,73.2528,1.743523
190.628,73.2465,1.743523
190.659,73.2404,1.743523
190.691,73.2341,1.743523
190.721,73.2279,1.843223
190.753,73.2216,1.843223
190.784,73.2155,1.843223
190.815,73.2092,1.843223
190.846,73.2028,1.843223
190.877,73.1969,1.843223
190.908,73.1907,1.843223
190.939,73.1844,1.843223
190.970,73.1783,1.944590
191.001,73.1720,1.944590
191.031,73.1660,1.944590
191.063,73.1594,1.944590
191.094,73.1535,1.944590
191.125,73.1472,1.944590
191.157,73.1408,1.944590
191.189,73.1344,1.944590
191.219,73.1284,2.047087
191.250,73.1221,2.047087
191.281,73.1160,2.047087
191.312,73.1097,2.047087
191.343,73.1038,2.047087
191.373,73.0976,2.047087
191.405,73.0912,2.047087
191.436,73.0852,2.047087
191.467,73.0785,2.150282
191.498,73.0725,2.150282
191.529,73.0662,2.150282
191.560,73.0601,2.150282
191.592,73.0539,2.150282
191.622,73.0479,2.150282
191.653,73.0416,2.150282
191.684,73.0353,2.150282
191.716,73.0291,2.253816
191.747,73.0228,2.253816
191.778,73.0167,2.253816
191.808,73.0105,2.253816
191.839,73.0044,2.253816
191.870,72.9981,2.253816
191.901,72.9920,2.253816
191.933,72.9856,2.253816
191.964,72.9794,2.358424
191.995,72.9732,2.358424
192.026,72.9671,2.358424
192.059,72.9604,2.358424
192.089,72.9544,2.358424
192.120,72.9482,2.358424
192.150,72.9423,2.358424
192.181,72.9361,2.358424
192.212,72.9297,2.465369
192.243,72.9235,2.465369
192.274,72.9173,2.465369
192.306,72.9110,2.465369
192.336,72.9051,2.465369
192.367,72.8987,2.465369
192.397,72.8929,2.465369
192.428,72.8866,2.465369
192.459,72.8805,2.574160
192.489,72.8744,2.574160
192.520,72.8681,2.574160
192.550,72.8622,2.574160
192.581,72.8556,2.574160
192.613,72.8496,2.574160
192.644,72.8434,2.574160
192.676,72.8371,2.574160
192.705,72.8312,2.684525
192.736,72.8250,2.684525
192.767,72.8189,2.684525
192.798,72.8127,2.684525
192.829,72.8066,2.684525
192.860,72.8001,2.684525
192.890,72.7943,2.684525
192.922,72.7879,2.684525
192.953,72.7815,2.795709
192.985,72.7753,2.795709
193.016,72.7689,2.795709
193.047,72.7628,2.795709
193.079,72.7566,2.795709
193.109,72.7504,2.795709
193.140,72.7443,2.795709
193.171,72.7380,2.795709
193.202,72.7317,2.909164
193.233,72.7257,2.909164
193.264,72.7194,2.909164
193.296,72.7131,2.909164
193.327,72.7069,2.909164
193.359,72.7006,2.909164
193.390,72.6944,2.909164
193.421,72.6882,2.909164
193.452,72.6818,3.025605
193.484,72.6755,3.025605
193.515,72.6693,3.025605
193.545,72.6631,3.025605
193.576,72.6570,3.025605
193.608,72.6507,3.025605
193.638,72.6446,3.025605
193.669,72.6384,3.025605
193.700,72.6322,3.143451
193.732,72.6259,3.143451
193.763,72.6198,3.143451
193.794,72.6135,3.143451
193.825,72.6073,3.143451
193.855,72.6012,3.143451
193.886,72.5950,3.143451
193.918,72.5887,3.143451
193.949,72.5825,3.262379
193.980,72.5763,3.262379
194.011,72.5702,3.262379
194.041,72.5639,3.262379
194.072,72.5578,3.262379
194.104,72.5515,3.262379
194.134,72.5455,3.262379
194.165,72.5393,3.262379
194.196,72.5331,3.381440
194.227,72.5269,3.381440
194.257,72.5208,3.381440
194.288,72.5145,3.381440
194.319,72.5086,3.381440
194.349,72.5024,3.381440
194.380,72.4963,3.381440
194.411,72.4901,3.381440
194.441,72.4840,3.501076
194.473,72.4777,3.501076
194.504,72.4715,3.501076
194.536,72.4652,3.501076
194.566,72.4590,3.501076
194.598,72.4526,3.501076
194.629,72.4466,3.501076
194.659,72.4404,3.501076
194.690,72.4343,3.621700
194.721,72.4281,3.621700
194.752,72.4216,3.621700
194.784,72.4154,3.621700
194.814,72.4095,3.621700
194.845,72.4033,3.621700
194.876,72.3971,3.621700
194.907,72.3909,3.621700
194.938,72.3847,3.743635
194.970,72.3782,3.743635
195.000,72.3721,3.743635
195.031,72.3659,3.743635
195.062,72.3599,3.743635
195.093,72.3535,3.743635
195.125,72.3472,3.743635
195.156,72.3411,3.743635
195.188,72.3347,3.743635
195.219,72.3285,3.867171
195.249,72.3224,3.867171
195.280,72.3161,3.867171
195.311,72.3100,3.867171
195.342,72.3039,3.867171
195.374,72.2975,3.867171
195.404,72.2914,3.867171
195.435,72.2852,3.867171
195.465,72.2792,3.992365
195.496,72.2732,3.992365
195.526,72.2670,3.992365
195.557,72.2609,3.992365
195.588,72.2547,3.992365
195.620,72.2482,3.992365
195.650,72.2423,3.992365
195.681,72.2361,3.992365
195.712,72.2299,4.119943
195.743,72.2236,4.119943
195.774,72.2172,4.119943
195.805,72.2113,4.119943
195.836,72.2050,4.119943
195.867,72.1989,4.119943
195.898,72.1928,4.119943
195.929,72.1864,4.119943
195.960,72.1802,4.248651
195.992,72.1738,4.248651
196.023,72.1677,4.248651
196.054,72.1613,4.248651
196.085,72.1553,4.248651
196.116,72.1489,4.248651
196.147,72.1428,4.248651
196.178,72.1365,4.248651
196.209,72.1304,4.376502
196.240,72.1241,4.376502
196.272,72.1180,4.376502
196.303,72.1116,4.376502
196.334,72.1054,4.376502
196.365,72.0992,4.376502
196.396,72.0930,4.376502
196.428,72.0866,4.376502
196.459,72.0804,4.376502
196.490,72.0742,4.500434
196.521,72.0679,4.500434
196.554,72.0616,4.500434
196.583,72.0556,4.500434
196.614,72.0493,4.500434
196.645,72.0432,4.500434
196.677,72.0369,4.500434
196.707,72.0308,4.617356
196.738,72.0245,4.617356
196.769,72.0185,4.617356
196.800,72.0123,4.617356
196.831,72.0060,4.617356
196.863,71.9997,4.617356
196.894,71.9932,4.617356
196.926,71.9872,4.617356
196.957,71.9810,2.684298
196.988,71.9746,2.684298
197.019,71.9684,2.684298
197.050,71.9622,2.684298
197.081,71.9560,2.684298
197.111,71.9500,2.684298
197.142,71.9438,2.684298
197.174,71.9376,2.684298
197.206,71.9311,0.357795
197.236,71.9250,0.357795
197.267,71.9188,0.357795
197.298,71.9126,0.357795
197.331,71.9062,0.357795
197.361,71.9001,0.357795
197.392,71.8939,0.357795
197.422,71.8878,0.357795
197.453,71.8815,0.357795
197.483,71.8756,0.020586
197.514,71.8693,0.020586
197.545,71.8629,0.020586
197.576,71.8571,0.020586
197.608,71.8507,0.020586
197.638,71.8445,0.020586
197.669,71.8385,0.020586
197.701,71.8320,0.020586
197.733,71.8258,0.020134
197.764,71.8195,0.020134
197.795,71.8132,0.020134
197.828,71.8066,0.020134
197.858,71.8006,0.020134
197.889,71.7946,0.020134
197.921,71.7881,0.020134
197.950,71.7823,0.019804
197.981,71.7761,0.019804
198.012,71.7699,0.019804
198.044,71.7634,0.019804
198.074,71.7575,0.019804
198.105,71.7513,0.019804
198.135,71.7451,0.019804
198.166,71.7390,0.019804
198.198,71.7326,0.019540
198.229,71.7264,0.019540
198.260,71.7203,0.019540
198.291,71.7139,0.019540
198.322,71.7085,0.019540
198.353,71.7038,0.019540
198.384,71.6997,0.019540
198.415,71.6963,0.019540
198.447,71.6937,0.019267
198.478,71.6917,0.019267
198.509,71.6906,0.019267
198.540,71.6903,0.019267
198.571,71.6903,0.019267
198.602,71.6903,0.019267
198.632,71.6903,0.019267
198.664,71.6906,0.019267
198.695,71.6916,0.019267
198.724,71.6934,0.018994
198.755,71.6958,0.018994
198.788,71.6993,0.018994
198.819,71.7032,0.018994
198.850,71.7081,0.018994
198.881,71.7135,0.018994
198.913,71.7198,0.018994
198.945,71.7261,0.018674
198.976,71.7324,0.018674
199.007,71.7384,0.018674
199.037,71.7445,0.018674
199.068,71.7507,0.018674
199.100,71.7570,0.018674
199.129,71.7631,0.018674
199.161,71.7694,0.018674
199.193,71.7756,0.018674
199.223,71.7818,0.018485
199.254,71.7879,0.018485
199.285,71.7941,0.018485
199.316,71.8003,0.018485
199.347,71.8065,0.018485
199.378,71.8127,0.018485
199.409,71.8187,0.018485
199.440,71.8251,0.018419
199.471,71.8313,0.018419
199.502,71.8374,0.018419
199.533,71.8439,0.018419
199.565,71.8501,0.018419
199.597,71.8565,0.018419
199.628,71.8625,0.018419
199.660,71.8692,0.018419
199.691,71.8753,0.018240
199.722,71.8814,0.018240
199.753,71.8876,0.018240
199.783,71.8938,0.018240
199.814,71.9000,0.018240
199.844,71.9059,0.018240
199.876,71.9124,0.018240
199.907,71.9185,0.018240
199.938,71.9248,0.018071
199.969,71.9309,0.018071
200.000,71.9372,0.018071
200.031,71.9434,0.018071
200.062,71.9496,0.018071
200.094,71.9558,0.018071
200.126,71.9622,0.018071
200.157,71.9684,0.018071
200.189,71.9750,0.018071
200.221,71.9812,0.018024
200.253,71.9878,0.018024
200.283,71.9936,0.018024
200.313,71.9997,0.018024
200.344,72.0059,0.018024
200.376,72.0122,0.018024
200.407,72.0185,0.018024
200.438,72.0245,0.018024
200.469,72.0307,0.017995
200.499,72.0368,0.017995
200.531,72.0432,0.017995
200.563,72.0496,0.017995
200.593,72.0555,0.017995
200.623,72.0617,0.017995
200.654,72.0680,0.017995
200.685,72.0740,0.017995
200.716,72.0803,0.017995
200.746,72.0863,0.017967
200.778,72.0927,0.017967
200.809,72.0989,0.017967
200.840,72.1050,0.017967
200.872,72.1114,0.017967
200.902,72.1174,0.017967
200.933,72.1236,0.017967
200.964,72.1299,0.017920
200.994,72.1359,0.017920
201.025,72.1422,0.017920
201.055,72.1480,0.017920
201.086,72.1544,0.017920
201.117,72.1606,0.017920
201.147,72.1665,0.017920
201.178,72.1727,0.017920
201.209,72.1789,0.017779
201.241,72.1851,0.017779
201.272,72.1913,0.017779
201.302,72.1975,0.017779
201.334,72.2037,0.017779
201.364,72.2100,0.017779
201.395,72.2161,0.017779
201.426,72.2222,0.017779
201.456,72.2283,0.017703
201.487,72.2345,0.017703
201.519,72.2408,0.017703
201.551,72.2472,0.017703
201.582,72.2533,0.017703
201.612,72.2594,0.017703
201.642,72.2654,0.017703
201.673,72.2716,0.017703
201.704,72.2780,0.017684
201.735,72.2840,0.017684
201.766,72.2902,0.017684
201.797,72.2965,0.017684
201.829,72.3028,0.017684
201.860,72.3091,0.017684
201.891,72.3152,0.017684
201.922,72.3214,0.017684
201.953,72.3279,0.017665
201.984,72.3338,0.017665
202.015,72.3399,0.017665
202.045,72.3461,0.017665
202.076,72.3522,0.017665
202.107,72.3585,0.017665
202.139,72.3649,0.017665
202.170,72.3710,0.017665
202.201,72.3775,0.017581
202.234,72.3839,0.017581
202.263,72.3896,0.017581
202.294,72.3958,0.017581
202.326,72.4024,0.017581
202.356,72.4082,0.017581
202.387,72.4143,0.017581
202.418,72.4206,0.017581
202.449,72.4268,0.017581
202.480,72.4332,0.017449
202.510,72.4391,0.017449
202.542,72.4454,0.017449
202.572,72.4515,0.017449
202.604,72.4577,0.017449
202.634,72.4639,0.017449
202.665,72.4700,0.017449
202.696,72.4763,0.017364
202.727,72.4824,0.017364
202.758,72.4887,0.017364
202.790,72.4950,0.017364
202.821,72.5012,0.017364
202.853,72.5077,0.017364
202.882,72.5135,0.017364
202.914,72.5199,0.017364
202.946,72.5263,0.017355
202.977,72.5324,0.017355
203.008,72.5387,0.017355
203.038,72.5447,0.017355
203.070,72.5510,0.017355
203.101,72.5572,0.017355
203.132,72.5635,0.017355
203.163,72.5697,0.017355
203.194,72.5760,0.017298
203.225,72.5821,0.017298
203.256,72.5883,0.017298
203.287,72.5945,0.017298
203.318,72.6008,0.017298
203.349,72.6069,0.017298
203.379,72.6129,0.017298
203.411,72.6192,0.017298
203.442,72.6254,0.017166
203.473,72.6317,0.017166
203.504,72.6377,0.017166
203.534,72.6440,0.017166
203.565,72.6501,0.017166
203.597,72.6564,0.017166
203.627,72.6625,0.017166
203.658,72.6687,0.017166
203.688,72.6746,0.017110
203.720,72.6811,0.017110
203.750,72.6870,0.017110
203.782,72.6935,0.017110
203.814,72.6999,0.017110
203.844,72.7058,0.017110
203.874,72.7118,0.017110
203.906,72.7182,0.017110
203.937,72.7245,0.017110
203.968,72.7307,0.017110
204.000,72.7371,0.017110
204.031,72.7432,0.017110
204.062,72.7493,0.017110
204.093,72.7557,0.017110
204.125,72.7619,0.017110
204.155,72.7681,0.017110
204.186,72.7745,0.017110
204.217,72.7805,0.017015
204.248,72.7868,0.017015
204.279,72.7930,0.017015
204.310,72.7990,0.017015
204.341,72.8054,0.017015
204.373,72.8116,0.017015
204.404,72.8179,0.017015
204.435,72.8240,0.017015
204.466,72.8302,0.016949
204.497,72.8365,0.016949
204.528,72.8426,0.016949
204.559,72.8489,0.016949
204.590,72.8551,0.016949
204.621,72.8613,0.016949
204.652,72.8674,0.016949
204.683,72.8737,0.016949
204.714,72.8799,0.016893
204.746,72.8862,0.016893
204.776,72.8923,0.016893
204.807,72.8985,0.016893
204.838,72.9046,0.016893
204.869,72.9108,0.016893
204.901,72.9171,0.016893
204.933,72.9235,0.016893
204.963,72.9297,0.016818
204.995,72.9360,0.016818
205.025,72.9422,0.016818
205.056,72.9482,0.016818
205.087,72.9544,0.016818
205.119,72.9608,0.016818
205.150,72.9670,0.016818
205.182,72.9734,0.016818
205.212,72.9795,0.016733
205.243,72.9858,0.016733
205.274,72.9919,0.016733
205.305,72.9980,0.016733
205.335,73.0040,0.016733
205.366,73.0102,0.016733
205.397,73.0164,0.016733
205.429,73.0228,0.016733
205.459,73.0288,0.016610
205.491,73.0352,0.016610
205.523,73.0415,0.016610
205.554,73.0479,0.016610
205.585,73.0543,0.016610
205.616,73.0601,0.016610
205.647,73.0664,0.016610
205.678,73.0726,0.016573
205.709,73.0788,0.016573
205.740,73.0852,0.016573
205.773,73.0916,0.016573
205.804,73.0977,0.016573
205.833,73.1036,0.016573
205.864,73.1100,0.016573
205.896,73.1162,0.016573
205.927,73.1226,0.016573
205.958,73.1286,0.016450
205.989,73.1349,0.016450
206.020,73.1410,0.016450
206.052,73.1475,0.016450
206.084,73.1539,0.016450
206.116,73.1603,0.016450
206.147,73.1665,0.016450
206.178,73.1727,0.016450
206.209,73.1788,0.016346
206.240,73.1850,0.016346
206.271,73.1912,0.016346
206.302,73.1973,0.016346
206.333,73.2037,0.016346
206.364,73.2098,0.016346
206.395,73.2160,0.016346
206.426,73.2222,0.016271
206.457,73.2284,0.016271
206.488,73.2345,0.016271
206.519,73.2408,0.016271
206.550,73.2469,0.016271
206.581,73.2532,0.016271
206.612,73.2594,0.016271
206.644,73.2659,0.016271
206.675,73.2721,0.016271
206.707,73.2784,0.016139
206.738,73.2846,0.016139
206.769,73.2908,0.016139
206.799,73.2970,0.016139
206.830,73.3031,0.016139
206.861,73.3091,0.016139
206.892,73.3155,0.016139
206.922,73.3215,0.016139
206.953,73.3277,0.016139
206.985,73.3339,0.015988
207.016,73.3404,0.015988
207.047,73.3465,0.015988
207.078,73.3528,0.015988
207.109,73.3589,0.015988
207.140,73.3652,0.015988
207.171,73.3711,0.015988
207.202,73.3776,0.015988
207.234,73.3838,0.015800
207.265,73.3902,0.015800
207.297,73.3963,0.015800
207.327,73.4024,0.015800
207.358,73.4086,0.015800
207.390,73.4149,0.015800
207.421,73.4211,0.015800
207.452,73.4273,0.015546
207.483,73.4334,0.015546
207.513,73.4397,0.015546
207.546,73.4461,0.015546
207.577,73.4525,0.015546
207.608,73.4585,0.015546
207.639,73.4649,0.015546
207.670,73.4710,0.015546
207.701,73.4773,0.015546
207.732,73.4834,0.015320
207.763,73.4897,0.015320
207.794,73.4957,0.015320
207.825,73.5019,0.015320
207.857,73.5083,0.015320
207.888,73.5146,0.015320
207.919,73.5210,0.015320
207.950,73.5269,0.015320
207.981,73.5331,0.015150
208.013,73.5396,0.015150
208.043,73.5455,0.015150
208.074,73.5519,0.015150
208.106,73.5583,0.015150
208.136,73.5641,0.015150
208.167,73.5703,0.015150
208.199,73.5768,0.015150
208.231,73.5832,0.014811
208.260,73.5891,0.014811
208.291,73.5953,0.014811
208.322,73.6015,0.014811
208.353,73.6075,0.014811
208.384,73.6139,0.014811
208.416,73.6202,0.014811
208.447,73.6264,0.014340
208.478,73.6327,0.014340
208.510,73.6388,0.014340
208.541,73.6452,0.014340
208.572,73.6514,0.014340
208.604,73.6578,0.014340
208.634,73.6638,0.014340
208.665,73.6700,0.014340
208.697,73.6762,0.013859
208.726,73.6823,0.013859
208.758,73.6885,0.013859
208.790,73.6949,0.013859
208.820,73.7009,0.013859
208.851,73.7071,0.013859
208.882,73.7135,0.013859
208.912,73.7194,0.013859
208.943,73.7256,0.013303
208.974,73.7318,0.013303
209.005,73.7380,0.013303
209.037,73.7443,0.013303
209.067,73.7503,0.013303
209.098,73.7567,0.013303
209.129,73.7627,0.013303
209.160,73.7691,0.013303
209.191,73.7752,0.012455
209.223,73.7817,0.012455
209.254,73.7877,0.012455
209.286,73.7943,0.012455
209.317,73.8004,0.012455
209.349,73.8068,0.012455
209.380,73.8129,0.012455
209.411,73.8192,0.012455
209.442,73.8253,0.011391
209.474,73.8320,0.011391
209.504,73.8377,0.011391
209.535,73.8439,0.011391
209.567,73.8503,0.011391
209.598,73.8567,0.011391
209.631,73.8632,0.011391
209.661,73.8691,0.011391
209.692,73.8754,0.010091
209.724,73.8818,0.010091
209.755,73.8880,0.010091
209.786,73.8943,0.010091
209.817,73.9002,0.010091
209.848,73.9066,0.010091
209.878,73.9125,0.010091
209.909,73.9188,0.010091
209.939,73.9248,0.010091
209.970,73.9311,0.010091
210.001,73.9372,0.008253
210.033,73.9436,0.008253
210.065,73.9502,0.008253
210.095,73.9562,0.008253
210.126,73.9622,0.008253
210.158,73.9686,0.008253
210.189,73.9749,0.008253
210.220,73.9810,0.005936
210.251,73.9872,0.005936
210.282,73.9933,0.005936
210.312,73.9993,0.005936
210.343,74.0057,0.005936
210.375,74.0119,0.005936
210.405,74.0181,0.005936
210.437,74.0244,0.005936
210.468,74.0307,0.005936
210.499,74.0368,0.002940
210.530,74.0430,0.002940
210.562,74.0493,0.002940
210.592,74.0556,0.002940
210.623,74.0616,0.002940
210.654,74.0678,0.002940
210.684,74.0737,0.002940
210.715,74.0799,0.002940
210.746,74.0860,-0.001055
210.777,74.0925,-0.001055
210.809,74.0988,-0.001055
210.839,74.1049,-0.001055
210.871,74.1113,-0.001055
210.902,74.1174,-0.001055
210.933,74.1237,-0.001055
210.965,74.1300,-0.001055
210.996,74.1362,-0.006181
211.027,74.1423,-0.006181
211.057,74.1485,-0.006181
211.088,74.1547,-0.006181
211.120,74.1611,-0.006181
211.151,74.1673,-0.006181
211.182,74.1733,-0.006181
211.213,74.1795,-0.012540
211.244,74.1856,-0.012540
211.275,74.1921,-0.012540
211.307,74.1984,-0.012540
211.339,74.2047,-0.012540
211.369,74.2109,-0.012540
211.401,74.2172,-0.012540
211.432,74.2233,-0.012540
211.463,74.2296,-0.019955
211.494,74.2357,-0.019955
211.526,74.2423,-0.019955
211.556,74.2482,-0.019955
211.588,74.2546,-0.019955
211.618,74.2606,-0.019955
211.649,74.2668,-0.019955
211.680,74.2729,-0.019955
211.711,74.2792,-0.019955
211.743,74.2856,-0.028237
211.773,74.2918,-0.028237
211.805,74.2980,-0.028237
211.836,74.3041,-0.028237
211.866,74.3101,-0.028237
211.897,74.3162,-0.028237
211.926,74.3224,-0.028237
211.957,74.3284,-0.037074
211.988,74.3347,-0.037074
212.019,74.3408,-0.037074
212.051,74.3472,-0.037074
212.081,74.3532,-0.037074
212.112,74.3595,-0.037074
212.143,74.3656,-0.037074
212.174,74.3718,-0.037074
212.205,74.3780,-0.037074
212.237,74.3843,-0.046090
212.268,74.3905,-0.046090
212.299,74.3967,-0.046090
212.330,74.4031,-0.046090
212.361,74.4091,-0.046090
212.392,74.4154,-0.046090
212.424,74.4216,-0.046090
212.455,74.4282,-0.054768
212.486,74.4343,-0.054768
212.517,74.4404,-0.054768
212.548,74.4466,-0.054768
212.579,74.4529,-0.054768
212.610,74.4590,-0.054768
212.641,74.4653,-0.054768
212.672,74.4715,-0.054768
212.703,74.4777,-0.054768
212.735,74.4839,-0.062786
212.766,74.4901,-0.062786
212.796,74.4962,-0.062786
212.828,74.5025,-0.062786
212.859,74.5088,-0.062786
212.891,74.5151,-0.062786
212.923,74.5215,-0.062786
212.953,74.5277,-0.070078
212.985,74.5339,-0.070078
213.016,74.5403,-0.070078
213.047,74.5464,-0.070078
213.079,74.5527,-0.070078
213.109,74.5589,-0.070078
213.139,74.5649,-0.070078
213.170,74.5711,-0.070078
213.200,74.5769,-0.070078
213.231,74.5832,-0.076428
213.261,74.5893,-0.076428
213.292,74.5954,-0.076428
213.323,74.6015,-0.076428
213.355,74.6080,-0.076428
213.385,74.6140,-0.076428
213.416,74.6202,-0.076428
213.447,74.6263,-0.081874
213.478,74.6326,-0.081874
213.509,74.6387,-0.081874
213.539,74.6449,-0.081874
213.570,74.6509,-0.081874
213.602,74.6574,-0.081874
213.633,74.6635,-0.081874
213.664,74.6696,-0.081874
213.696,74.6746,-0.086641
213.726,74.6791,-0.086641
213.758,74.6827,-0.086641
213.789,74.6858,-0.086641
213.819,74.6879,-0.086641
213.851,74.6894,-0.086641
213.883,74.6901,-0.086641
213.913,74.6903,-0.086641
213.943,74.6903,-0.089712
213.974,74.6903,-0.089712
214.006,74.6903,-0.089712
214.037,74.6903,-0.089712
214.069,74.6903,-0.089712
214.099,74.6903,-0.089712
214.130,74.6903,-0.089712
214.161,74.6903,-0.089712
214.193,74.6903,-0.088855
214.224,74.6903,-0.088855
214.255,74.6903,-0.088855
214.286,74.6903,-0.088855
