Elapsed Time (s),Position (mm),Force (N)
-0.017,76.4902,-0.076400
0.014,76.4902,-0.076532
0.045,76.4902,-0.076532
0.077,76.4902,-0.076532
0.107,76.4902,-0.076532
0.138,76.4902,-0.076532
0.169,76.4902,-0.076532
0.200,76.4902,-0.076532
0.232,76.4902,-0.076532
0.263,76.4902,-0.076532
0.295,76.4902,-0.073903
0.326,76.4902,-0.073903
0.357,76.4902,-0.073903
0.388,76.4902,-0.073903
0.419,76.4902,-0.073903
0.451,76.4902,-0.073903
0.482,76.4902,-0.073903
0.514,76.4902,-0.073903
0.545,76.4902,-0.071142
0.575,76.4902,-0.071142
0.606,76.4902,-0.071142
0.638,76.4902,-0.071142
0.670,76.4902,-0.071142
0.699,76.4902,-0.071142
0.730,76.4902,-0.071142
0.762,76.4902,-0.069136
0.793,76.4902,-0.069136
0.824,76.4902,-0.069136
0.855,76.4902,-0.069136
0.886,76.4902,-0.069136
0.919,76.4902,-0.069136
0.947,76.4902,-0.069136
0.979,76.4902,-0.069136
1.009,76.4902,-0.069136
1.042,76.4902,-0.067581
1.072,76.4902,-0.067581
1.103,76.4902,-0.067581
1.134,76.4902,-0.067581
1.165,76.4902,-0.067581
1.195,76.4902,-0.067581
1.226,76.4902,-0.067581
1.257,76.4902,-0.066243
1.288,76.4902,-0.066243
1.319,76.4902,-0.066243
1.350,76.4902,-0.066243
1.382,76.4902,-0.066243
1.413,76.4902,-0.066243
1.443,76.4902,-0.066243
1.474,76.4902,-0.066243
1.505,76.4902,-0.064934
1.536,76.4902,-0.064934
1.566,76.4902,-0.064934
1.598,76.4902,-0.064934
1.629,76.4902,-0.064934
1.660,76.4902,-0.064934
1.691,76.4902,-0.064934
1.723,76.4902,-0.064934
1.755,76.4902,-0.063652
1.787,76.4902,-0.063652
1.818,76.4902,-0.063652
1.849,76.4902,-0.063652
1.880,76.4902,-0.063652
1.913,76.4902,-0.063652
1.943,76.4902,-0.063652
1.973,76.4902,-0.063652
2.005,76.4902,-0.063652
2.036,76.4902,-0.062484
2.067,76.4902,-0.062484
2.098,76.4902,-0.062484
2.129,76.4902,-0.062484
2.161,76.4902,-0.062484
2.192,76.4902,-0.062484
2.223,76.4902,-0.062484
2.254,76.4902,-0.061353
2.285,76.4902,-0.061353
2.316,76.4902,-0.061353
2.347,76.4902,-0.061353
2.378,76.4902,-0.061353
2.410,76.4902,-0.061353
2.440,76.4902,-0.061353
2.471,76.4902,-0.061353
2.502,76.4902,-0.060345
2.533,76.4902,-0.060345
2.565,76.4902,-0.060345
2.596,76.4902,-0.060345
2.627,76.4902,-0.060345
2.658,76.4902,-0.060345
2.688,76.4902,-0.060345
2.720,76.4902,-0.060345
2.751,76.4902,-0.060345
2.782,76.4902,-0.059337
2.813,76.4902,-0.059337
2.844,76.4902,-0.059337
2.875,76.4902,-0.059337
2.906,76.4902,-0.059337
2.938,76.4902,-0.059337
2.970,76.4902,-0.059337
3.001,76.4902,-0.058273
3.033,76.4902,-0.058273
3.064,76.4902,-0.058273
3.096,76.4902,-0.058273
3.128,76.4902,-0.058273
3.159,76.4902,-0.058273
3.190,76.4902,-0.058273
3.221,76.4902,-0.058273
3.253,76.4902,-0.057264
3.284,76.4902,-0.057264
3.316,76.4902,-0.057264
3.347,76.4902,-0.057264
3.377,76.4902,-0.057264
3.407,76.4902,-0.057264
3.438,76.4902,-0.057264
3.469,76.4902,-0.057264
3.501,76.4902,-0.056379
3.532,76.4902,-0.056379
3.563,76.4902,-0.056379
3.594,76.4902,-0.056379
3.625,76.4902,-0.056379
3.656,76.4902,-0.056379
3.688,76.4902,-0.056379
3.718,76.4902,-0.056379
3.750,76.4902,-0.055625
3.780,76.4902,-0.055625
3.811,76.4902,-0.055625
3.842,76.4902,-0.055625
3.873,76.4902,-0.055625
3.905,76.4902,-0.055625
3.937,76.4902,-0.055625
3.968,76.4902,-0.055625
3.999,76.4902,-0.054636
4.030,76.4902,-0.054636
4.063,76.4902,-0.054636
4.092,76.4902,-0.054636
4.123,76.4900,-0.054636
4.154,76.4889,-0.054636
4.186,76.4871,-0.054636
4.217,76.4846,-0.054636
4.247,76.4814,-0.054636
4.279,76.4774,-0.053279
4.310,76.4726,-0.053279
4.342,76.4673,-0.053279
4.373,76.4609,-0.053279
4.405,76.4547,-0.053279
4.435,76.4485,-0.053279
4.466,76.4425,-0.053279
4.498,76.4360,-0.049680
4.529,76.4299,-0.049680
4.560,76.4236,-0.049680
4.591,76.4174,-0.049680
4.623,76.4111,-0.049680
4.653,76.4049,-0.049680
4.684,76.3989,-0.049680
4.715,76.3927,-0.049680
4.746,76.3865,-0.049680
4.777,76.3802,-0.042275
4.808,76.3741,-0.042275
4.840,76.3678,-0.042275
4.871,76.3615,-0.042275
4.902,76.3553,-0.042275
4.934,76.3490,-0.042275
4.966,76.3425,-0.042275
4.996,76.3364,-0.042275
5.027,76.3302,-0.033701
5.058,76.3240,-0.033701
5.089,76.3178,-0.033701
5.120,76.3115,-0.033701
5.151,76.3054,-0.033701
5.183,76.2991,-0.033701
5.214,76.2929,-0.033701
5.245,76.2866,-0.024826
5.276,76.2805,-0.024826
5.308,76.2742,-0.024826
5.339,76.2678,-0.024826
5.370,76.2615,-0.024826
5.400,76.2554,-0.024826
5.431,76.2494,-0.024826
5.463,76.2429,-0.024826
5.494,76.2370,-0.014066
5.526,76.2304,-0.014066
5.557,76.2244,-0.014066
5.587,76.2181,-0.014066
5.618,76.2120,-0.014066
5.649,76.2058,-0.014066
5.680,76.1996,-0.014066
5.712,76.1932,-0.014066
5.742,76.1872,-0.000236
5.773,76.1810,-0.000236
5.804,76.1749,-0.000236
5.836,76.1685,-0.000236
5.867,76.1622,-0.000236
5.899,76.1558,-0.000236
5.930,76.1496,-0.000236
5.962,76.1433,-0.000236
5.993,76.1370,0.017722
6.025,76.1307,0.017722
6.055,76.1247,0.017722
6.086,76.1184,0.017722
6.117,76.1123,0.017722
6.148,76.1059,0.017722
6.181,76.0993,0.017722
6.211,76.0933,0.017722
6.242,76.0871,0.040456
6.274,76.0808,0.040456
6.305,76.0747,0.040456
6.335,76.0685,0.040456
6.367,76.0623,0.040456
6.399,76.0559,0.040456
6.429,76.0498,0.040456
6.460,76.0436,0.040456
6.491,76.0374,0.040456
6.522,76.0313,0.068476
6.554,76.0249,0.068476
6.585,76.0187,0.068476
6.616,76.0124,0.068476
6.647,76.0063,0.068476
6.678,76.0001,0.068476
6.709,75.9937,0.068476
6.740,75.9877,0.068476
6.771,75.9813,0.102064
6.803,75.9750,0.102064
6.834,75.9688,0.102064
6.866,75.9625,0.102064
6.897,75.9562,0.102064
6.928,75.9501,0.102064
6.960,75.9436,0.102064
6.991,75.9374,0.102064
7.023,75.9311,0.141465
7.055,75.9248,0.141465
7.086,75.9183,0.141465
7.117,75.9121,0.141465
7.148,75.9062,0.141465
7.178,75.9001,0.141465
7.209,75.8940,0.141465
7.240,75.8876,0.186614
7.271,75.8816,0.186614
7.302,75.8753,0.186614
7.334,75.8690,0.186614
7.364,75.8629,0.186614
7.395,75.8566,0.186614
7.427,75.8504,0.186614
7.458,75.8442,0.186614
7.489,75.8380,0.186614
7.519,75.8319,0.237453
7.551,75.8254,0.237453
7.581,75.8195,0.237453
7.613,75.8130,0.237453
7.644,75.8070,0.237453
7.675,75.8008,0.237453
7.706,75.7944,0.237453
7.737,75.7884,0.294001
7.768,75.7822,0.294001
7.799,75.7760,0.294001
7.830,75.7698,0.294001
7.861,75.7634,0.294001
7.891,75.7574,0.294001
7.922,75.7512,0.294001
7.954,75.7450,0.294001
7.985,75.7386,0.294001
8.016,75.7324,0.356023
8.048,75.7260,0.356023
8.079,75.7198,0.356023
8.110,75.7136,0.356023
8.141,75.7074,0.356023
8.172,75.7011,0.356023
8.203,75.6951,0.356023
8.235,75.6887,0.423124
8.265,75.6826,0.423124
8.298,75.6761,0.423124
8.329,75.6698,0.423124
8.361,75.6634,0.423124
8.393,75.6571,0.423124
8.424,75.6507,0.423124
8.456,75.6445,0.423124
8.487,75.6383,0.494709
8.519,75.6320,0.494709
8.550,75.6256,0.494709
8.580,75.6196,0.494709
8.611,75.6135,0.494709
8.641,75.6073,0.494709
8.671,75.6013,0.494709
8.702,75.5953,0.494709
8.733,75.5891,0.570534
8.765,75.5827,0.570534
8.796,75.5765,0.570534
8.826,75.5705,0.570534
8.857,75.5641,0.570534
8.888,75.5581,0.570534
8.920,75.5517,0.570534
8.950,75.5458,0.570534
8.981,75.5395,0.570534
9.012,75.5332,0.650015
9.044,75.5268,0.650015
9.073,75.5208,0.650015
9.105,75.5148,0.650015
9.136,75.5084,0.650015
9.167,75.5022,0.650015
9.199,75.4959,0.650015
9.229,75.4900,0.650015
9.259,75.4839,0.733057
9.290,75.4777,0.733057
9.322,75.4712,0.733057
9.354,75.4648,0.733057
9.384,75.4588,0.733057
9.415,75.4525,0.733057
9.447,75.4463,0.733057
9.478,75.4400,0.733057
9.510,75.4334,0.819444
9.539,75.4278,0.819444
9.570,75.4218,0.819444
9.601,75.4154,0.819444
9.633,75.4092,0.819444
9.664,75.4028,0.819444
9.695,75.3967,0.819444
9.726,75.3904,0.819444
9.757,75.3843,0.908949
9.787,75.3782,0.908949
9.818,75.3720,0.908949
9.849,75.3657,0.908949
9.880,75.3596,0.908949
9.911,75.3534,0.908949
9.942,75.3472,0.908949
9.974,75.3409,0.908949
10.004,75.3348,1.002307
10.036,75.3286,1.002307
10.068,75.3222,1.002307
10.099,75.3160,1.002307
10.130,75.3096,1.002307
10.160,75.3037,1.002307
10.191,75.2976,1.002307
10.222,75.2914,1.002307
10.254,75.2850,1.098869
10.284,75.2789,1.098869
10.316,75.2726,1.098869
10.345,75.2667,1.098869
10.376,75.2605,1.098869
10.407,75.2543,1.098869
10.438,75.2481,1.098869
10.469,75.2420,1.098869
10.500,75.2356,1.098869
10.531,75.2293,1.195544
10.562,75.2232,1.195544
10.593,75.2171,1.195544
10.624,75.2108,1.195544
10.654,75.2048,1.195544
10.684,75.1988,1.195544
10.715,75.1928,1.195544
10.746,75.1865,1.195544
10.777,75.1804,1.195544
10.809,75.1738,1.277484
10.839,75.1679,1.277484
10.870,75.1617,1.277484
10.900,75.1556,1.277484
10.931,75.1493,1.277484
10.962,75.1434,1.277484
10.993,75.1370,1.277484
11.024,75.1309,1.127586
11.055,75.1246,1.127586
11.086,75.1185,1.127586
11.118,75.1121,1.127586
11.149,75.1060,1.127586
11.179,75.0999,1.127586
11.210,75.0936,1.127586
11.241,75.0875,1.127586
11.272,75.0813,0.480577
11.303,75.0751,0.480577
11.335,75.0689,0.480577
11.365,75.0625,0.480577
11.397,75.0564,0.480577
11.428,75.0501,0.480577
11.459,75.0440,0.480577
11.489,75.0378,0.480577
11.520,75.0318,0.017157
11.551,75.0256,0.017157
11.582,75.0193,0.017157
11.613,75.0130,0.017157
11.644,75.0070,0.017157
11.675,75.0007,0.017157
11.706,74.9945,0.017157
11.737,74.9883,0.017157
11.768,74.9821,0.016478
11.799,74.9759,0.016478
11.831,74.9694,0.016478
11.862,74.9632,0.016478
11.893,74.9572,0.016478
11.924,74.9510,0.016478
11.954,74.9449,0.016478
11.985,74.9387,0.016478
12.016,74.9326,0.016441
12.048,74.9262,0.016441
12.078,74.9201,0.016441
12.109,74.9139,0.016441
12.141,74.9077,0.016441
12.171,74.9016,0.016441
12.202,74.8954,0.016441
12.232,74.8891,0.016441
12.264,74.8830,0.016384
12.296,74.8765,0.016384
12.326,74.8705,0.016384
12.358,74.8641,0.016384
12.389,74.8577,0.016384
12.420,74.8517,0.016384
12.450,74.8457,0.016384
12.481,74.8396,0.016384
12.513,74.8333,0.016158
12.543,74.8271,0.016158
12.574,74.8209,0.016158
12.606,74.8145,0.016158
12.637,74.8085,0.016158
12.667,74.8023,0.016158
12.698,74.7962,0.016158
12.729,74.7900,0.016139
12.760,74.7837,0.016139
12.791,74.7775,0.016139
12.821,74.7715,0.016139
12.852,74.7654,0.016139
12.884,74.7588,0.016139
12.913,74.7531,0.016139
12.946,74.7464,0.016139
12.975,74.7406,0.016139
13.006,74.7344,0.016073
13.037,74.7282,0.016073
13.067,74.7221,0.016073
13.099,74.7161,0.016073
13.130,74.7096,0.016073
13.161,74.7035,0.016073
13.193,74.6972,0.016073
13.224,74.6909,0.016073
13.255,74.6848,0.016036
13.286,74.6786,0.016036
13.317,74.6723,0.016036
13.348,74.6661,0.016036
13.379,74.6600,0.016036
13.410,74.6537,0.016036
13.442,74.6474,0.016036
13.473,74.6413,0.016036
13.504,74.6349,0.015904
13.534,74.6289,0.015904
13.565,74.6227,0.015904
13.596,74.6166,0.015904
13.628,74.6101,0.015904
13.659,74.6041,0.015904
13.689,74.5977,0.015904
13.721,74.5915,0.015904
13.752,74.5853,0.015875
13.782,74.5794,0.015875
13.812,74.5732,0.015875
13.843,74.5671,0.015875
13.875,74.5609,0.015875
13.905,74.5547,0.015875
13.936,74.5485,0.015875
13.967,74.5422,0.015875
13.999,74.5359,0.015875
14.030,74.5298,0.015932
14.061,74.5235,0.015932
14.091,74.5175,0.015932
14.122,74.5112,0.015932
14.154,74.5048,0.015932
14.185,74.4988,0.015932
14.216,74.4926,0.015932
14.247,74.4864,0.015932
14.279,74.4800,0.015904
14.310,74.4737,0.015904
14.341,74.4675,0.015904
14.371,74.4614,0.015904
14.403,74.4552,0.015904
14.434,74.4489,0.015904
14.465,74.4427,0.015904
14.496,74.4364,0.015904
14.527,74.4303,0.015857
14.558,74.4240,0.015857
14.589,74.4179,0.015857
14.620,74.4117,0.015857
14.651,74.4056,0.015857
14.683,74.3991,0.015857
14.713,74.3931,0.015857
14.744,74.3870,0.015857
14.775,74.3808,0.015847
14.806,74.3746,0.015847
14.836,74.3684,0.015847
14.868,74.3621,0.015847
14.900,74.3558,0.015847
14.931,74.3496,0.015847
14.963,74.3432,0.015847
14.994,74.3370,0.015913
15.026,74.3306,0.015913
15.057,74.3244,0.015913
15.087,74.3183,0.015913
15.119,74.3120,0.015913
15.148,74.3060,0.015913
15.180,74.2997,0.015913
15.212,74.2934,0.015913
15.243,74.2872,0.015894
15.274,74.2807,0.015894
15.305,74.2748,0.015894
15.336,74.2685,0.015894
15.367,74.2624,0.015894
15.398,74.2561,0.015894
15.429,74.2500,0.015894
15.460,74.2438,0.015894
15.491,74.2376,0.015894
15.522,74.2313,0.015885
15.553,74.2252,0.015885
15.584,74.2190,0.015885
15.616,74.2126,0.015885
15.647,74.2064,0.015885
15.678,74.2002,0.015885
15.709,74.1938,0.015885
15.739,74.1877,0.015885
15.770,74.1816,0.015885
15.802,74.1753,0.015885
15.833,74.1692,0.015885
15.864,74.1629,0.015885
15.896,74.1565,0.015885
15.927,74.1503,0.015885
15.958,74.1442,0.015885
15.989,74.1380,0.015885
16.021,74.1315,0.015923
16.051,74.1256,0.015923
16.082,74.1195,0.015923
16.112,74.1133,0.015923
16.143,74.1071,0.015923
16.174,74.1009,0.015923
16.205,74.0947,0.015923
16.236,74.0885,0.015941
16.268,74.0823,0.015941
16.298,74.0760,0.015941
16.329,74.0699,0.015941
16.359,74.0639,0.015941
16.391,74.0575,0.015941
16.421,74.0514,0.015941
16.452,74.0453,0.015941
16.483,74.0390,0.015941
16.515,74.0328,0.015894
16.545,74.0267,0.015894
16.576,74.0205,0.015894
16.608,74.0142,0.015894
16.639,74.0079,0.015894
16.670,74.0017,0.015894
16.701,73.9956,0.015894
16.732,73.9893,0.015894
16.764,73.9831,0.015913
16.794,73.9769,0.015913
16.825,73.9708,0.015913
16.855,73.9646,0.015913
16.887,73.9584,0.015913
16.917,73.9523,0.015913
16.948,73.9460,0.015913
16.979,73.9400,0.015875
17.010,73.9338,0.015875
17.041,73.9275,0.015875
17.072,73.9214,0.015875
17.102,73.9152,0.015875
17.133,73.9092,0.015875
17.164,73.9030,0.015875
17.195,73.8968,0.015875
17.226,73.8907,0.015875
17.258,73.8842,0.015913
17.289,73.8780,0.015913
17.320,73.8718,0.015913
17.350,73.8658,0.015913
17.381,73.8596,0.015913
17.412,73.8534,0.015913
17.444,73.8470,0.015913
17.475,73.8408,0.015941
17.506,73.8344,0.015941
17.537,73.8283,0.015941
17.568,73.8222,0.015941
17.599,73.8160,0.015941
17.630,73.8098,0.015941
17.661,73.8036,0.015941
17.692,73.7973,0.015941
17.723,73.7912,0.015941
17.754,73.7850,0.015932
17.784,73.7788,0.015932
17.816,73.7725,0.015932
17.848,73.7662,0.015932
17.879,73.7601,0.015932
17.909,73.7539,0.015932
17.941,73.7477,0.015932
17.971,73.7414,0.015932
18.002,73.7354,0.015988
18.033,73.7291,0.015988
18.065,73.7229,0.015988
18.095,73.7167,0.015988
18.126,73.7105,0.015988
18.158,73.7043,0.015988
18.188,73.6981,0.015988
18.219,73.6920,0.015988
18.250,73.6857,0.015979
18.280,73.6796,0.015979
18.312,73.6733,0.015979
18.343,73.6671,0.015979
18.375,73.6606,0.015979
18.406,73.6545,0.015979
18.437,73.6482,0.015979
18.469,73.6419,0.015979
18.500,73.6356,0.015998
18.532,73.6295,0.015998
18.562,73.6233,0.015998
18.594,73.6171,0.015998
18.624,73.6109,0.015998
18.656,73.6046,0.015998
18.686,73.5985,0.015998
18.717,73.5923,0.016007
18.749,73.5861,0.016007
18.780,73.5798,0.016007
18.811,73.5734,0.016007
18.842,73.5675,0.016007
18.873,73.5612,0.016007
18.904,73.5551,0.016007
18.934,73.5489,0.016007
18.965,73.5427,0.016007
18.997,73.5365,0.016007
19.027,73.5305,0.016083
19.057,73.5242,0.016083
19.089,73.5181,0.016083
19.119,73.5119,0.016083
19.151,73.5056,0.016083
19.183,73.4991,0.016083
19.214,73.4928,0.016083
19.246,73.4866,0.016083
19.276,73.4804,0.016139
19.307,73.4743,0.016139
19.339,73.4679,0.016139
19.370,73.4621,0.016139
19.401,73.4566,0.016139
19.432,73.4521,0.016139
19.463,73.4483,0.016139
19.495,73.4452,0.016139
19.526,73.4428,0.016026
19.557,73.4412,0.016026
19.588,73.4404,0.016026
19.619,73.4402,0.016026
19.650,73.4402,0.016026
19.681,73.4402,0.016026
19.712,73.4402,0.016026
19.743,73.4402,0.016026
19.774,73.4402,0.015894
19.805,73.4405,0.015894
19.836,73.4416,0.015894
19.868,73.4433,0.015894
19.899,73.4458,0.015894
19.930,73.4490,0.015894
19.960,73.4529,0.015894
19.991,73.4576,0.015894
20.022,73.4628,0.015847
20.053,73.4691,0.015847
20.085,73.4755,0.015847
20.117,73.4819,0.015847
20.148,73.4880,0.015847
20.181,73.4946,0.015847
20.211,73.5008,0.015847
20.243,73.5071,0.015847
20.274,73.5133,0.015857
20.305,73.5194,0.015857
20.336,73.5256,0.015857
20.367,73.5319,0.015857
20.398,73.5381,0.015857
20.429,73.5442,0.015857
20.460,73.5502,0.015857
20.490,73.5563,0.015857
20.521,73.5625,0.015753
20.552,73.5688,0.015753
20.584,73.5752,0.015753
20.615,73.5814,0.015753
20.646,73.5876,0.015753
20.677,73.5939,0.015753
20.709,73.6002,0.015753
20.740,73.6064,0.015678
20.771,73.6126,0.015678
20.802,73.6187,0.015678
20.833,73.6250,0.015678
20.865,73.6314,0.015678
20.896,73.6377,0.015678
20.926,73.6435,0.015678
20.957,73.6498,0.015678
20.989,73.6562,0.015668
21.020,73.6625,0.015668
21.051,73.6686,0.015668
21.081,73.6746,0.015668
21.112,73.6808,0.015668
21.143,73.6869,0.015668
21.173,73.6931,0.015668
21.204,73.6992,0.015668
21.235,73.7055,0.015668
21.266,73.7117,0.015621
21.298,73.7180,0.015621
21.328,73.7240,0.015621
21.359,73.7302,0.015621
21.391,73.7365,0.015621
21.422,73.7428,0.015621
21.453,73.7489,0.015621
21.484,73.7552,0.015555
21.515,73.7613,0.015555
21.546,73.7677,0.015555
21.578,73.7739,0.015555
21.609,73.7801,0.015555
21.640,73.7865,0.015555
21.671,73.7926,0.015555
21.702,73.7989,0.015555
21.734,73.8051,0.015555
21.765,73.8114,0.015508
21.796,73.8175,0.015508
21.826,73.8237,0.015508
21.857,73.8298,0.015508
21.888,73.8361,0.015508
21.920,73.8423,0.015508
21.952,73.8488,0.015508
21.982,73.8548,0.015555
22.014,73.8612,0.015555
22.045,73.8674,0.015555
22.077,73.8739,0.015555
22.108,73.8799,0.015555
22.138,73.8861,0.015555
22.170,73.8924,0.015555
22.201,73.8986,0.015555
22.233,73.9049,0.015555
22.263,73.9110,0.015527
22.295,73.9173,0.015527
22.326,73.9235,0.015527
22.357,73.9298,0.015527
22.388,73.9360,0.015527
22.419,73.9422,0.015527
22.450,73.9482,0.015527
22.480,73.9544,0.015527
22.511,73.9605,0.015536
22.542,73.9668,0.015536
22.573,73.9730,0.015536
22.605,73.9794,0.015536
22.635,73.9854,0.015536
22.666,73.9915,0.015536
22.698,73.9980,0.015536
22.728,74.0040,0.015536
22.760,74.0102,0.015291
22.790,74.0163,0.015291
22.821,74.0224,0.015291
22.851,74.0287,0.015291
22.882,74.0347,0.015291
22.913,74.0411,0.015291
22.944,74.0472,0.015291
22.975,74.0535,0.015291
23.008,74.0600,0.015056
23.037,74.0659,0.015056
23.069,74.0721,0.015056
23.101,74.0786,0.015056
23.132,74.0847,0.015056
23.163,74.0909,0.015056
23.194,74.0971,0.015056
23.226,74.1035,0.015329
23.257,74.1100,0.015329
23.288,74.1159,0.015329
23.321,74.1225,0.015329
23.349,74.1283,0.015329
23.381,74.1346,0.015329
23.412,74.1407,0.015329
23.443,74.1469,0.015329
23.474,74.1532,0.015329
23.505,74.1594,0.015225
23.537,74.1658,0.015225
23.568,74.1720,0.015225
23.599,74.1782,0.015225
23.630,74.1844,0.015225
23.661,74.1907,0.015225
23.692,74.1969,0.015225
23.722,74.2027,0.015225
23.753,74.2091,0.015103
23.785,74.2153,0.015103
23.815,74.2216,0.015103
23.846,74.2275,0.015103
23.877,74.2337,0.015103
23.908,74.2398,0.015103
23.939,74.2461,0.015103
23.970,74.2523,0.015103
24.000,74.2584,0.015103
24.031,74.2645,0.015178
24.062,74.2708,0.015178
24.094,74.2770,0.015178
24.124,74.2831,0.015178
24.156,74.2894,0.015178
24.187,74.2957,0.015178
24.218,74.3019,0.015178
24.250,74.3084,0.015178
24.280,74.3145,0.015150
24.311,74.3207,0.015150
24.342,74.3269,0.015150
24.373,74.3330,0.015150
24.405,74.3393,0.015150
24.436,74.3455,0.015150
24.466,74.3516,0.015150
24.498,74.3579,0.015150
24.528,74.3638,0.015150
24.558,74.3700,0.015150
24.589,74.3761,0.015150
24.620,74.3824,0.015150
24.650,74.3884,0.015150
24.682,74.3950,0.015150
24.713,74.4010,0.015150
24.744,74.4071,0.015009
24.775,74.4132,0.015009
24.805,74.4194,0.015009
24.836,74.4257,0.015009
24.867,74.4318,0.015009
24.899,74.4380,0.015009
24.930,74.4443,0.015009
24.961,74.4504,0.015009
24.992,74.4569,0.015009
25.024,74.4632,0.015018
25.054,74.4693,0.015018
25.085,74.4753,0.015018
25.115,74.4814,0.015018
25.147,74.4877,0.015018
25.178,74.4938,0.015018
25.209,74.5003,0.015018
25.240,74.5063,0.015093
25.273,74.5128,0.015093
25.303,74.5190,0.015093
25.333,74.5252,0.015093
25.364,74.5311,0.015093
25.396,74.5376,0.015093
25.427,74.5437,0.015093
25.458,74.5500,0.015093
25.489,74.5562,0.015027
25.520,74.5625,0.015027
25.551,74.5686,0.015027
25.582,74.5748,0.015027
25.613,74.5809,0.015027
25.643,74.5871,0.015027
25.673,74.5930,0.015027
25.704,74.5992,0.015027
25.735,74.6053,0.014980
25.768,74.6119,0.014980
25.798,74.6180,0.014980
25.829,74.6244,0.014980
25.861,74.6305,0.014980
25.892,74.6367,0.014980
25.923,74.6429,0.014980
25.954,74.6491,0.014980
25.985,74.6555,0.014839
26.016,74.6615,0.014839
26.047,74.6677,0.014839
26.078,74.6739,0.014839
26.109,74.6800,0.014839
26.139,74.6863,0.014839
26.171,74.6924,0.014839
26.202,74.6987,0.014839
26.233,74.7048,0.014782
26.264,74.7112,0.014782
26.294,74.7172,0.014782
26.326,74.7235,0.014782
26.357,74.7298,0.014782
26.388,74.7359,0.014782
26.418,74.7420,0.014782
26.448,74.7481,0.014782
26.479,74.7541,0.014782
26.511,74.7606,0.014839
26.541,74.7667,0.014839
26.572,74.7729,0.014839
26.604,74.7791,0.014839
26.635,74.7854,0.014839
26.665,74.7915,0.014839
26.697,74.7977,0.014839
26.727,74.8036,0.014839
26.758,74.8098,0.014820
26.790,74.8164,0.014820
26.821,74.8225,0.014820
26.852,74.8287,0.014820
26.884,74.8350,0.014820
26.916,74.8414,0.014820
26.946,74.8475,0.014820
26.977,74.8537,0.014820
27.007,74.8597,0.014839
27.038,74.8660,0.014839
27.069,74.8721,0.014839
27.101,74.8784,0.014839
27.131,74.8847,0.014839
27.163,74.8909,0.014839
27.194,74.8971,0.014839
27.226,74.9035,0.014839
27.256,74.9094,0.014726
27.286,74.9156,0.014726
27.317,74.9217,0.014726
27.349,74.9281,0.014726
27.380,74.9343,0.014726
27.412,74.9407,0.014726
27.443,74.9470,0.014726
27.474,74.9532,0.014726
27.506,74.9594,0.014594
27.536,74.9656,0.014594
27.566,74.9715,0.014594
27.597,74.9777,0.014594
27.628,74.9838,0.014594
27.660,74.9902,0.014594
27.690,74.9962,0.014594
27.720,75.0024,0.014594
27.751,75.0084,0.014594
27.783,75.0148,0.014660
27.812,75.0208,0.014660
27.843,75.0269,0.014660
27.874,75.0331,0.014660
27.905,75.0393,0.014660
27.936,75.0453,0.014660
27.966,75.0514,0.014660
27.998,75.0579,0.014641
28.029,75.0642,0.014641
28.060,75.0703,0.014641
28.091,75.0766,0.014641
28.123,75.0829,0.014641
28.154,75.0892,0.014641
28.185,75.0953,0.014641
28.217,75.1018,0.014641
28.248,75.1078,0.014538
28.278,75.1141,0.014538
28.309,75.1201,0.014538
28.341,75.1265,0.014538
28.371,75.1325,0.014538
28.403,75.1389,0.014538
28.433,75.1449,0.014538
28.464,75.1511,0.014538
28.494,75.1572,0.014500
28.525,75.1634,0.014500
28.556,75.1696,0.014500
28.588,75.1758,0.014500
28.619,75.1820,0.014500
28.650,75.1883,0.014500
28.681,75.1945,0.014500
28.712,75.2007,0.014500
28.743,75.2068,0.014368
28.774,75.2131,0.014368
28.805,75.2193,0.014368
28.837,75.2257,0.014368
28.868,75.2319,0.014368
28.900,75.2382,0.014368
28.931,75.2445,0.014368
28.962,75.2506,0.014368
28.993,75.2570,0.014293
29.024,75.2631,0.014293
29.054,75.2692,0.014293
29.086,75.2755,0.014293
29.117,75.2817,0.014293
29.148,75.2879,0.014293
29.179,75.2944,0.014293
29.210,75.3003,0.014293
29.242,75.3068,0.014293
29.274,75.3130,0.014180
29.306,75.3196,0.014180
29.337,75.3256,0.014180
29.369,75.3322,0.014180
29.401,75.3384,0.014180
29.431,75.3445,0.014180
29.461,75.3504,0.014180
29.493,75.3569,0.014180
29.524,75.3632,0.014104
29.554,75.3692,0.014104
29.585,75.3751,0.014104
29.616,75.3814,0.014104
29.647,75.3876,0.014104
29.678,75.3941,0.014104
29.709,75.4002,0.014104
29.741,75.4064,0.014104
29.771,75.4126,0.014000
29.803,75.4188,0.014000
29.834,75.4250,0.014000
29.865,75.4313,0.014000
29.896,75.4375,0.014000
29.927,75.4438,0.014000
29.957,75.4497,0.014000
29.988,75.4560,0.014000
30.019,75.4621,0.013850
30.051,75.4684,0.013850
30.081,75.4746,0.013850
30.112,75.4808,0.013850
30.144,75.4871,0.013850
30.175,75.4934,0.013850
30.206,75.4996,0.013850
30.238,75.5060,0.013850
30.268,75.5120,0.013727
30.299,75.5182,0.013727
30.330,75.5244,0.013727
30.361,75.5305,0.013727
30.393,75.5371,0.013727
30.424,75.5430,0.013727
30.454,75.5491,0.013727
30.485,75.5553,0.013727
30.516,75.5614,0.013426
30.547,75.5679,0.013426
30.578,75.5738,0.013426
30.609,75.5800,0.013426
30.640,75.5862,0.013426
30.670,75.5924,0.013426
30.701,75.5985,0.013426
30.732,75.6046,0.013426
30.763,75.6108,0.013228
30.794,75.6171,0.013228
30.826,75.6235,0.013228
30.858,75.6299,0.013228
30.889,75.6361,0.013228
30.921,75.6425,0.013228
30.952,75.6487,0.013228
30.983,75.6548,0.013228
31.013,75.6610,0.012936
31.044,75.6671,0.012936
31.076,75.6734,0.012936
31.107,75.6796,0.012936
31.138,75.6858,0.012936
31.169,75.6921,0.012936
31.200,75.6983,0.012936
31.231,75.7047,0.012936
31.263,75.7109,0.012936
31.293,75.7169,0.012531
31.324,75.7230,0.012531
31.355,75.7293,0.012531
31.386,75.7354,0.012531
31.418,75.7420,0.012531
31.449,75.7481,0.012531
31.480,75.7545,0.012531
31.512,75.7607,0.012031
31.542,75.7669,0.012031
31.574,75.7731,0.012031
31.606,75.7794,0.012031
31.636,75.7855,0.012031
31.667,75.7917,0.012031
31.698,75.7979,0.012031
31.729,75.8041,0.012031
31.759,75.8102,0.011362
31.790,75.8161,0.011362
31.821,75.8226,0.011362
31.852,75.8288,0.011362
31.883,75.8350,0.011362
31.914,75.8411,0.011362
31.946,75.8475,0.011362
31.977,75.8536,0.011362
32.008,75.8599,0.011362
32.039,75.8660,0.010505
32.071,75.8726,0.010505
32.102,75.8787,0.010505
32.134,75.8852,0.010505
32.162,75.8908,0.010505
32.197,75.8976,0.010505
32.227,75.9038,0.010505
32.257,75.9098,0.009271
32.289,75.9162,0.009271
32.320,75.9222,0.009271
32.352,75.9288,0.009271
32.382,75.9348,0.009271
32.413,75.9409,0.009271
32.443,75.9470,0.009271
32.474,75.9531,0.009271
32.505,75.9594,0.009271
32.538,75.9660,0.007669
32.568,75.9719,0.007669
32.600,75.9784,0.007669
32.631,75.9844,0.007669
32.662,75.9906,0.007669
32.693,75.9970,0.007669
32.724,76.0031,0.007669
32.754,76.0091,0.007669
32.785,76.0153,0.005474
32.817,76.0217,0.005474
32.847,76.0277,0.005474
32.879,76.0342,0.005474
32.912,76.0406,0.005474
32.940,76.0463,0.005474
32.971,76.0524,0.005474
33.002,76.0589,0.002657
33.033,76.0651,0.002657
33.065,76.0713,0.002657
33.096,76.0775,0.002657
33.127,76.0837,0.002657
33.157,76.0897,0.002657
33.188,76.0958,0.002657
33.219,76.1021,0.002657
33.250,76.1081,-0.001102
33.282,76.1145,-0.001102
33.313,76.1209,-0.001102
33.344,76.1271,-0.001102
33.374,76.1332,-0.001102
33.405,76.1394,-0.001102
33.436,76.1456,-0.001102
33.468,76.1519,-0.001102
33.500,76.1581,-0.005757
33.531,76.1645,-0.005757
33.563,76.1709,-0.005757
33.593,76.1769,-0.005757
33.623,76.1829,-0.005757
33.654,76.1891,-0.005757
33.685,76.1953,-0.005757
33.716,76.2015,-0.005757
33.747,76.2076,-0.010929
33.778,76.2139,-0.010929
33.809,76.2200,-0.010929
33.840,76.2262,-0.010929
33.871,76.2324,-0.010929
33.901,76.2386,-0.010929
33.932,76.2446,-0.010929
33.963,76.2510,-0.010929
33.995,76.2572,-0.016554
34.027,76.2636,-0.016554
34.057,76.2696,-0.016554
34.089,76.2762,-0.016554
34.119,76.2822,-0.016554
34.150,76.2884,-0.016554
34.182,76.2946,-0.016554
34.213,76.3010,-0.016554
34.244,76.3070,-0.022423
34.275,76.3134,-0.022423
34.305,76.3193,-0.022423
34.336,76.3255,-0.022423
34.368,76.3320,-0.022423
34.397,76.3378,-0.022423
34.428,76.3439,-0.022423
34.459,76.3503,-0.022423
34.491,76.3564,-0.028199
34.523,76.3628,-0.028199
34.554,76.3690,-0.028199
34.586,76.3756,-0.028199
34.618,76.3819,-0.028199
34.648,76.3880,-0.028199
34.681,76.3945,-0.028199
34.711,76.4005,-0.028199
34.741,76.4066,-0.033550
34.772,76.4128,-0.033550
34.804,76.4189,-0.033550
34.835,76.4240,-0.033550
34.866,76.4285,-0.033550
34.896,76.4322,-0.033550
34.927,76.4351,-0.033550
34.957,76.4375,-0.033550
34.988,76.4391,-0.038289
35.019,76.4400,-0.038289
35.051,76.4402,-0.038289
35.082,76.4402,-0.038289
35.113,76.4402,-0.038289
35.144,76.4402,-0.038289
35.176,76.4402,-0.038289
35.207,76.4402,-0.038289
35.239,76.4402,-0.040032
35.272,76.4402,-0.040032
35.302,76.4402,-0.040032
35.333,76.4402,-0.040032
35.363,76.4402,-0.040032
35.394,76.4402,-0.040032
35.425,76.4402,-0.040032
35.456,76.4402,-0.040032
35.487,76.4402,-0.038666
35.518,76.4402,-0.038666
35.549,76.4402,-0.038666
35.581,76.4402,-0.038666
35.612,76.4402,-0.038666
35.643,76.4402,-0.038666
35.674,76.4402,-0.038666
35.705,76.4402,-0.038666
35.736,76.4402,-0.036829
35.767,76.4402,-0.036829
35.799,76.4402,-0.036829
35.830,76.4402,-0.036829
35.861,76.4402,-0.036829
35.892,76.4402,-0.036829
35.923,76.4402,-0.036829
35.955,76.4402,-0.036829
35.986,76.4402,-0.035199
36.016,76.4402,-0.035199
36.047,76.4402,-0.035199
36.079,76.4402,-0.035199
36.110,76.4402,-0.035199
36.141,76.4402,-0.035199
36.172,76.4402,-0.035199
36.203,76.4402,-0.035199
36.234,76.4402,-0.035199
36.266,76.4402,-0.035199
36.298,76.4402,-0.033805
36.328,76.4402,-0.033805
36.359,76.4402,-0.033805
36.390,76.4402,-0.033805
36.421,76.4402,-0.033805
36.451,76.4402,-0.033805
36.483,76.4402,-0.033805
36.514,76.4402,-0.032570
36.546,76.4402,-0.032570
36.577,76.4402,-0.032570
36.608,76.4402,-0.032570
36.640,76.4402,-0.032570
36.670,76.4402,-0.032570
36.701,76.4402,-0.032570
36.732,76.4402,-0.032570
36.764,76.4402,-0.032570
36.794,76.4402,-0.031412
36.825,76.4402,-0.031412
36.857,76.4402,-0.031412
36.888,76.4402,-0.031412
36.919,76.4402,-0.031412
36.951,76.4402,-0.031412
36.982,76.4402,-0.031412
37.013,76.4402,-0.031412
37.044,76.4402,-0.030234
37.075,76.4402,-0.030234
37.107,76.4402,-0.030234
37.138,76.4402,-0.030234
37.168,76.4402,-0.030234
37.199,76.4402,-0.030234
37.230,76.4402,-0.030234
37.261,76.4402,-0.030234
37.292,76.4402,-0.029169
37.323,76.4402,-0.029169
37.353,76.4402,-0.029169
37.384,76.4402,-0.029169
37.416,76.4402,-0.029169
37.448,76.4402,-0.029169
37.478,76.4402,-0.029169
37.509,76.4402,-0.028246
37.541,76.4402,-0.028246
37.572,76.4402,-0.028246
37.602,76.4402,-0.028246
37.633,76.4402,-0.028246
37.664,76.4402,-0.028246
37.695,76.4402,-0.028246
37.726,76.4402,-0.028246
37.757,76.4402,-0.027332
37.788,76.4402,-0.027332
37.819,76.4402,-0.027332
37.851,76.4402,-0.027332
37.882,76.4402,-0.027332
37.913,76.4402,-0.027332
37.944,76.4402,-0.027332
37.976,76.4402,-0.027332
38.007,76.4402,-0.027332
38.038,76.4402,-0.026399
38.068,76.4402,-0.026399
38.099,76.4402,-0.026399
38.131,76.4402,-0.026399
38.162,76.4402,-0.026399
38.193,76.4402,-0.026399
38.224,76.4402,-0.026399
38.255,76.4402,-0.025598
38.286,76.4402,-0.025598
38.318,76.4402,-0.025598
38.348,76.4402,-0.025598
38.379,76.4402,-0.025598
38.410,76.4402,-0.025598
38.442,76.4402,-0.025598
38.474,76.4402,-0.025598
38.504,76.4402,-0.025598
38.535,76.4402,-0.024751
38.567,76.4402,-0.024751
38.597,76.4402,-0.024751
38.628,76.4402,-0.024751
38.660,76.4402,-0.024751
38.691,76.4402,-0.024751
38.723,76.4402,-0.024751
38.753,76.4402,-0.023884
38.784,76.4402,-0.023884
38.815,76.4402,-0.023884
38.845,76.4402,-0.023884
38.876,76.4402,-0.023884
38.908,76.4402,-0.023884
38.939,76.4402,-0.023884
38.971,76.4402,-0.023884
39.002,76.4402,-0.023196
39.033,76.4402,-0.023196
39.065,76.4402,-0.023196
39.096,76.4402,-0.023196
39.126,76.4402,-0.023196
39.158,76.4402,-0.023196
39.188,76.4402,-0.023196
39.219,76.4402,-0.023196
39.250,76.4402,-0.022960
39.282,76.4402,-0.022960
39.313,76.4402,-0.022960
39.344,76.4402,-0.022960
39.375,76.4402,-0.022960
39.406,76.4402,-0.022960
39.436,76.4402,-0.022960
39.467,76.4402,-0.022960
39.499,76.4402,-0.023592
39.531,76.4402,-0.023592
39.563,76.4402,-0.023592
39.595,76.4402,-0.023592
39.626,76.4402,-0.023592
39.658,76.4402,-0.023592
39.689,76.4402,-0.023592
39.720,76.4399,-0.023592
39.751,76.4389,-0.024044
39.781,76.4370,-0.024044
39.812,76.4347,-0.024044
39.843,76.4313,-0.024044
39.876,76.4271,-0.024044
39.905,76.4227,-0.024044
39.935,76.4174,-0.024044
39.966,76.4113,-0.024044
39.997,76.4051,-0.022320
40.028,76.3988,-0.022320
40.060,76.3926,-0.022320
40.092,76.3863,-0.022320
40.122,76.3802,-0.022320
40.153,76.3740,-0.022320
40.184,76.3677,-0.022320
40.215,76.3617,-0.022320
40.246,76.3554,-0.022320
40.277,76.3492,-0.014519
40.309,76.3429,-0.014519
40.339,76.3367,-0.014519
40.370,76.3305,-0.014519
40.400,76.3244,-0.014519
40.431,76.3184,-0.014519
40.462,76.3122,-0.014519
40.492,76.3060,-0.014519
40.524,76.2997,-0.000970
40.556,76.2934,-0.000970
40.587,76.2872,-0.000970
40.619,76.2807,-0.000970
40.650,76.2745,-0.000970
40.681,76.2683,-0.000970
40.712,76.2621,-0.000970
40.744,76.2558,-0.000970
40.774,76.2497,0.015084
40.806,76.2434,0.015084
40.837,76.2371,0.015084
40.868,76.2309,0.015084
40.899,76.2248,0.015084
40.930,76.2185,0.015084
40.961,76.2124,0.015084
40.992,76.2062,0.015084
41.023,76.1999,0.034144
41.055,76.1937,0.034144
41.085,76.1876,0.034144
41.116,76.1813,0.034144
41.147,76.1751,0.034144
41.178,76.1689,0.034144
41.210,76.1627,0.034144
41.242,76.1563,0.034144
41.272,76.1501,0.057170
41.303,76.1439,0.057170
41.334,76.1377,0.057170
41.365,76.1314,0.057170
41.398,76.1251,0.057170
41.429,76.1189,0.057170
41.460,76.1126,0.057170
41.493,76.1061,0.057170
41.523,76.0999,0.084691
41.553,76.0938,0.084691
41.584,76.0879,0.084691
41.615,76.0816,0.084691
41.647,76.0752,0.084691
41.678,76.0689,0.084691
41.709,76.0628,0.084691
41.740,76.0566,0.084691
41.771,76.0506,0.116931
41.801,76.0444,0.116931
41.833,76.0380,0.116931
41.864,76.0318,0.116931
41.895,76.0256,0.116931
41.926,76.0192,0.116931
41.957,76.0131,0.116931
41.989,76.0068,0.116931
42.019,76.0008,0.154156
42.050,75.9945,0.154156
42.081,75.9883,0.154156
42.111,75.9822,0.154156
42.143,75.9760,0.154156
42.174,75.9698,0.154156
42.205,75.9635,0.154156
42.236,75.9574,0.154156
42.268,75.9510,0.196525
42.299,75.9446,0.196525
42.331,75.9383,0.196525
42.363,75.9320,0.196525
42.393,75.9259,0.196525
42.423,75.9200,0.196525
42.455,75.9135,0.196525
42.486,75.9073,0.196525
42.518,75.9011,0.243850
42.548,75.8949,0.243850
42.580,75.8887,0.243850
42.611,75.8823,0.243850
42.643,75.8761,0.243850
42.675,75.8697,0.243850
42.706,75.8635,0.243850
42.736,75.8573,0.243850
42.767,75.8510,0.296328
42.798,75.8450,0.296328
42.829,75.8387,0.296328
42.859,75.8326,0.296328
42.890,75.8266,0.296328
42.921,75.8204,0.296328
42.953,75.8139,0.296328
42.984,75.8077,0.296328
43.015,75.8015,0.353687
43.046,75.7954,0.353687
43.077,75.7891,0.353687
43.108,75.7832,0.353687
43.139,75.7767,0.353687
43.169,75.7708,0.353687
43.201,75.7644,0.353687
43.233,75.7580,0.353687
43.263,75.7520,0.415379
43.294,75.7458,0.415379
43.325,75.7396,0.415379
43.356,75.7334,0.415379
43.387,75.7272,0.415379
43.418,75.7210,0.415379
43.449,75.7148,0.415379
43.481,75.7084,0.415379
43.512,75.7022,0.415379
43.543,75.6961,0.481538
43.576,75.6894,0.481538
43.605,75.6836,0.481538
43.636,75.6774,0.481538
43.667,75.6713,0.481538
43.698,75.6650,0.481538
43.729,75.6589,0.481538
43.760,75.6527,0.551776
43.791,75.6465,0.551776
43.822,75.6402,0.551776
43.852,75.6342,0.551776
43.883,75.6279,0.551776
43.914,75.6219,0.551776
43.945,75.6156,0.551776
43.976,75.6094,0.551776
44.008,75.6030,0.551776
44.040,75.5967,0.625198
44.071,75.5904,0.625198
44.103,75.5840,0.625198
44.134,75.5778,0.625198
44.165,75.5714,0.625198
44.196,75.5652,0.625198
44.228,75.5590,0.625198
44.258,75.5530,0.625198
44.289,75.5468,0.702145
44.321,75.5404,0.702145
44.352,75.5344,0.702145
44.383,75.5280,0.702145
44.414,75.5217,0.702145
44.444,75.5158,0.702145
44.474,75.5099,0.702145
44.505,75.5036,0.782473
44.536,75.4974,0.782473
44.567,75.4913,0.782473
44.597,75.4853,0.782473
44.628,75.4789,0.782473
44.660,75.4725,0.782473
44.691,75.4664,0.782473
44.722,75.4602,0.782473
44.754,75.4538,0.865958
44.785,75.4475,0.865958
44.817,75.4411,0.865958
44.847,75.4350,0.865958
44.879,75.4288,0.865958
44.910,75.4226,0.865958
44.940,75.4165,0.865958
44.971,75.4105,0.865958
45.002,75.4043,0.952750
45.033,75.3979,0.952750
45.064,75.3917,0.952750
45.096,75.3855,0.952750
45.126,75.3795,0.952750
45.156,75.3734,0.952750
45.187,75.3672,0.952750
45.218,75.3610,0.952750
45.249,75.3548,1.042604
45.281,75.3486,1.042604
45.311,75.3425,1.042604
45.342,75.3362,1.042604
45.374,75.3299,1.042604
45.406,75.3235,1.042604
45.436,75.3172,1.042604
45.467,75.3111,1.042604
45.499,75.3049,1.042604
45.530,75.2986,1.135906
45.561,75.2925,1.135906
45.591,75.2862,1.135906
45.622,75.2801,1.135906
45.654,75.2737,1.135906
45.685,75.2675,1.135906
45.716,75.2613,1.135906
45.748,75.2551,1.135906
45.779,75.2489,1.135906
45.811,75.2424,1.231620
45.841,75.2365,1.231620
45.872,75.2304,1.231620
45.902,75.2242,1.231620
45.933,75.2180,1.231620
45.965,75.2117,1.231620
45.996,75.2055,1.231620
46.026,75.1994,1.329086
46.058,75.1931,1.329086
46.089,75.1869,1.329086
46.121,75.1803,1.329086
46.153,75.1741,1.329086
46.184,75.1679,1.329086
46.215,75.1616,1.329086
46.246,75.1554,1.329086
46.278,75.1491,1.428776
46.309,75.1428,1.428776
46.340,75.1366,1.428776
46.371,75.1304,1.428776
46.402,75.1243,1.428776
46.432,75.1181,1.428776
46.463,75.1118,1.428776
46.494,75.1059,1.428776
46.526,75.0994,1.531057
46.557,75.0932,1.531057
46.588,75.0869,1.531057
46.619,75.0808,1.531057
46.650,75.0745,1.531057
46.682,75.0680,1.531057
46.713,75.0618,1.531057
46.745,75.0556,1.531057
46.776,75.0493,1.635514
46.808,75.0430,1.635514
46.840,75.0367,1.635514
46.871,75.0305,1.635514
46.901,75.0244,1.635514
46.932,75.0182,1.635514
46.963,75.0120,1.635514
46.994,75.0057,1.635514
47.025,74.9997,1.740085
47.056,74.9935,1.740085
47.087,74.9873,1.740085
47.118,74.9811,1.740085
47.148,74.9750,1.740085
47.180,74.9687,1.740085
47.211,74.9625,1.740085
47.242,74.9562,1.740085
47.273,74.9501,1.844514
47.304,74.9438,1.844514
47.335,74.9376,1.844514
47.366,74.9315,1.844514
47.397,74.9253,1.844514
47.428,74.9191,1.844514
47.459,74.9128,1.844514
47.491,74.9064,1.844514
47.521,74.9004,1.949630
47.551,74.8944,1.949630
47.583,74.8881,1.949630
47.614,74.8816,1.949630
47.645,74.8757,1.949630
47.676,74.8694,1.949630
47.708,74.8632,1.949630
47.739,74.8568,1.949630
47.770,74.8506,2.056085
47.800,74.8444,2.056085
47.831,74.8385,2.056085
47.862,74.8321,2.056085
47.893,74.8261,2.056085
47.924,74.8199,2.056085
47.954,74.8137,2.056085
47.985,74.8077,2.056085
48.016,74.8015,2.164028
48.047,74.7951,2.164028
48.078,74.7890,2.164028
48.110,74.7827,2.164028
48.140,74.7766,2.164028
48.171,74.7704,2.164028
48.203,74.7642,2.164028
48.235,74.7577,2.164028
48.265,74.7517,2.273696
48.296,74.7455,2.273696
48.327,74.7393,2.273696
48.359,74.7329,2.273696
48.389,74.7268,2.273696
48.420,74.7205,2.273696
48.451,74.7146,2.273696
48.483,74.7081,2.273696
48.514,74.7018,2.386284
48.545,74.6956,2.386284
48.576,74.6895,2.386284
48.607,74.6832,2.386284
48.638,74.6771,2.386284
48.668,74.6710,2.386284
48.700,74.6647,2.386284
48.731,74.6584,2.386284
48.762,74.6523,2.500624
48.793,74.6459,2.500624
48.824,74.6399,2.500624
48.854,74.6337,2.500624
48.885,74.6276,2.500624
48.916,74.6214,2.500624
48.948,74.6152,2.500624
48.978,74.6089,2.500624
49.009,74.6027,2.617009
49.040,74.5965,2.617009
49.071,74.5905,2.617009
49.101,74.5845,2.617009
49.132,74.5784,2.617009
49.163,74.5719,2.617009
49.194,74.5659,2.617009
49.225,74.5598,2.617009
49.255,74.5536,2.736051
49.286,74.5474,2.736051
49.317,74.5412,2.736051
49.348,74.5350,2.736051
49.379,74.5288,2.736051
49.410,74.5227,2.736051
49.441,74.5164,2.736051
49.472,74.5101,2.736051
49.503,74.5041,2.857043
49.535,74.4978,2.857043
49.566,74.4915,2.857043
49.597,74.4851,2.857043
49.628,74.4789,2.857043
49.660,74.4726,2.857043
49.691,74.4666,2.857043
49.721,74.4604,2.857043
49.752,74.4541,2.979355
49.782,74.4482,2.979355
49.814,74.4418,2.979355
49.845,74.4356,2.979355
49.876,74.4294,2.979355
49.907,74.4232,2.979355
49.938,74.4172,2.979355
49.969,74.4108,2.979355
50.001,74.4046,3.102749
50.031,74.3983,3.102749
50.063,74.3921,3.102749
50.093,74.3860,3.102749
50.124,74.3800,3.102749
50.155,74.3738,3.102749
50.186,74.3673,3.102749
50.216,74.3614,3.102749
50.248,74.3550,3.228415
50.279,74.3488,3.228415
50.310,74.3426,3.228415
50.340,74.3367,3.228415
50.372,74.3301,3.228415
50.402,74.3243,3.228415
50.435,74.3176,3.228415
50.466,74.3115,3.228415
50.497,74.3050,3.228415
50.528,74.2990,3.355992
50.560,74.2926,3.355992
50.591,74.2864,3.355992
50.623,74.2800,3.355992
50.654,74.2739,3.355992
50.686,74.2675,3.355992
50.716,74.2613,3.355992
50.748,74.2551,3.355992
50.778,74.2490,3.485492
50.810,74.2425,3.485492
50.841,74.2365,3.485492
50.871,74.2303,3.485492
50.902,74.2242,3.485492
50.934,74.2179,3.485492
50.965,74.2114,3.485492
50.996,74.2053,3.485492
51.027,74.1994,3.616745
51.057,74.1931,3.616745
51.089,74.1869,3.616745
51.122,74.1803,3.616745
51.152,74.1743,3.616745
51.183,74.1680,3.616745
51.214,74.1619,3.616745
51.245,74.1556,3.749486
51.278,74.1491,3.749486
51.307,74.1432,3.749486
51.339,74.1369,3.749486
51.369,74.1308,3.749486
51.401,74.1245,3.749486
51.432,74.1183,3.749486
51.463,74.1122,3.749486
51.494,74.1059,3.883922
51.525,74.0998,3.883922
51.556,74.0933,3.883922
51.588,74.0871,3.883922
51.620,74.0806,3.883922
51.651,74.0745,3.883922
51.682,74.0680,3.883922
51.715,74.0618,3.883922
51.745,74.0555,3.883922
51.776,74.0496,4.018237
51.807,74.0432,4.018237
51.839,74.0369,4.018237
51.870,74.0306,4.018237
51.900,74.0246,4.018237
51.932,74.0182,4.018237
51.963,74.0121,4.018237
51.994,74.0058,4.153993
52.025,73.9997,4.153993
52.057,73.9931,4.153993
52.088,73.9870,4.153993
52.120,73.9805,4.153993
52.152,73.9743,4.153993
52.184,73.9677,4.153993
52.216,73.9615,4.153993
52.248,73.9549,4.292057
52.280,73.9486,4.292057
52.310,73.9426,4.292057
52.341,73.9366,4.292057
52.371,73.9305,4.292057
52.411,73.9226,4.292057
52.449,73.9149,4.292057
52.481,73.9084,4.292057
52.511,73.9025,4.431336
52.542,73.8961,4.431336
52.573,73.8901,4.431336
52.604,73.8837,4.431336
52.634,73.8778,4.431336
52.665,73.8717,4.431336
52.696,73.8655,4.431336
52.728,73.8591,4.431336
52.759,73.8529,4.572161
52.790,73.8467,4.572161
52.821,73.8405,4.572161
52.853,73.8341,4.572161
52.884,73.8278,4.572161
52.915,73.8217,4.572161
52.946,73.8155,4.572161
52.977,73.8093,4.572161
53.007,73.8032,4.714408
53.038,73.7970,4.714408
53.069,73.7908,4.714408
53.100,73.7845,4.714408
53.132,73.7784,4.714408
53.164,73.7719,4.714408
53.194,73.7659,4.714408
53.226,73.7593,4.714408
53.256,73.7535,4.858398
53.288,73.7469,4.858398
53.319,73.7409,4.858398
53.350,73.7345,4.858398
53.381,73.7286,4.858398
53.412,73.7223,4.858398
53.443,73.7161,4.858398
53.474,73.7100,4.858398
53.506,73.7034,5.003595
53.537,73.6973,5.003595
53.568,73.6911,5.003595
53.598,73.6851,5.003595
53.629,73.6789,5.003595
53.660,73.6725,5.003595
53.691,73.6666,5.003595
53.723,73.6600,5.003595
53.755,73.6538,5.003595
53.786,73.6473,5.151109
53.817,73.6413,5.151109
53.848,73.6348,5.151109
53.879,73.6289,5.151109
53.910,73.6225,5.151109
53.941,73.6163,5.151109
53.972,73.6103,5.151109
54.004,73.6039,5.300620
54.035,73.5976,5.300620
54.066,73.5914,5.300620
54.098,73.5852,5.300620
54.128,73.5790,5.300620
54.159,73.5728,5.300620
54.190,73.5667,5.300620
54.221,73.5604,5.300620
54.251,73.5545,5.300620
54.284,73.5480,5.450932
54.314,73.5419,5.450932
54.345,73.5356,5.450932
54.376,73.5295,5.450932
54.407,73.5232,5.450932
54.438,73.5172,5.450932
54.467,73.5110,5.450932
54.499,73.5050,5.450932
54.531,73.4981,4.323393
54.561,73.4923,4.323393
54.592,73.4864,4.323393
54.622,73.4800,4.323393
54.653,73.4741,4.323393
54.684,73.4678,4.323393
54.715,73.4617,4.323393
54.747,73.4554,4.323393
54.778,73.4490,1.569214
54.808,73.4430,1.569214
54.840,73.4368,1.569214
54.871,73.4304,1.569214
54.902,73.4244,1.569214
54.933,73.4180,1.569214
54.964,73.4121,1.569214
54.995,73.4067,0.017797
55.026,73.4023,0.017797
55.058,73.3983,0.017797
55.088,73.3953,0.017797
55.120,73.3930,0.017797
55.150,73.3914,0.017797
55.182,73.3905,0.017797
55.212,73.3902,0.017797
55.243,73.3902,0.017223
55.275,73.3902,0.017223
55.305,73.3902,0.017223
55.336,73.3902,0.017223
55.367,73.3902,0.017223
55.399,73.3902,0.017223
55.431,73.3902,0.017223
55.461,73.3902,0.017223
55.492,73.3902,0.017223
55.524,73.3902,0.016893
55.554,73.3902,0.016893
55.586,73.3902,0.016893
55.617,73.3902,0.016893
55.649,73.3902,0.016893
55.680,73.3902,0.016893
55.710,73.3902,0.016893
55.741,73.3902,0.016695
55.773,73.3902,0.016695
55.803,73.3902,0.016695
55.836,73.3904,0.016695
55.866,73.3911,0.016695
55.896,73.3926,0.016695
55.928,73.3948,0.016695
55.959,73.3978,0.016695
55.991,73.4015,0.016695
56.022,73.4060,0.016525
56.053,73.4112,0.016525
56.084,73.4173,0.016525
56.116,73.4234,0.016525
56.146,73.4296,0.016525
56.177,73.4356,0.016525
56.210,73.4421,0.016525
56.240,73.4482,0.016525
56.271,73.4544,0.016281
56.302,73.4607,0.016281
56.333,73.4668,0.016281
56.364,73.4730,0.016281
56.395,73.4792,0.016281
56.425,73.4854,0.016281
56.456,73.4913,0.016281
56.487,73.4977,0.016281
56.517,73.5037,0.016149
56.549,73.5101,0.016149
56.579,73.5160,0.016149
56.611,73.5225,0.016149
56.642,73.5287,0.016149
56.673,73.5350,0.016149
56.705,73.5412,0.016149
56.736,73.5475,0.016149
56.766,73.5535,0.015904
56.797,73.5597,0.015904
56.828,73.5659,0.015904
56.859,73.5719,0.015904
56.890,73.5784,0.015904
56.922,73.5846,0.015904
56.952,73.5908,0.015904
56.983,73.5967,0.015904
57.013,73.6029,0.016036
57.044,73.6092,0.016036
57.075,73.6154,0.016036
57.107,73.6216,0.016036
57.138,73.6280,0.016036
57.169,73.6342,0.016036
57.202,73.6407,0.016036
57.233,73.6470,0.016073
57.265,73.6533,0.016073
57.296,73.6595,0.016073
57.327,73.6657,0.016073
57.358,73.6718,0.016073
57.389,73.6779,0.016073
57.420,73.6843,0.016073
57.452,73.6906,0.016073
57.481,73.6965,0.015706
57.512,73.7027,0.015706
57.543,73.7089,0.015706
57.574,73.7152,0.015706
57.606,73.7213,0.015706
57.637,73.7276,0.015706
57.667,73.7337,0.015706
57.698,73.7399,0.015706
57.730,73.7462,0.015706
57.762,73.7525,0.015838
57.792,73.7587,0.015838
57.823,73.7648,0.015838
57.853,73.7708,0.015838
57.883,73.7768,0.015838
57.915,73.7832,0.015838
57.947,73.7896,0.015838
57.977,73.7958,0.015828
58.008,73.8018,0.015828
58.039,73.8080,0.015828
58.070,73.8142,0.015828
58.101,73.8204,0.015828
58.132,73.8266,0.015828
58.162,73.8326,0.015828
58.193,73.8387,0.015828
58.223,73.8448,0.015828
58.254,73.8510,0.015687
58.284,73.8572,0.015687
58.316,73.8635,0.015687
58.346,73.8695,0.015687
58.378,73.8757,0.015687
58.409,73.8820,0.015687
58.439,73.8881,0.015687
58.469,73.8942,0.015687
58.501,73.9004,0.015564
58.531,73.9066,0.015564
58.562,73.9126,0.015564
58.593,73.9190,0.015564
58.625,73.9252,0.015564
58.655,73.9315,0.015564
58.687,73.9377,0.015564
58.719,73.9441,0.015564
58.749,73.9501,0.015564
58.781,73.9565,0.015536
58.812,73.9626,0.015536
58.843,73.9689,0.015536
58.874,73.9750,0.015536
58.904,73.9811,0.015536
58.935,73.9873,0.015536
58.966,73.9934,0.015536
58.996,73.9995,0.015536
59.027,74.0057,0.015602
59.059,74.0120,0.015602
59.089,74.0181,0.015602
59.120,74.0243,0.015602
59.151,74.0303,0.015602
59.182,74.0365,0.015602
59.212,74.0426,0.015602
59.245,74.0491,0.015602
59.276,74.0553,0.015499
59.306,74.0615,0.015499
59.337,74.0677,0.015499
59.367,74.0736,0.015499
59.398,74.0798,0.015499
59.429,74.0861,0.015499
59.461,74.0923,0.015499
59.492,74.0988,0.015499
59.524,74.1049,0.015489
59.554,74.1112,0.015489
59.585,74.1172,0.015489
59.616,74.1235,0.015489
59.647,74.1297,0.015489
59.678,74.1359,0.015489
59.709,74.1420,0.015489
59.740,74.1483,0.015489
59.771,74.1544,0.015423
59.802,74.1607,0.015423
59.834,74.1669,0.015423
59.865,74.1733,0.015423
59.896,74.1794,0.015423
59.928,74.1859,0.015423
59.959,74.1919,0.015423
59.990,74.1983,0.015423
60.021,74.2043,0.015310
60.053,74.2109,0.015310
60.085,74.2172,0.015310
60.115,74.2233,0.015310
60.146,74.2293,0.015310
60.177,74.2356,0.015310
60.208,74.2417,0.015310
60.239,74.2480,0.015310
60.270,74.2542,0.015244
60.302,74.2605,0.015244
60.332,74.2666,0.015244
60.363,74.2728,0.015244
60.394,74.2790,0.015244
60.425,74.2853,0.015244
60.457,74.2915,0.015244
60.488,74.2977,0.015244
60.520,74.3041,0.015169
60.550,74.3103,0.015169
60.582,74.3166,0.015169
60.612,74.3228,0.015169
60.643,74.3287,0.015169
60.674,74.3349,0.015169
60.704,74.3410,0.015169
60.735,74.3472,0.015169
60.767,74.3537,0.015197
60.797,74.3596,0.015197
60.829,74.3661,0.015197
60.860,74.3721,0.015197
60.891,74.3785,0.015197
60.922,74.3847,0.015197
60.953,74.3910,0.015197
60.984,74.3971,0.015197
61.016,74.4034,0.015197
61.049,74.4098,0.015197
61.078,74.4160,0.015197
61.110,74.4221,0.015197
61.141,74.4283,0.015197
61.171,74.4344,0.015197
61.202,74.4405,0.015197
61.233,74.4468,0.015197
61.263,74.4529,0.015084
61.294,74.4591,0.015084
61.326,74.4654,0.015084
61.357,74.4715,0.015084
61.388,74.4778,0.015084
61.420,74.4841,0.015084
61.451,74.4902,0.015084
61.482,74.4967,0.015084
61.513,74.5026,0.014952
61.543,74.5088,0.014952
61.574,74.5150,0.014952
61.606,74.5213,0.014952
61.636,74.5273,0.014952
61.667,74.5335,0.014952
61.698,74.5398,0.014952
61.728,74.5458,0.014952
61.759,74.5520,0.014952
61.790,74.5583,0.014952
61.822,74.5645,0.014952
61.852,74.5706,0.014952
61.883,74.5768,0.014952
61.914,74.5830,0.014952
61.944,74.5891,0.014952
61.975,74.5951,0.014952
62.006,74.6015,0.014952
62.037,74.6077,0.014952
62.069,74.6140,0.014952
62.100,74.6203,0.014952
62.131,74.6263,0.014952
62.161,74.6325,0.014952
62.193,74.6387,0.014952
62.224,74.6451,0.014952
62.256,74.6512,0.014886
62.287,74.6575,0.014886
62.317,74.6636,0.014886
62.348,74.6698,0.014886
62.380,74.6762,0.014886
62.410,74.6822,0.014886
62.442,74.6885,0.014886
62.473,74.6947,0.014886
62.503,74.7008,0.014773
62.533,74.7069,0.014773
62.565,74.7132,0.014773
62.597,74.7195,0.014773
62.628,74.7257,0.014773
62.659,74.7321,0.014773
62.690,74.7383,0.014773
62.721,74.7443,0.014735
62.751,74.7503,0.014735
62.783,74.7567,0.014735
62.815,74.7632,0.014735
62.845,74.7691,0.014735
62.876,74.7756,0.014735
62.907,74.7815,0.014735
62.938,74.7877,0.014735
62.968,74.7937,0.014735
62.998,74.7999,0.014735
63.030,74.8062,0.014707
63.062,74.8125,0.014707
63.093,74.8188,0.014707
63.124,74.8251,0.014707
63.155,74.8312,0.014707
63.185,74.8372,0.014707
63.216,74.8434,0.014707
63.248,74.8496,0.014707
63.279,74.8561,0.014547
63.311,74.8624,0.014547
63.342,74.8685,0.014547
63.373,74.8748,0.014547
63.404,74.8809,0.014547
63.436,74.8873,0.014547
63.466,74.8933,0.014547
63.497,74.8995,0.014547
63.529,74.9058,0.014453
63.560,74.9121,0.014453
63.590,74.9182,0.014453
63.621,74.9243,0.014453
63.652,74.9306,0.014453
63.683,74.9368,0.014453
63.715,74.9431,0.014453
63.746,74.9496,0.014359
63.778,74.9557,0.014359
63.809,74.9619,0.014359
63.840,74.9681,0.014359
63.871,74.9743,0.014359
63.901,74.9806,0.014359
63.932,74.9868,0.014359
63.964,74.9929,0.014359
63.995,74.9992,0.014245
64.026,75.0054,0.014245
64.057,75.0116,0.014245
64.088,75.0178,0.014245
64.119,75.0240,0.014245
64.151,75.0303,0.014245
64.182,75.0365,0.014245
64.213,75.0427,0.014245
64.245,75.0492,0.014245
64.276,75.0554,0.014132
64.307,75.0616,0.014132
64.339,75.0679,0.014132
64.369,75.0740,0.014132
64.400,75.0801,0.014132
64.430,75.0863,0.014132
64.463,75.0927,0.014132
64.493,75.0988,0.013887
64.525,75.1052,0.013887
64.556,75.1113,0.013887
64.588,75.1179,0.013887
64.618,75.1237,0.013887
64.650,75.1300,0.013887
64.680,75.1363,0.013887
64.712,75.1425,0.013887
64.743,75.1488,0.013887
64.774,75.1551,0.013680
64.805,75.1613,0.013680
64.836,75.1674,0.013680
64.867,75.1736,0.013680
64.898,75.1798,0.013680
64.929,75.1860,0.013680
64.961,75.1923,0.013680
64.992,75.1985,0.013680
65.022,75.2045,0.013492
65.053,75.2108,0.013492
65.084,75.2170,0.013492
65.115,75.2232,0.013492
65.145,75.2291,0.013492
65.176,75.2353,0.013492
65.206,75.2415,0.013492
65.238,75.2477,0.013492
65.269,75.2541,0.013143
65.300,75.2600,0.013143
65.331,75.2665,0.013143
65.362,75.2727,0.013143
65.394,75.2791,0.013143
65.426,75.2853,0.013143
65.456,75.2914,0.013143
65.487,75.2976,0.013143
65.519,75.3042,0.012719
65.548,75.3099,0.012719
65.580,75.3162,0.012719
65.611,75.3224,0.012719
65.642,75.3285,0.012719
65.674,75.3351,0.012719
65.704,75.3410,0.012719
65.736,75.3473,0.012258
65.767,75.3535,0.012258
65.798,75.3597,0.012258
65.829,75.3659,0.012258
65.861,75.3724,0.012258
65.892,75.3786,0.012258
65.923,75.3848,0.012258
65.954,75.3910,0.012258
65.985,75.3971,0.012258
66.017,75.4035,0.011607
66.048,75.4096,0.011607
66.079,75.4159,0.011607
66.110,75.4221,0.011607
66.141,75.4283,0.011607
66.172,75.4347,0.011607
66.203,75.4407,0.011607
66.234,75.4469,0.010769
66.264,75.4530,0.010769
66.297,75.4595,0.010769
66.327,75.4655,0.010769
66.358,75.4717,0.010769
66.389,75.4778,0.010769
66.420,75.4841,0.010769
66.451,75.4903,0.010769
66.482,75.4964,0.010769
66.513,75.5029,0.009591
66.544,75.5091,0.009591
66.575,75.5153,0.009591
66.607,75.5216,0.009591
66.638,75.5277,0.009591
66.670,75.5342,0.009591
66.700,75.5401,0.009591
66.731,75.5463,0.007980
66.762,75.5527,0.007980
66.793,75.5587,0.007980
66.824,75.5649,0.007980
66.854,75.5710,0.007980
66.885,75.5772,0.007980
66.916,75.5835,0.007980
66.947,75.5894,0.007980
66.978,75.5959,0.007980
67.009,75.6020,0.005860
67.041,75.6084,0.005860
67.071,75.6144,0.005860
67.103,75.6208,0.005860
67.134,75.6270,0.005860
67.167,75.6336,0.005860
67.198,75.6397,0.005860
67.229,75.6460,0.005860
67.260,75.6522,0.002826
67.291,75.6583,0.002826
67.321,75.6643,0.002826
67.352,75.6707,0.002826
67.383,75.6767,0.002826
67.415,75.6833,0.002826
67.447,75.6894,0.002826
67.479,75.6958,-0.001272
67.509,75.7019,-0.001272
67.540,75.7082,-0.001272
67.571,75.7143,-0.001272
67.601,75.7204,-0.001272
67.631,75.7265,-0.001272
67.663,75.7327,-0.001272
67.694,75.7390,-0.001272
67.725,75.7451,-0.001272
67.756,75.7514,-0.006548
67.787,75.7575,-0.006548
67.818,75.7639,-0.006548
67.849,75.7700,-0.006548
67.881,75.7765,-0.006548
67.912,75.7825,-0.006548
67.945,75.7891,-0.006548
67.976,75.7953,-0.006548
68.009,75.8019,-0.013162
68.039,75.8080,-0.013162
68.070,75.8143,-0.013162
68.102,75.8205,-0.013162
68.134,75.8269,-0.013162
68.165,75.8333,-0.013162
68.195,75.8392,-0.013162
68.227,75.8454,-0.013162
68.258,75.8516,-0.013162
68.289,75.8579,-0.020812
68.320,75.8641,-0.020812
68.352,75.8705,-0.020812
68.383,75.8767,-0.020812
68.414,75.8829,-0.020812
68.444,75.8891,-0.020812
68.475,75.8950,-0.020812
68.506,75.9015,-0.020812
68.538,75.9077,-0.028962
68.569,75.9141,-0.028962
68.600,75.9202,-0.028962
68.632,75.9265,-0.028962
68.663,75.9330,-0.028962
68.693,75.9388,-0.028962
68.725,75.9450,-0.028962
68.755,75.9512,-0.037140
68.786,75.9573,-0.037140
68.816,75.9634,-0.037140
68.847,75.9696,-0.037140
68.878,75.9758,-0.037140
68.909,75.9818,-0.037140
68.940,75.9882,-0.037140
68.971,75.9945,-0.037140
69.003,76.0007,-0.037140
69.034,76.0070,-0.044922
69.065,76.0131,-0.044922
69.096,76.0194,-0.044922
69.127,76.0255,-0.044922
69.158,76.0319,-0.044922
69.190,76.0380,-0.044922
69.221,76.0445,-0.044922
69.251,76.0503,-0.044922
69.283,76.0569,-0.051885
69.315,76.0631,-0.051885
69.347,76.0697,-0.051885
69.378,76.0759,-0.051885
69.410,76.0821,-0.051885
69.441,76.0883,-0.051885
69.471,76.0943,-0.051885
69.502,76.1005,-0.051885
69.533,76.1067,-0.057896
69.565,76.1132,-0.057896
69.596,76.1193,-0.057896
69.626,76.1256,-0.057896
69.657,76.1314,-0.057896
69.687,76.1377,-0.057896
69.719,76.1438,-0.057896
69.750,76.1501,-0.062889
69.782,76.1566,-0.062889
69.813,76.1628,-0.062889
69.844,76.1689,-0.062889
69.875,76.1752,-0.062889
69.906,76.1814,-0.062889
69.938,76.1877,-0.062889
69.968,76.1938,-0.062889
69.999,76.1999,-0.066922
70.031,76.2063,-0.066922
70.061,76.2123,-0.066922
70.092,76.2186,-0.066922
70.124,76.2248,-0.066922
70.155,76.2311,-0.066922
70.187,76.2376,-0.066922
70.218,76.2439,-0.066922
70.250,76.2501,-0.070181
70.281,76.2563,-0.070181
70.312,76.2625,-0.070181
70.344,76.2688,-0.070181
70.374,76.2749,-0.070181
70.405,76.2811,-0.070181
70.436,76.2872,-0.070181
70.466,76.2933,-0.070181
70.497,76.2997,-0.072857
70.528,76.3058,-0.072857
70.559,76.3120,-0.072857
70.590,76.3182,-0.072857
70.621,76.3241,-0.072857
70.652,76.3306,-0.072857
70.683,76.3367,-0.072857
70.714,76.3429,-0.072857
70.745,76.3493,-0.075250
70.777,76.3555,-0.075250
70.809,76.3620,-0.075250
70.839,76.3677,-0.075250
70.869,76.3730,-0.075250
70.901,76.3778,-0.075250
70.933,76.3818,-0.075250
70.964,76.3849,-0.075250
70.995,76.3874,-0.077493
71.026,76.3890,-0.077493
71.056,76.3900,-0.077493
71.088,76.3903,-0.077493
71.119,76.3903,-0.077493
71.151,76.3903,-0.077493
71.181,76.3903,-0.077493
71.212,76.3903,-0.077493
71.244,76.3903,-0.077248
71.276,76.3903,-0.077248
71.307,76.3903,-0.077248
71.340,76.3903,-0.077248
71.370,76.3903,-0.077248
71.401,76.3903,-0.077248
71.431,76.3903,-0.077248
71.463,76.3903,-0.077248
71.493,76.3903,-0.077248
71.525,76.3903,-0.074346
71.556,76.3903,-0.074346
71.587,76.3903,-0.074346
71.619,76.3903,-0.074346
71.649,76.3903,-0.074346
71.680,76.3903,-0.074346
71.711,76.3903,-0.074346
71.742,76.3903,-0.074346
71.773,76.3903,-0.071585
71.804,76.3903,-0.071585
71.835,76.3903,-0.071585
71.867,76.3903,-0.071585
71.898,76.3903,-0.071585
71.929,76.3903,-0.071585
71.961,76.3903,-0.071585
71.993,76.3903,-0.069635
72.024,76.3903,-0.069635
72.055,76.3903,-0.069635
72.086,76.3903,-0.069635
72.117,76.3903,-0.069635
72.148,76.3903,-0.069635
72.179,76.3903,-0.069635
72.210,76.3903,-0.069635
72.240,76.3903,-0.068005
72.271,76.3903,-0.068005
72.302,76.3903,-0.068005
72.334,76.3903,-0.068005
72.363,76.3903,-0.068005
72.395,76.3903,-0.068005
72.425,76.3903,-0.068005
72.457,76.3903,-0.068005
72.487,76.3903,-0.068005
72.518,76.3903,-0.066535
72.549,76.3903,-0.066535
72.580,76.3903,-0.066535
72.611,76.3903,-0.066535
72.642,76.3903,-0.066535
72.673,76.3903,-0.066535
72.704,76.3903,-0.066535
72.736,76.3903,-0.065245
72.767,76.3903,-0.065245
72.798,76.3903,-0.065245
72.830,76.3903,-0.065245
72.862,76.3903,-0.065245
72.894,76.3903,-0.065245
72.925,76.3903,-0.065245
72.956,76.3903,-0.065245
72.986,76.3903,-0.064048
73.017,76.3903,-0.064048
73.047,76.3903,-0.064048
73.078,76.3903,-0.064048
73.109,76.3903,-0.064048
73.140,76.3903,-0.064048
73.170,76.3903,-0.064048
73.201,76.3903,-0.064048
73.231,76.3903,-0.062880
73.262,76.3903,-0.062880
73.293,76.3903,-0.062880
73.325,76.3903,-0.062880
73.357,76.3903,-0.062880
73.389,76.3903,-0.062880
73.420,76.3903,-0.062880
73.450,76.3903,-0.062880
73.480,76.3903,-0.062880
73.511,76.3903,-0.061664
73.543,76.3903,-0.061664
73.574,76.3903,-0.061664
73.605,76.3903,-0.061664
73.635,76.3903,-0.061664
73.667,76.3903,-0.061664
73.697,76.3903,-0.061664
73.729,76.3903,-0.061664
73.759,76.3903,-0.060440
73.790,76.3903,-0.060440
73.821,76.3903,-0.060440
73.851,76.3903,-0.060440
73.883,76.3903,-0.060440
73.914,76.3903,-0.060440
73.946,76.3903,-0.060440
73.977,76.3903,-0.060440
74.008,76.3903,-0.059318
74.039,76.3903,-0.059318
74.070,76.3903,-0.059318
74.101,76.3903,-0.059318
74.133,76.3903,-0.059318
74.163,76.3903,-0.059318
74.194,76.3903,-0.059318
74.225,76.3903,-0.059318
74.257,76.3903,-0.058235
74.286,76.3903,-0.058235
74.317,76.3903,-0.058235
74.348,76.3903,-0.058235
74.379,76.3903,-0.058235
74.411,76.3903,-0.058235
74.441,76.3903,-0.058235
74.473,76.3903,-0.058235
74.504,76.3903,-0.057161
74.535,76.3903,-0.057161
74.566,76.3903,-0.057161
74.597,76.3903,-0.057161
74.629,76.3903,-0.057161
74.660,76.3903,-0.057161
74.692,76.3903,-0.057161
74.722,76.3903,-0.057161
74.754,76.3903,-0.055993
74.784,76.3903,-0.055993
74.816,76.3903,-0.055993
74.846,76.3903,-0.055993
74.878,76.3903,-0.055993
74.908,76.3903,-0.055993
74.939,76.3903,-0.055993
74.970,76.3903,-0.055993
75.002,76.3903,-0.055993
75.033,76.3903,-0.054928
75.065,76.3903,-0.054928
75.096,76.3903,-0.054928
75.128,76.3903,-0.054928
75.158,76.3903,-0.054928
75.189,76.3903,-0.054928
75.220,76.3903,-0.054071
75.251,76.3903,-0.054071
75.282,76.3903,-0.054071
75.313,76.3903,-0.054071
75.345,76.3903,-0.054071
75.376,76.3903,-0.054071
75.408,76.3903,-0.054071
75.439,76.3903,-0.054071
75.470,76.3903,-0.054071
75.501,76.3903,-0.054071
75.531,76.3903,-0.053458
75.562,76.3903,-0.053458
75.593,76.3903,-0.053458
75.625,76.3903,-0.053458
75.656,76.3903,-0.053458
75.687,76.3903,-0.053458
75.719,76.3903,-0.053458
75.750,76.3903,-0.052497
75.781,76.3903,-0.052497
75.812,76.3903,-0.052497
75.843,76.3900,-0.052497
75.875,76.3889,-0.052497
75.906,76.3870,-0.052497
75.938,76.3845,-0.052497
75.969,76.3812,-0.052497
76.000,76.3774,-0.051084
76.031,76.3724,-0.051084
76.062,76.3671,-0.051084
76.092,76.3611,-0.051084
76.123,76.3550,-0.051084
76.154,76.3488,-0.051084
76.184,76.3428,-0.051084
76.215,76.3365,-0.051084
76.246,76.3302,-0.047070
76.278,76.3240,-0.047070
76.309,76.3177,-0.047070
76.340,76.3116,-0.047070
76.371,76.3053,-0.047070
76.403,76.2991,-0.047070
76.433,76.2930,-0.047070
76.463,76.2869,-0.047070
76.495,76.2807,-0.039232
76.525,76.2745,-0.039232
76.556,76.2683,-0.039232
76.587,76.2623,-0.039232
76.618,76.2559,-0.039232
76.649,76.2499,-0.039232
76.680,76.2435,-0.039232
76.711,76.2372,-0.039232
76.742,76.2311,-0.030375
76.774,76.2248,-0.030375
76.805,76.2186,-0.030375
76.835,76.2125,-0.030375
76.865,76.2063,-0.030375
76.896,76.2004,-0.030375
76.927,76.1942,-0.030375
76.958,76.1880,-0.030375
76.988,76.1819,-0.020680
77.019,76.1757,-0.020680
77.050,76.1696,-0.020680
77.081,76.1635,-0.020680
77.112,76.1572,-0.020680
77.143,76.1510,-0.020680
77.174,76.1449,-0.020680
77.205,76.1386,-0.020680
77.235,76.1325,-0.008583
77.266,76.1263,-0.008583
77.297,76.1203,-0.008583
77.328,76.1139,-0.008583
77.359,76.1077,-0.008583
77.390,76.1016,-0.008583
77.421,76.0953,-0.008583
77.452,76.0892,-0.008583
77.482,76.0832,-0.008583
77.514,76.0768,0.006765
77.545,76.0706,0.006765
77.576,76.0646,0.006765
77.607,76.0584,0.006765
77.638,76.0520,0.006765
77.669,76.0458,0.006765
77.700,76.0395,0.006765
77.731,76.0333,0.026522
77.762,76.0272,0.026522
77.793,76.0210,0.026522
77.825,76.0147,0.026522
77.856,76.0084,0.026522
77.887,76.0021,0.026522
77.919,75.9959,0.026522
77.950,75.9897,0.026522
77.982,75.9833,0.026522
78.013,75.9770,0.026522
78.044,75.9706,0.051376
78.075,75.9645,0.051376
78.106,75.9584,0.051376
78.137,75.9522,0.051376
78.169,75.9456,0.051376
78.199,75.9398,0.051376
78.232,75.9332,0.051376
78.261,75.9274,0.051376
78.292,75.9211,0.081365
78.323,75.9151,0.081365
78.353,75.9090,0.081365
78.383,75.9030,0.081365
78.414,75.8968,0.081365
78.445,75.8904,0.081365
78.477,75.8842,0.081365
78.507,75.8782,0.116875
78.538,75.8721,0.116875
78.568,75.8659,0.116875
78.600,75.8597,0.116875
78.630,75.8535,0.116875
78.661,75.8473,0.116875
78.692,75.8412,0.116875
78.724,75.8348,0.116875
78.754,75.8288,0.158160
78.786,75.8223,0.158160
78.817,75.8163,0.158160
78.849,75.8097,0.158160
78.881,75.8035,0.158160
78.911,75.7973,0.158160
78.942,75.7912,0.158160
78.973,75.7851,0.158160
79.004,75.7789,0.205391
79.035,75.7726,0.205391
79.066,75.7663,0.205391
79.097,75.7602,0.205391
79.128,75.7541,0.205391
79.159,75.7478,0.205391
79.190,75.7416,0.205391
79.221,75.7354,0.205391
79.252,75.7292,0.258142
79.283,75.7230,0.258142
79.314,75.7167,0.258142
79.345,75.7106,0.258142
79.376,75.7045,0.258142
79.407,75.6981,0.258142
79.438,75.6920,0.258142
79.469,75.6857,0.258142
79.500,75.6797,0.316358
79.531,75.6734,0.316358
79.562,75.6672,0.316358
79.593,75.6610,0.316358
79.624,75.6548,0.316358
79.655,75.6487,0.316358
79.686,75.6424,0.316358
79.717,75.6362,0.316358
79.747,75.6301,0.379643
79.778,75.6239,0.379643
79.809,75.6178,0.379643
79.840,75.6115,0.379643
79.872,75.6053,0.379643
79.902,75.5991,0.379643
79.933,75.5930,0.379643
79.963,75.5870,0.379643
79.995,75.5806,0.447526
80.026,75.5743,0.447526
80.058,75.5681,0.447526
80.089,75.5618,0.447526
80.119,75.5558,0.447526
80.150,75.5497,0.447526
80.181,75.5433,0.447526
80.212,75.5371,0.447526
80.243,75.5309,0.519884
80.274,75.5248,0.519884
80.305,75.5185,0.519884
80.336,75.5125,0.519884
80.366,75.5065,0.519884
80.396,75.5004,0.519884
80.427,75.4943,0.519884
80.459,75.4879,0.519884
80.490,75.4817,0.596359
80.520,75.4755,0.596359
80.551,75.4695,0.596359
80.583,75.4631,0.596359
80.614,75.4569,0.596359
80.646,75.4504,0.596359
80.677,75.4441,0.596359
80.708,75.4381,0.596359
80.739,75.4318,0.676980
80.770,75.4257,0.676980
80.800,75.4195,0.676980
80.832,75.4132,0.676980
80.863,75.4071,0.676980
80.894,75.4008,0.676980
80.924,75.3948,0.676980
80.955,75.3885,0.676980
80.987,75.3823,0.761228
81.018,75.3760,0.761228
81.050,75.3697,0.761228
81.081,75.3635,0.761228
81.112,75.3573,0.761228
81.143,75.3509,0.761228
81.174,75.3450,0.761228
81.206,75.3385,0.761228
81.235,75.3326,0.849489
81.267,75.3263,0.849489
81.298,75.3199,0.849489
81.329,75.3139,0.849489
81.360,75.3078,0.849489
81.391,75.3015,0.849489
81.421,75.2954,0.849489
81.452,75.2892,0.849489
81.483,75.2831,0.941576
81.514,75.2766,0.941576
81.544,75.2708,0.941576
81.575,75.2645,0.941576
81.606,75.2584,0.941576
81.637,75.2522,0.941576
81.669,75.2459,0.941576
81.701,75.2394,0.941576
81.731,75.2334,0.941576
81.762,75.2272,1.036564
81.793,75.2211,1.036564
81.825,75.2148,1.036564
81.856,75.2084,1.036564
81.887,75.2022,1.036564
81.920,75.1957,1.036564
81.950,75.1897,1.036564
81.980,75.1835,1.036564
82.012,75.1772,1.133173
82.043,75.1710,1.133173
82.074,75.1649,1.133173
82.105,75.1587,1.133173
82.135,75.1526,1.133173
82.167,75.1463,1.133173
82.197,75.1401,1.133173
82.228,75.1341,1.133173
82.259,75.1278,1.230706
82.291,75.1215,1.230706
82.321,75.1154,1.230706
82.352,75.1092,1.230706
82.384,75.1026,1.230706
82.415,75.0967,1.230706
82.447,75.0902,1.230706
82.478,75.0840,1.230706
82.509,75.0777,1.329849
82.539,75.0718,1.329849
82.569,75.0657,1.329849
82.601,75.0594,1.329849
82.632,75.0533,1.329849
82.663,75.0470,1.329849
82.694,75.0408,1.329849
82.726,75.0344,1.329849
82.757,75.0282,1.329849
82.788,75.0219,1.422661
82.820,75.0157,1.422661
82.851,75.0093,1.422661
82.883,75.0029,1.422661
82.914,74.9967,1.422661
82.945,74.9906,1.422661
82.975,74.9846,1.422661
83.005,74.9785,1.422661
83.036,74.9725,1.340458
83.067,74.9661,1.340458
83.099,74.9599,1.340458
83.129,74.9538,1.340458
83.160,74.9477,1.340458
83.191,74.9414,1.340458
83.222,74.9352,1.340458
83.254,74.9290,1.340458
83.284,74.9228,0.616672
83.315,74.9166,0.616672
83.347,74.9103,0.616672
83.378,74.9041,0.616672
83.409,74.8979,0.616672
83.441,74.8914,0.616672
83.471,74.8854,0.616672
83.502,74.8793,0.017421
83.535,74.8728,0.017421
83.564,74.8669,0.017421
83.596,74.8604,0.017421
83.627,74.8541,0.017421
83.658,74.8481,0.017421
83.689,74.8418,0.017421
83.721,74.8355,0.017421
83.752,74.8293,0.016742
83.782,74.8231,0.016742
83.813,74.8170,0.016742
83.845,74.8106,0.016742
83.875,74.8046,0.016742
83.906,74.7984,0.016742
83.937,74.7923,0.016742
83.968,74.7860,0.016742
83.997,74.7802,0.016742
84.029,74.7737,0.016497
84.060,74.7675,0.016497
84.092,74.7613,0.016497
84.124,74.7549,0.016497
84.154,74.7488,0.016497
84.186,74.7425,0.016497
84.217,74.7360,0.016497
84.247,74.7301,0.016346
84.278,74.7241,0.016346
84.309,74.7179,0.016346
84.339,74.7118,0.016346
84.371,74.7055,0.016346
84.402,74.6992,0.016346
84.434,74.6930,0.016346
84.465,74.6867,0.016346
84.495,74.6806,0.016346
84.527,74.6743,0.016318
84.558,74.6681,0.016318
84.589,74.6619,0.016318
84.620,74.6555,0.016318
84.651,74.6492,0.016318
84.682,74.6433,0.016318
84.714,74.6369,0.016318
84.744,74.6310,0.016243
84.776,74.6244,0.016243
84.806,74.6183,0.016243
84.837,74.6124,0.016243
84.868,74.6061,0.016243
84.899,74.6000,0.016243
84.929,74.5939,0.016243
84.960,74.5877,0.016243
84.991,74.5814,0.016243
85.023,74.5752,0.016186
85.055,74.5687,0.016186
85.086,74.5625,0.016186
85.117,74.5562,0.016186
85.148,74.5501,0.016186
85.179,74.5440,0.016186
85.209,74.5377,0.016186
85.240,74.5316,0.016186
85.271,74.5256,0.016243
85.302,74.5192,0.016243
85.334,74.5128,0.016243
85.364,74.5068,0.016243
85.395,74.5006,0.016243
85.427,74.4942,0.016243
85.458,74.4881,0.016243
85.490,74.4817,0.016243
85.521,74.4756,0.016177
85.552,74.4691,0.016177
85.585,74.4627,0.016177
85.614,74.4567,0.016177
85.645,74.4506,0.016177
85.675,74.4446,0.016177
85.706,74.4385,0.016177
85.738,74.4320,0.016177
85.769,74.4258,0.016177
85.800,74.4196,0.016177
85.831,74.4134,0.016177
85.863,74.4070,0.016177
85.896,74.4004,0.016177
85.926,74.3945,0.016177
85.957,74.3883,0.016177
85.988,74.3821,0.016111
86.019,74.3759,0.016111
86.050,74.3695,0.016111
86.081,74.3635,0.016111
86.112,74.3573,0.016111
86.143,74.3512,0.016111
86.175,74.3447,0.016111
86.206,74.3385,0.016111
86.237,74.3322,0.016111
86.268,74.3260,0.016054
86.299,74.3197,0.016054
86.331,74.3135,0.016054
86.363,74.3070,0.016054
86.393,74.3011,0.016054
86.424,74.2948,0.016054
86.454,74.2888,0.016054
86.486,74.2825,0.016054
86.517,74.2761,0.016017
86.549,74.2698,0.016017
86.580,74.2637,0.016017
86.611,74.2574,0.016017
86.642,74.2513,0.016017
86.673,74.2451,0.016017
86.704,74.2387,0.016017
86.735,74.2326,0.015923
86.765,74.2268,0.015923
86.795,74.2206,0.015923
86.827,74.2144,0.015923
86.858,74.2082,0.015923
86.889,74.2019,0.015923
86.920,74.1955,0.015923
86.951,74.1895,0.015923
86.982,74.1834,0.016017
87.013,74.1769,0.016017
87.046,74.1705,0.016017
87.076,74.1644,0.016017
87.108,74.1582,0.016017
87.137,74.1521,0.016017
87.170,74.1457,0.016017
87.200,74.1396,0.016017
87.231,74.1335,0.016017
87.262,74.1273,0.016017
87.292,74.1211,0.016017
87.324,74.1149,0.016017
87.354,74.1090,0.016017
87.385,74.1026,0.016017
87.416,74.0966,0.016017
87.446,74.0904,0.016017
87.477,74.0842,0.016017
87.509,74.0777,0.016073
87.540,74.0716,0.016073
87.571,74.0654,0.016073
87.601,74.0594,0.016073
87.632,74.0533,0.016073
87.663,74.0471,0.016073
87.693,74.0411,0.016073
87.724,74.0348,0.016073
87.755,74.0287,0.016130
87.786,74.0223,0.016130
87.817,74.0163,0.016130
87.848,74.0100,0.016130
87.879,74.0039,0.016130
87.910,73.9976,0.016130
87.941,73.9915,0.016130
87.972,73.9852,0.016130
88.003,73.9790,0.016139
88.033,73.9729,0.016139
88.065,73.9668,0.016139
88.095,73.9605,0.016139
88.126,73.9544,0.016139
88.158,73.9481,0.016139
88.189,73.9418,0.016139
88.221,73.9353,0.016139
88.252,73.9293,0.016102
88.284,73.9228,0.016102
88.315,73.9167,0.016102
88.345,73.9107,0.016102
88.376,73.9046,0.016102
88.407,73.8982,0.016102
88.438,73.8919,0.016102
88.469,73.8858,0.016102
88.500,73.8798,0.016064
88.531,73.8733,0.016064
88.562,73.8674,0.016064
88.592,73.8613,0.016064
88.624,73.8550,0.016064
88.654,73.8489,0.016064
88.685,73.8426,0.016064
88.716,73.8364,0.016064
88.747,73.8302,0.016102
88.779,73.8240,0.016102
88.810,73.8176,0.016102
88.841,73.8114,0.016102
88.872,73.8052,0.016102
88.903,73.7992,0.016102
88.935,73.7926,0.016102
88.965,73.7866,0.016102
88.997,73.7802,0.016102
89.026,73.7745,0.016102
89.057,73.7683,0.016073
89.088,73.7622,0.016073
89.118,73.7560,0.016073
89.149,73.7499,0.016073
89.180,73.7437,0.016073
89.211,73.7375,0.016073
89.242,73.7312,0.016073
89.273,73.7250,0.016205
89.305,73.7187,0.016205
89.335,73.7126,0.016205
89.366,73.7064,0.016205
89.397,73.7003,0.016205
89.430,73.6939,0.016205
89.460,73.6878,0.016205
89.491,73.6815,0.016205
89.521,73.6755,0.016233
89.552,73.6692,0.016233
89.582,73.6632,0.016233
89.613,73.6569,0.016233
89.644,73.6508,0.016233
89.676,73.6444,0.016233
89.707,73.6384,0.016233
89.737,73.6321,0.016233
89.768,73.6260,0.016224
89.800,73.6197,0.016224
89.831,73.6136,0.016224
89.862,73.6072,0.016224
89.893,73.6011,0.016224
89.925,73.5948,0.016224
89.955,73.5887,0.016224
89.986,73.5825,0.016224
90.017,73.5762,0.016167
90.048,73.5701,0.016167
90.079,73.5639,0.016167
90.110,73.5577,0.016167
90.141,73.5516,0.016167
90.172,73.5454,0.016167
90.203,73.5392,0.016167
90.234,73.5329,0.016167
90.265,73.5267,0.016130
90.295,73.5207,0.016130
90.327,73.5143,0.016130
90.358,73.5081,0.016130
90.388,73.5020,0.016130
90.419,73.4958,0.016130
90.450,73.4897,0.016130
90.482,73.4834,0.016224
90.513,73.4772,0.016224
90.544,73.4709,0.016224
90.575,73.4647,0.016224
90.606,73.4585,0.016224
90.637,73.4524,0.016224
90.668,73.4461,0.016224
90.699,73.4399,0.016224
90.730,73.4337,0.016224
90.761,73.4276,0.016262
90.792,73.4214,0.016262
90.822,73.4152,0.016262
90.853,73.4090,0.016262
90.885,73.4027,0.016262
90.916,73.3966,0.016262
90.947,73.3904,0.016262
90.978,73.3840,0.016196
91.009,73.3778,0.016196
91.039,73.3719,0.016196
91.070,73.3657,0.016196
91.103,73.3596,0.016196
91.132,73.3549,0.016196
91.164,73.3507,0.016196
91.194,73.3471,0.016196
91.225,73.3444,0.016196
91.256,73.3423,0.016120
91.287,73.3409,0.016120
91.318,73.3403,0.016120
91.350,73.3403,0.016120
91.382,73.3403,0.016120
91.414,73.3403,0.016120
91.444,73.3403,0.016120
91.475,73.3404,0.016120
91.506,73.3410,0.016167
91.538,73.3425,0.016167
91.569,73.3446,0.016167
91.600,73.3475,0.016167
91.631,73.3512,0.016167
91.662,73.3555,0.016167
91.693,73.3605,0.016167
91.725,73.3664,0.016167
91.755,73.3725,0.016017
91.786,73.3788,0.016017
91.816,73.3849,0.016017
91.847,73.3910,0.016017
91.878,73.3972,0.016017
91.910,73.4035,0.016017
91.941,73.4096,0.016017
91.971,73.4157,0.016017
92.003,73.4220,0.015866
92.034,73.4282,0.015866
92.065,73.4345,0.015866
92.096,73.4409,0.015866
92.126,73.4467,0.015866
92.157,73.4529,0.015866
92.188,73.4590,0.015866
92.218,73.4652,0.015866
92.249,73.4715,0.015913
92.280,73.4774,0.015913
92.311,73.4836,0.015913
92.342,73.4898,0.015913
92.373,73.4960,0.015913
92.404,73.5022,0.015913
92.435,73.5086,0.015913
92.466,73.5149,0.015913
92.498,73.5210,0.015894
92.529,73.5273,0.015894
92.560,73.5335,0.015894
92.591,73.5398,0.015894
92.623,73.5460,0.015894
92.653,73.5521,0.015894
92.683,73.5582,0.015894
92.714,73.5644,0.015894
92.746,73.5707,0.015828
92.778,73.5772,0.015828
92.809,73.5834,0.015828
92.841,73.5897,0.015828
92.872,73.5959,0.015828
92.903,73.6020,0.015828
92.933,73.6083,0.015828
92.965,73.6145,0.015828
92.996,73.6207,0.015753
93.027,73.6269,0.015753
93.058,73.6331,0.015753
93.088,73.6393,0.015753
93.120,73.6454,0.015753
93.150,73.6516,0.015753
93.182,73.6579,0.015753
93.213,73.6640,0.015753
93.244,73.6703,0.015734
93.276,73.6767,0.015734
93.307,73.6829,0.015734
93.339,73.6891,0.015734
93.370,73.6953,0.015734
93.400,73.7014,0.015734
93.432,73.7079,0.015734
93.464,73.7142,0.015734
93.493,73.7202,0.015725
93.524,73.7266,0.015725
93.554,73.7323,0.015725
93.585,73.7385,0.015725
93.616,73.7448,0.015725
93.648,73.7512,0.015725
93.680,73.7574,0.015725
93.712,73.7638,0.015725
93.742,73.7700,0.015725
93.773,73.7761,0.015753
93.804,73.7823,0.015753
93.836,73.7886,0.015753
93.866,73.7946,0.015753
93.898,73.8010,0.015753
93.929,73.8075,0.015753
93.961,73.8135,0.015753
93.991,73.8199,0.015753
94.023,73.8262,0.015687
94.053,73.8321,0.015687
94.084,73.8383,0.015687
94.116,73.8447,0.015687
94.149,73.8512,0.015687
94.178,73.8573,0.015687
94.208,73.8632,0.015687
94.239,73.8695,0.015593
94.271,73.8757,0.015593
94.302,73.8819,0.015593
94.333,73.8881,0.015593
94.364,73.8943,0.015593
94.395,73.9006,0.015593
94.425,73.9066,0.015593
94.456,73.9128,0.015593
94.487,73.9190,0.015546
94.517,73.9250,0.015546
94.548,73.9310,0.015546
94.580,73.9376,0.015546
94.610,73.9435,0.015546
94.641,73.9500,0.015546
94.671,73.9557,0.015546
94.702,73.9619,0.015546
94.733,73.9681,0.015442
94.764,73.9744,0.015442
94.796,73.9808,0.015442
94.826,73.9868,0.015442
94.857,73.9930,0.015442
94.888,73.9991,0.015442
94.919,74.0054,0.015442
94.950,74.0115,0.015442
94.981,74.0178,0.015442
95.011,74.0238,0.015414
95.042,74.0301,0.015414
95.073,74.0362,0.015414
95.105,74.0425,0.015414
95.136,74.0487,0.015414
95.168,74.0550,0.015414
95.198,74.0612,0.015414
95.230,74.0674,0.015414
95.261,74.0739,0.015433
95.293,74.0802,0.015433
95.322,74.0859,0.015433
95.353,74.0920,0.015433
95.384,74.0982,0.015433
95.415,74.1044,0.015433
95.446,74.1107,0.015433
95.476,74.1168,0.015433
95.507,74.1230,0.015376
95.538,74.1291,0.015376
95.569,74.1354,0.015376
95.599,74.1413,0.015376
95.630,74.1477,0.015376
95.660,74.1536,0.015376
95.691,74.1598,0.015376
95.722,74.1659,0.015376
95.753,74.1720,0.015291
95.784,74.1782,0.015291
95.815,74.1845,0.015291
95.845,74.1906,0.015291
95.876,74.1968,0.015291
95.907,74.2029,0.015291
95.938,74.2092,0.015291
95.971,74.2156,0.015291
96.000,74.2217,0.015291
96.032,74.2279,0.015320
96.062,74.2340,0.015320
96.094,74.2402,0.015320
96.125,74.2465,0.015320
96.157,74.2530,0.015320
96.188,74.2590,0.015320
96.219,74.2652,0.015320
96.250,74.2717,0.015338
96.281,74.2778,0.015338
96.312,74.2840,0.015338
96.344,74.2902,0.015338
96.374,74.2962,0.015338
96.405,74.3026,0.015338
96.435,74.3085,0.015338
96.466,74.3146,0.015338
96.497,74.3208,0.015338
96.528,74.3270,0.015197
96.559,74.3332,0.015197
96.590,74.3395,0.015197
96.621,74.3457,0.015197
96.653,74.3521,0.015197
96.684,74.3583,0.015197
96.715,74.3645,0.015197
96.747,74.3709,0.015197
96.778,74.3771,0.015112
96.810,74.3834,0.015112
96.841,74.3896,0.015112
96.872,74.3961,0.015112
96.904,74.4023,0.015112
96.936,74.4086,0.015112
96.966,74.4147,0.015112
96.996,74.4209,0.015122
97.027,74.4270,0.015122
97.059,74.4332,0.015122
97.090,74.4395,0.015122
97.121,74.4456,0.015122
97.151,74.4518,0.015122
97.182,74.4578,0.015122
97.213,74.4642,0.015122
97.244,74.4702,0.015131
97.275,74.4766,0.015131
97.307,74.4828,0.015131
97.337,74.4891,0.015131
97.368,74.4950,0.015131
97.400,74.5016,0.015131
97.430,74.5075,0.015131
97.462,74.5139,0.015131
97.493,74.5201,0.015084
97.524,74.5262,0.015084
97.554,74.5324,0.015084
97.586,74.5386,0.015084
97.617,74.5449,0.015084
97.649,74.5514,0.015084
97.679,74.5573,0.015084
97.711,74.5636,0.015084
97.741,74.5697,0.015027
97.773,74.5760,0.015027
97.803,74.5820,0.015027
97.834,74.5883,0.015027
97.865,74.5945,0.015027
97.896,74.6007,0.015027
97.927,74.6069,0.015027
97.958,74.6131,0.015027
97.989,74.6193,0.014952
98.021,74.6256,0.014952
98.050,74.6315,0.014952
98.082,74.6378,0.014952
98.113,74.6440,0.014952
98.144,74.6502,0.014952
98.174,74.6563,0.014952
98.206,74.6627,0.014952
98.237,74.6689,0.014952
98.268,74.6751,0.014952
98.299,74.6812,0.014952
98.330,74.6874,0.014952
98.361,74.6936,0.014952
98.392,74.6999,0.014952
98.423,74.7061,0.014952
98.454,74.7123,0.014952
98.486,74.7185,0.014990
98.516,74.7247,0.014990
98.548,74.7309,0.014990
98.579,74.7373,0.014990
98.610,74.7435,0.014990
98.642,74.7499,0.014990
98.673,74.7560,0.014990
98.704,74.7623,0.014990
98.736,74.7686,0.014990
98.767,74.7750,0.014877
98.798,74.7812,0.014877
98.828,74.7871,0.014877
98.859,74.7932,0.014877
98.890,74.7993,0.014877
98.920,74.8055,0.014877
98.951,74.8117,0.014877
98.982,74.8178,0.014820
99.012,74.8240,0.014820
99.044,74.8302,0.014820
99.075,74.8366,0.014820
99.108,74.8432,0.014820
99.139,74.8493,0.014820
99.170,74.8555,0.014820
99.200,74.8617,0.014820
99.231,74.8676,0.014820
99.262,74.8739,0.014820
99.294,74.8803,0.014792
99.325,74.8865,0.014792
99.357,74.8929,0.014792
99.389,74.8992,0.014792
99.420,74.9054,0.014792
99.450,74.9114,0.014792
99.481,74.9176,0.014792
99.512,74.9239,0.014688
99.542,74.9298,0.014688
99.573,74.9362,0.014688
99.605,74.9424,0.014688
99.636,74.9487,0.014688
99.667,74.9548,0.014688
99.698,74.9611,0.014688
99.729,74.9672,0.014688
99.761,74.9738,0.014660
99.792,74.9799,0.014660
99.823,74.9861,0.014660
99.853,74.9921,0.014660
99.885,74.9985,0.014660
99.917,75.0048,0.014660
99.948,75.0111,0.014660
99.980,75.0176,0.014660
100.011,75.0236,0.014679
100.041,75.0297,0.014679
100.072,75.0359,0.014679
100.103,75.0420,0.014679
100.134,75.0483,0.014679
100.165,75.0544,0.014679
100.195,75.0605,0.014679
100.228,75.0670,0.014679
100.258,75.0730,0.014679
100.289,75.0792,0.014594
100.320,75.0855,0.014594
100.351,75.0916,0.014594
100.383,75.0979,0.014594
100.413,75.1040,0.014594
100.443,75.1102,0.014594
100.474,75.1162,0.014594
100.505,75.1224,0.014443
100.535,75.1284,0.014443
100.567,75.1349,0.014443
100.598,75.1411,0.014443
100.629,75.1473,0.014443
100.660,75.1535,0.014443
100.692,75.1598,0.014443
100.723,75.1660,0.014443
100.754,75.1723,0.014443
100.785,75.1784,0.014368
100.816,75.1845,0.014368
100.846,75.1907,0.014368
100.878,75.1970,0.014368
100.911,75.2037,0.014368
100.940,75.2095,0.014368
100.971,75.2159,0.014368
101.003,75.2220,0.014293
101.034,75.2282,0.014293
101.065,75.2344,0.014293
101.096,75.2406,0.014293
101.126,75.2469,0.014293
101.157,75.2530,0.014293
101.189,75.2593,0.014293
101.220,75.2654,0.014293
101.252,75.2718,0.014293
101.282,75.2779,0.014208
101.313,75.2841,0.014208
101.344,75.2902,0.014208
101.376,75.2966,0.014208
101.406,75.3027,0.014208
101.438,75.3091,0.014208
101.470,75.3156,0.014208
101.500,75.3215,0.014208
101.531,75.3276,0.014029
101.562,75.3339,0.014029
101.593,75.3403,0.014029
101.625,75.3463,0.014029
101.657,75.3528,0.014029
101.687,75.3587,0.014029
101.717,75.3648,0.014029
101.749,75.3713,0.014029
101.780,75.3775,0.013859
101.812,75.3838,0.013859
101.843,75.3900,0.013859
101.874,75.3962,0.013859
101.904,75.4023,0.013859
101.935,75.4084,0.013859
101.967,75.4151,0.013859
101.997,75.4209,0.013718
102.030,75.4276,0.013718
102.060,75.4335,0.013718
102.091,75.4396,0.013718
102.122,75.4459,0.013718
102.154,75.4523,0.013718
102.185,75.4585,0.013718
102.216,75.4648,0.013718
102.246,75.4707,0.013501
102.278,75.4771,0.013501
102.308,75.4831,0.013501
102.341,75.4897,0.013501
102.371,75.4957,0.013501
102.402,75.5020,0.013501
102.433,75.5081,0.013501
102.465,75.5145,0.013501
102.496,75.5205,0.013501
102.527,75.5270,0.013237
102.559,75.5334,0.013237
102.591,75.5397,0.013237
102.622,75.5458,0.013237
102.653,75.5520,0.013237
102.684,75.5583,0.013237
102.714,75.5643,0.013237
102.745,75.5706,0.013237
102.778,75.5772,0.012870
102.808,75.5830,0.012870
102.839,75.5892,0.012870
102.870,75.5954,0.012870
102.901,75.6015,0.012870
102.931,75.6078,0.012870
102.963,75.6140,0.012870
102.995,75.6203,0.012474
103.027,75.6270,0.012474
103.058,75.6330,0.012474
103.088,75.6392,0.012474
103.118,75.6450,0.012474
103.149,75.6512,0.012474
103.180,75.6575,0.012474
103.211,75.6637,0.012474
103.242,75.6698,0.011899
103.273,75.6761,0.011899
103.303,75.6821,0.011899
103.335,75.6885,0.011899
103.367,75.6947,0.011899
103.398,75.7011,0.011899
103.429,75.7071,0.011899
103.460,75.7135,0.011899
103.491,75.7197,0.011117
103.523,75.7260,0.011117
103.554,75.7323,0.011117
103.585,75.7385,0.011117
103.617,75.7447,0.011117
103.648,75.7510,0.011117
103.678,75.7571,0.011117
103.709,75.7632,0.011117
103.740,75.7694,0.010232
103.771,75.7757,0.010232
103.803,75.7819,0.010232
103.834,75.7882,0.010232
103.866,75.7946,0.010232
103.896,75.8006,0.010232
103.927,75.8068,0.010232
103.958,75.8130,0.010232
103.990,75.8194,0.008913
104.020,75.8254,0.008913
104.052,75.8319,0.008913
104.083,75.8381,0.008913
104.114,75.8443,0.008913
104.146,75.8506,0.008913
104.178,75.8570,0.008913
104.209,75.8632,0.008913
104.239,75.8692,0.007047
104.270,75.8754,0.007047
104.301,75.8819,0.007047
104.333,75.8880,0.007047
104.364,75.8944,0.007047
104.395,75.9005,0.007047
104.426,75.9068,0.007047
104.458,75.9130,0.007047
104.488,75.9192,0.004635
104.519,75.9254,0.004635
104.551,75.9317,0.004635
104.582,75.9381,0.004635
104.613,75.9441,0.004635
104.645,75.9503,0.004635
104.676,75.9565,0.004635
104.707,75.9627,0.004635
104.738,75.9689,0.001451
104.768,75.9751,0.001451
104.799,75.9813,0.001451
104.831,75.9875,0.001451
104.861,75.9937,0.001451
104.893,76.0000,0.001451
104.924,76.0063,0.001451
104.955,76.0125,0.001451
104.987,76.0188,0.001451
105.018,76.0250,-0.002516
105.049,76.0312,-0.002516
105.079,76.0372,-0.002516
105.110,76.0436,-0.002516
105.143,76.0501,-0.002516
105.173,76.0561,-0.002516
105.204,76.0622,-0.002516
105.236,76.0687,-0.007452
105.267,76.0749,-0.007452
105.298,76.0809,-0.007452
105.329,76.0871,-0.007452
105.360,76.0935,-0.007452
105.391,76.0998,-0.007452
105.423,76.1060,-0.007452
105.455,76.1124,-0.007452
105.485,76.1184,-0.012917
105.516,76.1247,-0.012917
105.547,76.1310,-0.012917
105.579,76.1371,-0.012917
105.609,76.1434,-0.012917
105.641,76.1495,-0.012917
105.672,76.1558,-0.012917
105.702,76.1619,-0.012917
105.734,76.1682,-0.018608
105.765,76.1745,-0.018608
105.796,76.1807,-0.018608
105.827,76.1869,-0.018608
105.858,76.1931,-0.018608
105.890,76.1995,-0.018608
105.921,76.2058,-0.018608
105.953,76.2120,-0.018608
105.985,76.2184,-0.018608
106.016,76.2247,-0.024430
106.047,76.2309,-0.024430
106.077,76.2370,-0.024430
106.108,76.2429,-0.024430
106.138,76.2490,-0.024430
106.169,76.2552,-0.024430
106.200,76.2614,-0.024430
106.231,76.2676,-0.024430
106.262,76.2739,-0.024430
106.294,76.2801,-0.030036
106.325,76.2863,-0.030036
106.355,76.2924,-0.030036
106.386,76.2987,-0.030036
106.418,76.3049,-0.030036
106.447,76.3110,-0.030036
106.478,76.3168,-0.030036
106.509,76.3224,-0.035340
106.540,76.3270,-0.035340
106.571,76.3311,-0.035340
106.602,76.3344,-0.035340
106.634,76.3370,-0.035340
106.664,76.3388,-0.035340
106.696,76.3399,-0.035340
106.726,76.3403,-0.035340
106.757,76.3403,-0.039477
106.790,76.3403,-0.039477
106.820,76.3403,-0.039477
106.852,76.3403,-0.039477
106.883,76.3403,-0.039477
106.914,76.3403,-0.039477
106.945,76.3403,-0.039477
106.975,76.3403,-0.039477
107.006,76.3403,-0.040296
107.038,76.3403,-0.040296
107.069,76.3403,-0.040296
107.100,76.3403,-0.040296
107.132,76.3403,-0.040296
107.163,76.3403,-0.040296
107.194,76.3403,-0.040296
107.225,76.3403,-0.040296
107.256,76.3403,-0.038402
107.287,76.3403,-0.038402
107.319,76.3403,-0.038402
107.350,76.3403,-0.038402
107.382,76.3403,-0.038402
107.413,76.3403,-0.038402
107.443,76.3403,-0.038402
107.473,76.3403,-0.038402
107.504,76.3403,-0.036499
107.535,76.3403,-0.036499
107.567,76.3403,-0.036499
107.598,76.3403,-0.036499
107.629,76.3403,-0.036499
107.660,76.3403,-0.036499
107.690,76.3403,-0.036499
107.721,76.3403,-0.036499
107.752,76.3403,-0.034992
107.783,76.3403,-0.034992
107.814,76.3403,-0.034992
107.844,76.3403,-0.034992
107.875,76.3403,-0.034992
107.906,76.3403,-0.034992
107.937,76.3403,-0.034992
107.969,76.3403,-0.034992
108.000,76.3403,-0.033541
108.032,76.3403,-0.033541
108.062,76.3403,-0.033541
108.093,76.3403,-0.033541
108.124,76.3403,-0.033541
108.155,76.3403,-0.033541
108.187,76.3403,-0.033541
108.218,76.3403,-0.033541
108.250,76.3403,-0.033541
108.281,76.3403,-0.032260
108.312,76.3403,-0.032260
108.343,76.3403,-0.032260
108.374,76.3403,-0.032260
108.406,76.3403,-0.032260
108.437,76.3403,-0.032260
108.468,76.3403,-0.032260
108.499,76.3403,-0.032260
108.530,76.3403,-0.032260
108.561,76.3403,-0.031025
108.592,76.3403,-0.031025
108.623,76.3403,-0.031025
108.653,76.3403,-0.031025
108.684,76.3403,-0.031025
108.715,76.3403,-0.031025
108.745,76.3403,-0.031025
108.776,76.3403,-0.029866
108.808,76.3403,-0.029866
108.839,76.3403,-0.029866
108.870,76.3403,-0.029866
108.901,76.3403,-0.029866
108.933,76.3403,-0.029866
108.964,76.3403,-0.029866
108.995,76.3403,-0.029866
109.026,76.3403,-0.028887
109.057,76.3403,-0.028887
109.088,76.3403,-0.028887
109.119,76.3403,-0.028887
109.150,76.3403,-0.028887
109.181,76.3403,-0.028887
109.212,76.3403,-0.028887
109.242,76.3403,-0.028887
109.274,76.3403,-0.027916
109.305,76.3403,-0.027916
109.336,76.3403,-0.027916
109.367,76.3403,-0.027916
109.398,76.3403,-0.027916
109.430,76.3403,-0.027916
109.462,76.3403,-0.027916
109.493,76.3403,-0.027916
109.523,76.3403,-0.027049
109.555,76.3403,-0.027049
109.586,76.3403,-0.027049
109.618,76.3403,-0.027049
109.648,76.3403,-0.027049
109.679,76.3403,-0.027049
109.710,76.3403,-0.027049
109.741,76.3403,-0.027049
109.772,76.3403,-0.026230
109.803,76.3403,-0.026230
109.834,76.3403,-0.026230
109.866,76.3403,-0.026230
109.897,76.3403,-0.026230
109.928,76.3403,-0.026230
109.959,76.3403,-0.026230
109.990,76.3403,-0.026230
110.022,76.3403,-0.025297
110.053,76.3403,-0.025297
110.083,76.3403,-0.025297
110.115,76.3403,-0.025297
110.146,76.3403,-0.025297
110.177,76.3403,-0.025297
110.208,76.3403,-0.025297
110.240,76.3403,-0.025297
110.270,76.3403,-0.024458
110.300,76.3403,-0.024458
110.331,76.3403,-0.024458
110.362,76.3403,-0.024458
110.395,76.3403,-0.024458
110.424,76.3403,-0.024458
110.454,76.3403,-0.024458
110.485,76.3403,-0.023742
110.516,76.3403,-0.023742
110.547,76.3403,-0.023742
110.579,76.3403,-0.023742
110.610,76.3403,-0.023742
110.641,76.3403,-0.023742
110.672,76.3403,-0.023742
110.703,76.3403,-0.023742
110.734,76.3403,-0.023092
110.765,76.3403,-0.023092
110.796,76.3403,-0.023092
110.827,76.3403,-0.023092
110.858,76.3403,-0.023092
110.889,76.3403,-0.023092
110.920,76.3403,-0.023092
110.950,76.3403,-0.023092
110.981,76.3403,-0.023205
111.013,76.3403,-0.023205
111.046,76.3403,-0.023205
111.077,76.3403,-0.023205
111.108,76.3403,-0.023205
111.139,76.3403,-0.023205
111.171,76.3403,-0.023205
111.202,76.3403,-0.023205
111.233,76.3403,-0.023205
111.264,76.3403,-0.023884
111.294,76.3403,-0.023884
111.326,76.3403,-0.023884
111.357,76.3403,-0.023884
111.388,76.3397,-0.023884
111.420,76.3384,-0.023884
111.449,76.3364,-0.023884
111.481,76.3337,-0.023884
111.512,76.3302,-0.023978
111.543,76.3260,-0.023978
111.574,76.3210,-0.023978
111.606,76.3152,-0.023978
111.637,76.3091,-0.023978
111.668,76.3028,-0.023978
111.699,76.2966,-0.023978
111.729,76.2905,-0.023978
111.760,76.2845,-0.023978
111.791,76.2781,-0.020341
111.823,76.2718,-0.020341
111.853,76.2657,-0.020341
111.884,76.2597,-0.020341
111.915,76.2535,-0.020341
111.947,76.2471,-0.020341
111.979,76.2407,-0.020341
112.009,76.2346,-0.010138
112.040,76.2284,-0.010138
112.071,76.2222,-0.010138
112.102,76.2160,-0.010138
112.132,76.2099,-0.010138
112.164,76.2037,-0.010138
112.196,76.1974,-0.010138
112.227,76.1911,-0.010138
112.258,76.1847,0.004419
112.288,76.1785,0.004419
112.319,76.1727,0.004419
112.350,76.1664,0.004419
112.382,76.1601,0.004419
112.413,76.1539,0.004419
112.444,76.1475,0.004419
112.475,76.1416,0.004419
112.506,76.1353,0.021481
112.536,76.1292,0.021481
112.567,76.1229,0.021481
112.599,76.1168,0.021481
112.630,76.1103,0.021481
112.661,76.1043,0.021481
112.692,76.0979,0.021481
112.723,76.0917,0.021481
112.754,76.0855,0.041822
112.785,76.0794,0.041822
112.817,76.0731,0.041822
112.848,76.0668,0.041822
112.879,76.0607,0.041822
112.910,76.0545,0.041822
112.941,76.0483,0.041822
112.972,76.0420,0.041822
113.002,76.0360,0.066460
113.033,76.0298,0.066460
113.065,76.0235,0.066460
113.095,76.0173,0.066460
113.126,76.0112,0.066460
113.157,76.0050,0.066460
113.188,75.9990,0.066460
113.220,75.9925,0.066460
113.251,75.9863,0.095837
113.282,75.9800,0.095837
113.313,75.9738,0.095837
113.345,75.9673,0.095837
113.377,75.9610,0.095837
113.410,75.9544,0.095837
113.439,75.9486,0.095837
113.469,75.9425,0.095837
113.501,75.9363,0.129754
113.532,75.9300,0.129754
113.562,75.9240,0.129754
113.594,75.9177,0.129754
113.624,75.9116,0.129754
113.654,75.9056,0.129754
113.685,75.8995,0.129754
113.716,75.8930,0.129754
113.747,75.8870,0.168534
113.778,75.8808,0.168534
113.809,75.8747,0.168534
113.840,75.8685,0.168534
113.869,75.8625,0.168534
113.901,75.8563,0.168534
113.932,75.8500,0.168534
113.963,75.8438,0.168534
113.993,75.8379,0.168534
114.024,75.8315,0.212353
114.054,75.8256,0.212353
114.085,75.8194,0.212353
114.116,75.8133,0.212353
114.147,75.8071,0.212353
114.178,75.8009,0.212353
114.210,75.7946,0.212353
114.240,75.7884,0.261506
114.271,75.7823,0.261506
114.302,75.7761,0.261506
114.333,75.7696,0.261506
114.365,75.7636,0.261506
114.396,75.7571,0.261506
114.427,75.7510,0.261506
114.458,75.7448,0.261506
114.489,75.7385,0.315982
114.520,75.7326,0.315982
114.551,75.7264,0.315982
114.583,75.7199,0.315982
114.613,75.7138,0.315982
114.644,75.7078,0.315982
114.675,75.7013,0.315982
114.706,75.6951,0.315982
114.737,75.6890,0.374791
114.768,75.6828,0.374791
114.799,75.6767,0.374791
114.830,75.6705,0.374791
114.862,75.6641,0.374791
114.892,75.6580,0.374791
114.923,75.6519,0.374791
114.954,75.6456,0.374791
114.985,75.6395,0.437633
115.016,75.6332,0.437633
115.046,75.6273,0.437633
115.077,75.6211,0.437633
115.108,75.6149,0.437633
115.140,75.6084,0.437633
115.171,75.6023,0.437633
115.201,75.5963,0.437633
115.232,75.5902,0.437633
115.263,75.5839,0.504451
115.293,75.5779,0.504451
115.326,75.5713,0.504451
115.355,75.5655,0.504451
115.385,75.5593,0.504451
115.417,75.5530,0.504451
115.449,75.5466,0.504451
115.480,75.5406,0.504451
115.511,75.5342,0.574802
115.542,75.5279,0.574802
115.573,75.5218,0.574802
115.604,75.5158,0.574802
115.635,75.5096,0.574802
115.666,75.5032,0.574802
115.697,75.4972,0.574802
115.728,75.4907,0.574802
115.759,75.4846,0.648979
115.790,75.4784,0.648979
115.821,75.4724,0.648979
115.851,75.4660,0.648979
115.883,75.4598,0.648979
115.915,75.4534,0.648979
115.946,75.4474,0.648979
115.976,75.4411,0.648979
116.008,75.4349,0.726744
116.038,75.4287,0.726744
116.070,75.4226,0.726744
116.100,75.4164,0.726744
116.131,75.4101,0.726744
116.162,75.4041,0.726744
116.193,75.3979,0.726744
116.223,75.3917,0.726744
116.255,75.3854,0.808072
116.285,75.3795,0.808072
116.316,75.3733,0.808072
116.347,75.3671,0.808072
116.379,75.3607,0.808072
116.410,75.3544,0.808072
116.442,75.3482,0.808072
116.473,75.3419,0.808072
116.505,75.3353,0.893479
116.536,75.3294,0.893479
116.567,75.3232,0.893479
116.598,75.3167,0.893479
116.629,75.3108,0.893479
116.660,75.3046,0.893479
116.691,75.2983,0.893479
116.722,75.2921,0.893479
116.753,75.2858,0.981919
116.784,75.2797,0.981919
116.815,75.2733,0.981919
116.846,75.2673,0.981919
116.877,75.2609,0.981919
116.908,75.2548,0.981919
116.939,75.2485,0.981919
116.971,75.2424,0.981919
117.003,75.2358,0.981919
117.033,75.2299,1.073318
117.064,75.2236,1.073318
117.096,75.2174,1.073318
117.125,75.2114,1.073318
117.156,75.2052,1.073318
117.188,75.1990,1.073318
117.219,75.1926,1.073318
117.250,75.1865,1.073318
117.281,75.1803,1.167732
117.312,75.1741,1.167732
117.343,75.1678,1.167732
117.373,75.1619,1.167732
117.404,75.1558,1.167732
117.436,75.1494,1.167732
117.468,75.1429,1.167732
117.498,75.1369,1.167732
117.529,75.1307,1.264115
117.561,75.1242,1.264115
117.593,75.1178,1.264115
117.625,75.1116,1.264115
117.656,75.1052,1.264115
117.688,75.0989,1.264115
117.718,75.0928,1.264115
117.748,75.0866,1.362015
117.780,75.0804,1.362015
117.809,75.0746,1.362015
117.850,75.0664,1.362015
117.889,75.0587,1.362015
117.921,75.0523,1.362015
117.952,75.0461,1.362015
117.983,75.0398,1.362015
118.014,75.0337,1.461582
118.045,75.0274,1.461582
118.076,75.0214,1.461582
118.106,75.0151,1.461582
118.138,75.0090,1.461582
118.169,75.0027,1.461582
118.200,74.9966,1.461582
118.231,74.9902,1.461582
118.263,74.9838,1.563053
118.294,74.9776,1.563053
118.325,74.9715,1.563053
118.357,74.9650,1.563053
118.387,74.9590,1.563053
118.418,74.9529,1.563053
118.448,74.9469,1.563053
118.479,74.9407,1.563053
118.509,74.9345,1.665531
118.540,74.9284,1.665531
118.571,74.9222,1.665531
118.602,74.9161,1.665531
118.632,74.9099,1.665531
118.664,74.9037,1.665531
118.696,74.8973,1.665531
118.726,74.8912,1.665531
118.758,74.8847,1.768453
118.789,74.8787,1.768453
118.821,74.8722,1.768453
118.853,74.8660,1.768453
118.884,74.8596,1.768453
118.915,74.8535,1.768453
118.945,74.8475,1.768453
118.977,74.8412,1.768453
119.006,74.8354,1.872307
119.037,74.8289,1.872307
119.068,74.8228,1.872307
119.099,74.8168,1.872307
119.130,74.8104,1.872307
119.161,74.8042,1.872307
119.193,74.7979,1.872307
119.224,74.7916,1.872307
119.254,74.7855,1.872307
119.286,74.7793,1.977914
119.317,74.7732,1.977914
119.348,74.7669,1.977914
119.379,74.7607,1.977914
119.410,74.7545,1.977914
119.440,74.7483,1.977914
119.472,74.7421,1.977914
119.503,74.7358,1.977914
119.534,74.7296,2.085160
119.566,74.7233,2.085160
119.597,74.7169,2.085160
119.628,74.7109,2.085160
119.659,74.7046,2.085160
119.691,74.6983,2.085160
119.722,74.6921,2.085160
119.754,74.6858,2.085160
119.785,74.6795,2.193160
119.816,74.6731,2.193160
119.847,74.6669,2.193160
119.878,74.6609,2.193160
119.909,74.6547,2.193160
119.940,74.6483,2.193160
119.971,74.6424,2.193160
120.002,74.6361,2.303524
120.034,74.6296,2.303524
120.065,74.6235,2.303524
120.096,74.6173,2.303524
120.127,74.6110,2.303524
120.157,74.6051,2.303524
120.189,74.5987,2.303524
120.220,74.5924,2.303524
120.251,74.5865,2.416668
120.282,74.5801,2.416668
120.313,74.5739,2.416668
120.344,74.5676,2.416668
120.375,74.5614,2.416668
120.406,74.5551,2.416668
120.437,74.5490,2.416668
120.468,74.5428,2.416668
120.499,74.5366,2.416668
120.530,74.5303,2.532036
120.562,74.5241,2.532036
120.592,74.5182,2.532036
120.622,74.5120,2.532036
120.653,74.5058,2.532036
120.684,74.4995,2.532036
120.715,74.4936,2.532036
120.745,74.4874,2.649853
120.776,74.4813,2.649853
120.807,74.4750,2.649853
120.839,74.4688,2.649853
120.870,74.4626,2.649853
120.901,74.4564,2.649853
120.932,74.4500,2.649853
120.963,74.4440,2.649853
120.995,74.4375,2.649853
121.027,74.4312,2.769093
121.057,74.4250,2.769093
121.088,74.4188,2.769093
121.120,74.4126,2.769093
121.151,74.4062,2.769093
121.181,74.4003,2.769093
121.211,74.3942,2.769093
121.243,74.3879,2.889510
121.274,74.3818,2.889510
121.305,74.3754,2.889510
121.336,74.3694,2.889510
121.367,74.3630,2.889510
121.399,74.3568,2.889510
121.430,74.3506,2.889510
121.460,74.3445,2.889510
121.491,74.3382,2.889510
121.522,74.3321,3.010747
121.554,74.3256,3.010747
121.586,74.3192,3.010747
121.616,74.3131,3.010747
121.649,74.3068,3.010747
121.680,74.3003,3.010747
121.711,74.2943,3.010747
121.743,74.2878,3.010747
121.773,74.2820,3.133115
121.805,74.2755,3.133115
121.835,74.2696,3.133115
121.867,74.2631,3.133115
121.897,74.2569,3.133115
121.928,74.2508,3.133115
121.959,74.2445,3.133115
121.991,74.2383,3.133115
122.022,74.2321,3.257009
122.052,74.2259,3.257009
122.083,74.2197,3.257009
122.114,74.2136,3.257009
122.145,74.2073,3.257009
122.176,74.2012,3.257009
122.207,74.1949,3.257009
122.238,74.1888,3.383541
122.269,74.1828,3.383541
122.300,74.1764,3.383541
122.332,74.1701,3.383541
122.364,74.1637,3.383541
122.394,74.1577,3.383541
122.425,74.1515,3.383541
122.456,74.1454,3.383541
122.486,74.1392,3.383541
122.518,74.1328,3.513559
122.548,74.1268,3.513559
122.580,74.1206,3.513559
122.610,74.1144,3.513559
122.642,74.1081,3.513559
122.673,74.1018,3.513559
122.703,74.0958,3.513559
122.735,74.0896,3.645612
122.765,74.0834,3.645612
122.797,74.0770,3.645612
122.829,74.0706,3.645612
122.861,74.0643,3.645612
122.892,74.0582,3.645612
122.922,74.0520,3.645612
122.953,74.0458,3.645612
122.985,74.0395,3.779192
123.017,74.0329,3.779192
123.047,74.0271,3.779192
123.079,74.0205,3.779192
123.109,74.0146,3.779192
123.140,74.0083,3.779192
123.171,74.0023,3.779192
123.203,73.9959,3.779192
123.233,73.9899,3.779192
123.264,73.9838,3.913940
123.295,73.9774,3.913940
123.326,73.9713,3.913940
123.358,73.9650,3.913940
123.389,73.9588,3.913940
123.420,73.9526,3.913940
123.450,73.9464,3.913940
123.482,73.9402,4.049987
123.513,73.9340,4.049987
123.544,73.9278,4.049987
123.575,73.9214,4.049987
123.606,73.9152,4.049987
123.637,73.9090,4.049987
123.669,73.9027,4.049987
123.700,73.8965,4.049987
123.731,73.8902,4.049987
123.762,73.8842,4.187147
123.793,73.8778,4.187147
123.825,73.8716,4.187147
123.856,73.8653,4.187147
123.887,73.8592,4.187147
123.918,73.8527,4.187147
123.950,73.8465,4.187147
123.981,73.8403,4.187147
124.012,73.8343,4.326012
124.044,73.8278,4.326012
124.074,73.8219,4.326012
124.105,73.8154,4.326012
124.136,73.8093,4.326012
124.168,73.8029,4.326012
124.199,73.7967,4.326012
124.231,73.7905,4.467835
124.261,73.7844,4.467835
124.292,73.7781,4.467835
124.323,73.7717,4.467835
124.354,73.7657,4.467835
124.385,73.7596,4.467835
124.415,73.7536,4.467835
124.446,73.7472,4.467835
124.477,73.7411,4.467835
124.509,73.7347,4.612193
124.539,73.7286,4.612193
124.570,73.7226,4.612193
124.601,73.7163,4.612193
124.633,73.7100,4.612193
124.663,73.7039,4.612193
124.694,73.6977,4.612193
124.725,73.6915,4.758793
124.756,73.6852,4.758793
124.787,73.6791,4.758793
124.818,73.6728,4.758793
124.849,73.6667,4.758793
124.880,73.6604,4.758793
124.912,73.6542,4.758793
124.943,73.6478,4.758793
124.973,73.6419,4.758793
125.004,73.6356,4.905638
125.035,73.6296,4.905638
125.066,73.6232,4.905638
125.097,73.6172,4.905638
125.128,73.6108,4.905638
125.159,73.6047,4.905638
125.191,73.5982,4.905638
125.222,73.5922,4.905638
125.253,73.5858,5.053831
125.284,73.5798,5.053831
125.315,73.5733,5.053831
125.346,73.5674,5.053831
125.378,73.5608,5.053831
125.409,73.5547,5.053831
125.439,73.5488,5.053831
125.470,73.5425,5.053831
125.502,73.5361,5.053831
125.532,73.5299,5.203747
125.564,73.5238,5.203747
125.595,73.5176,5.203747
125.626,73.5112,5.203747
125.657,73.5050,5.203747
125.687,73.4991,5.203747
125.718,73.4929,5.203747
125.749,73.4867,5.203747
125.780,73.4805,5.352938
125.811,73.4743,5.352938
125.845,73.4675,5.352938
125.874,73.4618,5.352938
125.905,73.4556,5.352938
125.936,73.4493,5.352938
125.967,73.4431,5.352938
125.999,73.4366,5.501545
126.030,73.4307,5.501545
126.061,73.4242,5.501545
126.092,73.4182,5.501545
126.124,73.4118,5.501545
126.155,73.4055,5.501545
126.185,73.3996,5.501545
126.217,73.3932,5.501545
126.248,73.3870,4.890790
126.280,73.3806,4.890790
126.310,73.3745,4.890790
126.341,73.3684,4.890790
126.372,73.3620,4.890790
126.403,73.3559,4.890790
126.434,73.3496,4.890790
126.466,73.3434,4.890790
126.496,73.3373,4.890790
126.527,73.3311,2.112049
126.559,73.3244,2.112049
126.591,73.3184,2.112049
126.622,73.3122,2.112049
126.654,73.3069,2.112049
126.685,73.3023,2.112049
126.716,73.2986,2.112049
126.747,73.2954,2.112049
126.779,73.2930,0.017863
126.808,73.2914,0.017863
126.840,73.2905,0.017863
126.871,73.2903,0.017863
126.902,73.2903,0.017863
126.934,73.2903,0.017863
126.964,73.2903,0.017863
126.995,73.2903,0.017251
127.026,73.2903,0.017251
127.057,73.2903,0.017251
127.088,73.2903,0.017251
127.120,73.2903,0.017251
127.151,73.2903,0.017251
127.181,73.2903,0.017251
127.213,73.2903,0.017251
127.243,73.2903,0.016949
127.274,73.2903,0.016949
127.305,73.2903,0.016949
127.336,73.2903,0.016949
127.368,73.2903,0.016949
127.399,73.2903,0.016949
127.429,73.2903,0.016949
127.460,73.2903,0.016949
127.490,73.2909,0.016780
127.521,73.2923,0.016780
127.552,73.2943,0.016780
127.583,73.2971,0.016780
127.613,73.3006,0.016780
127.644,73.3047,0.016780
127.675,73.3098,0.016780
127.706,73.3153,0.016780
127.738,73.3217,0.016780
127.769,73.3279,0.016507
127.800,73.3339,0.016507
127.830,73.3400,0.016507
127.861,73.3461,0.016507
127.892,73.3523,0.016507
127.923,73.3586,0.016507
127.953,73.3647,0.016507
127.985,73.3709,0.016318
128.015,73.3771,0.016318
128.047,73.3833,0.016318
128.078,73.3898,0.016318
128.110,73.3961,0.016318
128.142,73.4025,0.016318
128.173,73.4086,0.016318
128.204,73.4148,0.016318
128.236,73.4211,0.016158
128.266,73.4273,0.016158
128.297,73.4334,0.016158
128.329,73.4397,0.016158
128.360,73.4459,0.016158
128.391,73.4523,0.016158
128.422,73.4583,0.016158
128.452,73.4645,0.016158
128.483,73.4706,0.015988
128.514,73.4769,0.015988
128.546,73.4831,0.015988
128.576,73.4893,0.015988
128.608,73.4955,0.015988
128.640,73.5020,0.015988
128.671,73.5082,0.015988
128.702,73.5146,0.015988
128.734,73.5207,0.015988
128.764,73.5270,0.015979
128.795,73.5330,0.015979
128.826,73.5392,0.015979
128.856,73.5453,0.015979
128.888,73.5516,0.015979
128.920,73.5582,0.015979
128.950,73.5640,0.015979
128.982,73.5703,0.015979
129.013,73.5768,0.015923
129.045,73.5830,0.015923
129.077,73.5894,0.015923
129.107,73.5954,0.015923
129.138,73.6016,0.015923
129.168,73.6075,0.015923
129.199,73.6139,0.015923
129.230,73.6201,0.015923
129.262,73.6263,0.015923
129.293,73.6326,0.015866
129.323,73.6387,0.015866
129.354,73.6449,0.015866
129.385,73.6509,0.015866
129.416,73.6573,0.015866
129.447,73.6635,0.015866
129.478,73.6697,0.015866
129.509,73.6759,0.015923
129.540,73.6820,0.015923
129.570,73.6883,0.015923
129.602,73.6945,0.015923
129.633,73.7008,0.015923
129.664,73.7068,0.015923
129.695,73.7131,0.015923
129.727,73.7193,0.015923
129.758,73.7257,0.015923
129.790,73.7319,0.015875
129.821,73.7383,0.015875
129.851,73.7442,0.015875
129.882,73.7505,0.015875
129.913,73.7566,0.015875
129.945,73.7632,0.015875
129.973,73.7686,0.015875
130.008,73.7756,0.015734
130.039,73.7818,0.015734
130.070,73.7881,0.015734
130.102,73.7944,0.015734
130.133,73.8005,0.015734
130.164,73.8067,0.015734
130.195,73.8132,0.015734
130.227,73.8194,0.015734
130.258,73.8258,0.015621
130.289,73.8318,0.015621
130.320,73.8381,0.015621
130.351,73.8443,0.015621
130.383,73.8505,0.015621
130.414,73.8567,0.015621
130.444,73.8629,0.015621
130.474,73.8689,0.015621
130.506,73.8752,0.015546
130.537,73.8814,0.015546
130.567,73.8876,0.015546
130.598,73.8935,0.015546
130.629,73.8999,0.015546
130.660,73.9059,0.015546
130.692,73.9123,0.015546
130.722,73.9186,0.015546
130.753,73.9247,0.015442
130.784,73.9307,0.015442
130.815,73.9372,0.015442
130.847,73.9434,0.015442
130.878,73.9497,0.015442
130.908,73.9557,0.015442
130.939,73.9619,0.015442
130.970,73.9681,0.015442
131.001,73.9742,0.015442
131.032,73.9806,0.015442
131.063,73.9867,0.015442
131.096,73.9931,0.015442
131.125,73.9991,0.015442
131.157,74.0055,0.015442
131.189,74.0117,0.015442
131.219,74.0178,0.015442
131.251,74.0243,0.015367
131.283,74.0307,0.015367
131.314,74.0368,0.015367
131.345,74.0431,0.015367
131.376,74.0491,0.015367
131.407,74.0554,0.015367
131.437,74.0615,0.015367
131.468,74.0675,0.015367
131.500,74.0741,0.015348
131.531,74.0803,0.015348
131.563,74.0865,0.015348
131.593,74.0927,0.015348
131.624,74.0988,0.015348
131.656,74.1052,0.015348
131.686,74.1112,0.015348
131.718,74.1175,0.015348
131.749,74.1237,0.015338
131.780,74.1299,0.015338
131.810,74.1360,0.015338
131.841,74.1423,0.015338
131.872,74.1484,0.015338
131.903,74.1546,0.015338
131.935,74.1609,0.015338
131.966,74.1673,0.015338
131.997,74.1733,0.015225
132.028,74.1797,0.015225
132.059,74.1859,0.015225
132.091,74.1922,0.015225
132.122,74.1983,0.015225
132.153,74.2046,0.015225
132.184,74.2108,0.015225
132.215,74.2170,0.015225
132.245,74.2231,0.015188
132.277,74.2293,0.015188
132.307,74.2355,0.015188
132.338,74.2417,0.015188
132.369,74.2480,0.015188
132.400,74.2541,0.015188
132.431,74.2604,0.015188
132.463,74.2666,0.015188
132.494,74.2730,0.015225
132.526,74.2792,0.015225
132.557,74.2853,0.015225
132.588,74.2915,0.015225
132.618,74.2976,0.015225
132.649,74.3039,0.015225
132.680,74.3100,0.015225
132.712,74.3162,0.015225
132.743,74.3225,0.015282
132.773,74.3286,0.015282
132.804,74.3348,0.015282
132.836,74.3413,0.015282
132.867,74.3472,0.015282
132.898,74.3535,0.015282
132.929,74.3597,0.015282
132.960,74.3661,0.015282
132.991,74.3723,0.015065
133.023,74.3786,0.015065
133.054,74.3847,0.015065
133.085,74.3909,0.015065
133.115,74.3971,0.015065
133.146,74.4031,0.015065
133.177,74.4093,0.015065
133.208,74.4156,0.015065
133.239,74.4216,0.014952
133.270,74.4281,0.014952
133.300,74.4340,0.014952
133.331,74.4404,0.014952
133.363,74.4466,0.014952
133.394,74.4529,0.014952
133.426,74.4592,0.014952
133.457,74.4654,0.014952
133.487,74.4714,0.014914
133.518,74.4777,0.014914
133.549,74.4839,0.014914
133.582,74.4905,0.014914
133.612,74.4964,0.014914
133.644,74.5030,0.014914
133.676,74.5092,0.014914
133.707,74.5154,0.014914
133.738,74.5216,0.014886
133.769,74.5278,0.014886
133.801,74.5342,0.014886
133.831,74.5402,0.014886
133.862,74.5464,0.014886
133.893,74.5525,0.014886
133.923,74.5588,0.014886
133.954,74.5648,0.014886
133.986,74.5711,0.014886
134.017,74.5776,0.014914
134.049,74.5837,0.014914
134.080,74.5899,0.014914
134.111,74.5963,0.014914
134.142,74.6025,0.014914
134.174,74.6089,0.014914
134.205,74.6150,0.014914
134.236,74.6213,0.014914
134.267,74.6274,0.014782
134.298,74.6336,0.014782
134.329,74.6397,0.014782
134.360,74.6460,0.014782
134.391,74.6522,0.014782
134.422,74.6584,0.014782
134.455,74.6648,0.014782
134.484,74.6708,0.014698
134.515,74.6769,0.014698
134.546,74.6832,0.014698
134.577,74.6895,0.014698
134.608,74.6957,0.014698
134.639,74.7018,0.014698
134.670,74.7081,0.014698
134.701,74.7142,0.014698
134.733,74.7206,0.014698
134.764,74.7268,0.014613
134.795,74.7331,0.014613
134.826,74.7393,0.014613
134.857,74.7455,0.014613
134.888,74.7517,0.014613
134.920,74.7580,0.014613
134.952,74.7643,0.014613
134.983,74.7706,0.014500
135.015,74.7770,0.014500
135.046,74.7834,0.014500
135.075,74.7891,0.014500
135.107,74.7953,0.014500
135.138,74.8015,0.014500
135.169,74.8077,0.014500
135.200,74.8140,0.014500
135.231,74.8201,0.014500
135.262,74.8264,0.014500
135.293,74.8328,0.014406
135.323,74.8387,0.014406
135.354,74.8448,0.014406
135.385,74.8511,0.014406
135.417,74.8574,0.014406
135.448,74.8638,0.014406
135.480,74.8700,0.014406
135.511,74.8763,0.014368
135.542,74.8825,0.014368
135.574,74.8888,0.014368
135.605,74.8950,0.014368
135.637,74.9012,0.014368
135.666,74.9073,0.014368
135.698,74.9136,0.014368
135.729,74.9198,0.014368
135.760,74.9259,0.014170
135.791,74.9322,0.014170
135.822,74.9383,0.014170
135.853,74.9446,0.014170
135.883,74.9506,0.014170
135.914,74.9569,0.014170
135.945,74.9629,0.014170
135.976,74.9693,0.014170
136.008,74.9756,0.013953
136.040,74.9821,0.013953
136.071,74.9882,0.013953
136.103,74.9947,0.013953
136.135,75.0009,0.013953
136.165,75.0071,0.013953
136.197,75.0135,0.013953
136.230,75.0199,0.013756
136.260,75.0260,0.013756
136.290,75.0321,0.013756
136.321,75.0381,0.013756
136.352,75.0445,0.013756
136.385,75.0509,0.013756
136.414,75.0569,0.013756
136.445,75.0631,0.013756
136.475,75.0689,0.013756
136.506,75.0752,0.013577
136.537,75.0814,0.013577
136.568,75.0875,0.013577
136.599,75.0937,0.013577
136.630,75.0999,0.013577
136.660,75.1060,0.013577
136.692,75.1123,0.013577
136.723,75.1186,0.013577
136.753,75.1246,0.013256
136.784,75.1309,0.013256
136.816,75.1371,0.013256
136.846,75.1433,0.013256
136.878,75.1495,0.013256
136.908,75.1556,0.013256
136.940,75.1619,0.013256
136.970,75.1680,0.013256
137.001,75.1742,0.013256
137.032,75.1803,0.012823
137.063,75.1867,0.012823
137.094,75.1928,0.012823
137.125,75.1991,0.012823
137.156,75.2051,0.012823
137.186,75.2114,0.012823
137.218,75.2175,0.012823
137.249,75.2238,0.012823
137.280,75.2299,0.012399
137.311,75.2362,0.012399
137.342,75.2425,0.012399
137.374,75.2487,0.012399
137.405,75.2549,0.012399
137.436,75.2611,0.012399
137.466,75.2672,0.012399
137.497,75.2735,0.011768
137.529,75.2797,0.011768
137.559,75.2858,0.011768
137.590,75.2919,0.011768
137.620,75.2981,0.011768
137.652,75.3042,0.011768
137.683,75.3108,0.011768
137.715,75.3168,0.011768
137.746,75.3234,0.010863
137.778,75.3295,0.010863
137.809,75.3358,0.010863
137.841,75.3421,0.010863
137.872,75.3485,0.010863
137.903,75.3545,0.010863
137.934,75.3607,0.010863
137.964,75.3669,0.010863
137.996,75.3731,0.009761
138.027,75.3795,0.009761
138.058,75.3855,0.009761
138.089,75.3917,0.009761
138.120,75.3979,0.009761
138.151,75.4041,0.009761
138.182,75.4103,0.009761
138.214,75.4167,0.009761
138.244,75.4227,0.008310
138.275,75.4289,0.008310
138.307,75.4354,0.008310
138.339,75.4417,0.008310
138.370,75.4479,0.008310
138.402,75.4544,0.008310
138.432,75.4603,0.008310
138.464,75.4666,0.008310
138.494,75.4730,0.006199
138.526,75.4791,0.006199
138.557,75.4853,0.006199
138.587,75.4913,0.006199
138.618,75.4975,0.006199
138.649,75.5039,0.006199
138.680,75.5099,0.006199
138.711,75.5163,0.006199
138.741,75.5222,0.003298
138.773,75.5287,0.003298
138.805,75.5349,0.003298
138.836,75.5412,0.003298
138.866,75.5471,0.003298
138.898,75.5536,0.003298
138.929,75.5598,0.003298
138.961,75.5664,0.003298
138.993,75.5726,-0.000528
139.024,75.5789,-0.000528
139.054,75.5847,-0.000528
139.085,75.5909,-0.000528
139.116,75.5972,-0.000528
139.147,75.6033,-0.000528
139.178,75.6096,-0.000528
139.208,75.6157,-0.000528
139.240,75.6218,-0.005578
139.270,75.6279,-0.005578
139.301,75.6342,-0.005578
139.334,75.6408,-0.005578
139.362,75.6466,-0.005578
139.393,75.6526,-0.005578
139.424,75.6588,-0.005578
139.454,75.6647,-0.005578
139.484,75.6708,-0.011994
139.515,75.6770,-0.011994
139.547,75.6832,-0.011994
139.579,75.6898,-0.011994
139.610,75.6960,-0.011994
139.641,75.7022,-0.011994
139.672,75.7082,-0.011994
139.703,75.7146,-0.011994
139.734,75.7206,-0.019540
139.765,75.7270,-0.019540
139.795,75.7329,-0.019540
139.827,75.7393,-0.019540
139.858,75.7455,-0.019540
139.889,75.7518,-0.019540
139.920,75.7580,-0.019540
139.951,75.7642,-0.019540
139.983,75.7708,-0.019540
140.014,75.7768,-0.027813
140.045,75.7830,-0.027813
140.076,75.7892,-0.027813
140.107,75.7952,-0.027813
140.138,75.8015,-0.027813
140.171,75.8082,-0.027813
140.201,75.8142,-0.027813
140.231,75.8202,-0.027813
140.262,75.8264,-0.036273
140.293,75.8325,-0.036273
140.324,75.8388,-0.036273
140.356,75.8452,-0.036273
140.387,75.8514,-0.036273
140.417,75.8573,-0.036273
140.447,75.8634,-0.036273
140.478,75.8696,-0.036273
140.510,75.8759,-0.036273
140.541,75.8820,-0.044376
140.572,75.8883,-0.044376
140.603,75.8947,-0.044376
140.634,75.9007,-0.044376
140.667,75.9073,-0.044376
140.697,75.9134,-0.044376
140.730,75.9198,-0.044376
140.759,75.9259,-0.051630
140.790,75.9320,-0.051630
140.823,75.9386,-0.051630
140.852,75.9444,-0.051630
140.883,75.9506,-0.051630
140.914,75.9568,-0.051630
140.945,75.9630,-0.051630
140.976,75.9691,-0.051630
141.007,75.9753,-0.051630
141.037,75.9813,-0.057962
141.067,75.9874,-0.057962
141.098,75.9936,-0.057962
141.129,75.9997,-0.057962
141.161,76.0060,-0.057962
141.192,76.0124,-0.057962
141.225,76.0188,-0.057962
141.254,76.0248,-0.063228
141.286,76.0313,-0.063228
141.316,76.0373,-0.063228
141.346,76.0434,-0.063228
141.377,76.0494,-0.063228
141.408,76.0558,-0.063228
141.440,76.0618,-0.063228
141.471,76.0682,-0.063228
141.501,76.0744,-0.063228
141.535,76.0808,-0.067506
141.564,76.0869,-0.067506
141.595,76.0931,-0.067506
141.627,76.0993,-0.067506
141.658,76.1056,-0.067506
141.689,76.1118,-0.067506
141.721,76.1183,-0.067506
141.751,76.1243,-0.070935
141.783,76.1304,-0.070935
141.814,76.1366,-0.070935
141.844,76.1427,-0.070935
141.876,76.1493,-0.070935
141.907,76.1554,-0.070935
141.938,76.1617,-0.070935
141.970,76.1679,-0.070935
142.002,76.1742,-0.073752
142.034,76.1807,-0.073752
142.063,76.1865,-0.073752
142.094,76.1928,-0.073752
142.124,76.1989,-0.073752
142.155,76.2050,-0.073752
142.186,76.2112,-0.073752
142.218,76.2176,-0.073752
142.249,76.2237,-0.076136
142.280,76.2298,-0.076136
142.310,76.2360,-0.076136
142.341,76.2423,-0.076136
142.373,76.2485,-0.076136
142.404,76.2548,-0.076136
142.435,76.2610,-0.076136
142.467,76.2671,-0.076136
142.498,76.2728,-0.078510
142.529,76.2774,-0.078510
142.560,76.2814,-0.078510
142.591,76.2846,-0.078510
142.621,76.2871,-0.078510
142.653,76.2889,-0.078510
142.684,76.2899,-0.078510
142.715,76.2903,-0.078510
142.746,76.2903,-0.078510
142.778,76.2903,-0.079876
142.809,76.2903,-0.079876
142.840,76.2903,-0.079876
142.871,76.2903,-0.079876
142.902,76.2903,-0.079876
142.932,76.2903,-0.079876
142.963,76.2903,-0.079876
142.994,76.2903,-0.077879
143.025,76.2903,-0.077879
143.056,76.2903,-0.077879
143.088,76.2903,-0.077879
143.119,76.2903,-0.077879
143.150,76.2903,-0.077879
143.182,76.2903,-0.077879
143.213,76.2903,-0.077879
143.244,76.2903,-0.077879
143.276,76.2903,-0.074327
143.306,76.2903,-0.074327
143.337,76.2903,-0.074327
143.368,76.2903,-0.074327
143.400,76.2903,-0.074327
143.432,76.2903,-0.074327
143.463,76.2903,-0.074327
143.495,76.2903,-0.074327
143.526,76.2903,-0.071981
143.557,76.2903,-0.071981
143.588,76.2903,-0.071981
143.620,76.2903,-0.071981
143.652,76.2903,-0.071981
143.683,76.2903,-0.071981
143.714,76.2903,-0.071981
143.746,76.2903,-0.070285
143.777,76.2903,-0.070285
143.808,76.2903,-0.070285
143.838,76.2903,-0.070285
143.870,76.2903,-0.070285
143.902,76.2903,-0.070285
143.932,76.2903,-0.070285
143.962,76.2903,-0.070285
143.993,76.2903,-0.068844
144.024,76.2903,-0.068844
144.054,76.2903,-0.068844
144.086,76.2903,-0.068844
144.116,76.2903,-0.068844
144.147,76.2903,-0.068844
144.178,76.2903,-0.068844
144.210,76.2903,-0.068844
144.240,76.2903,-0.067572
144.272,76.2903,-0.067572
144.302,76.2903,-0.067572
144.333,76.2903,-0.067572
144.365,76.2903,-0.067572
144.397,76.2903,-0.067572
144.428,76.2903,-0.067572
144.459,76.2903,-0.067572
144.490,76.2903,-0.066234
144.520,76.2903,-0.066234
144.551,76.2903,-0.066234
144.582,76.2903,-0.066234
144.613,76.2903,-0.066234
144.643,76.2903,-0.066234
144.673,76.2903,-0.066234
144.704,76.2903,-0.066234
144.735,76.2903,-0.065094
144.767,76.2903,-0.065094
144.798,76.2903,-0.065094
144.830,76.2903,-0.065094
144.860,76.2903,-0.065094
144.891,76.2903,-0.065094
144.922,76.2903,-0.065094
144.953,76.2903,-0.065094
144.985,76.2903,-0.063812
145.015,76.2903,-0.063812
145.046,76.2903,-0.063812
145.077,76.2903,-0.063812
145.108,76.2903,-0.063812
145.139,76.2903,-0.063812
145.171,76.2903,-0.063812
145.201,76.2903,-0.063812
145.232,76.2903,-0.062710
145.264,76.2903,-0.062710
145.294,76.2903,-0.062710
145.325,76.2903,-0.062710
145.357,76.2903,-0.062710
145.387,76.2903,-0.062710
145.418,76.2903,-0.062710
145.449,76.2903,-0.062710
145.481,76.2903,-0.062710
145.513,76.2903,-0.061909
145.545,76.2903,-0.061909
145.577,76.2903,-0.061909
145.607,76.2903,-0.061909
145.638,76.2903,-0.061909
145.669,76.2903,-0.061909
145.699,76.2903,-0.061909
145.731,76.2903,-0.061909
145.762,76.2903,-0.060798
145.793,76.2903,-0.060798
145.825,76.2903,-0.060798
145.856,76.2903,-0.060798
145.887,76.2903,-0.060798
145.919,76.2903,-0.060798
145.950,76.2903,-0.060798
145.981,76.2903,-0.060798
146.011,76.2903,-0.060798
146.043,76.2903,-0.059601
146.074,76.2903,-0.059601
146.106,76.2903,-0.059601
146.136,76.2903,-0.059601
146.168,76.2903,-0.059601
146.198,76.2903,-0.059601
146.230,76.2903,-0.059601
146.261,76.2903,-0.058518
146.291,76.2903,-0.058518
146.322,76.2903,-0.058518
146.353,76.2903,-0.058518
146.384,76.2903,-0.058518
146.415,76.2903,-0.058518
146.446,76.2903,-0.058518
146.477,76.2903,-0.058518
146.508,76.2903,-0.057557
146.539,76.2903,-0.057557
146.570,76.2903,-0.057557
146.601,76.2903,-0.057557
146.632,76.2903,-0.057557
146.664,76.2903,-0.057557
146.695,76.2903,-0.057557
146.726,76.2903,-0.057557
146.756,76.2903,-0.057557
146.787,76.2903,-0.056793
146.819,76.2903,-0.056793
146.850,76.2903,-0.056793
146.882,76.2903,-0.056793
146.913,76.2903,-0.056793
146.944,76.2903,-0.056793
146.975,76.2903,-0.056793
147.006,76.2903,-0.055993
147.036,76.2903,-0.055993
147.067,76.2903,-0.055993
147.097,76.2903,-0.055993
147.130,76.2903,-0.055993
147.161,76.2900,-0.055993
147.192,76.2890,-0.055993
147.224,76.2872,-0.055993
147.255,76.2848,-0.054721
147.287,76.2814,-0.054721
147.319,76.2773,-0.054721
147.349,76.2727,-0.054721
147.382,76.2670,-0.054721
147.412,76.2611,-0.054721
147.442,76.2552,-0.054721
147.473,76.2487,-0.051253
147.504,76.2427,-0.051253
147.535,76.2366,-0.051253
147.566,76.2304,-0.051253
147.597,76.2239,-0.051253
147.628,76.2179,-0.051253
147.660,76.2114,-0.051253
147.692,76.2048,-0.051253
147.723,76.1989,-0.051253
147.754,76.1928,-0.044347
147.784,76.1867,-0.044347
147.816,76.1804,-0.044347
147.848,76.1740,-0.044347
147.879,76.1678,-0.044347
147.909,76.1617,-0.044347
147.941,76.1554,-0.044347
147.971,76.1493,-0.044347
148.003,76.1428,-0.036104
148.033,76.1369,-0.036104
148.064,76.1307,-0.036104
148.095,76.1245,-0.036104
148.126,76.1183,-0.036104
148.158,76.1118,-0.036104
148.189,76.1056,-0.036104
148.220,76.0994,-0.036104
148.246,76.0943,-0.036104
148.282,76.0870,-0.027520
148.312,76.0809,-0.027520
148.343,76.0747,-0.027520
148.374,76.0687,-0.027520
148.405,76.0626,-0.027520
148.436,76.0563,-0.027520
148.467,76.0501,-0.027520
148.499,76.0437,-0.027520
148.530,76.0374,-0.017194
148.561,76.0313,-0.017194
148.593,76.0250,-0.017194
148.623,76.0188,-0.017194
148.654,76.0126,-0.017194
148.686,76.0063,-0.017194
148.716,76.0003,-0.017194
148.747,75.9939,-0.017194
148.779,75.9878,-0.003872
148.810,75.9815,-0.003872
148.841,75.9754,-0.003872
148.871,75.9692,-0.003872
148.902,75.9631,-0.003872
148.933,75.9568,-0.003872
148.963,75.9510,-0.003872
148.994,75.9448,-0.003872
149.024,75.9387,0.013445
149.056,75.9324,0.013445
149.087,75.9262,0.013445
149.119,75.9198,0.013445
149.150,75.9135,0.013445
149.181,75.9073,0.013445
149.212,75.9011,0.013445
149.243,75.8949,0.013445
149.274,75.8886,0.035444
149.305,75.8823,0.035444
149.336,75.8763,0.035444
149.367,75.8701,0.035444
149.399,75.8638,0.035444
149.430,75.8576,0.035444
149.460,75.8515,0.035444
149.492,75.8453,0.035444
149.524,75.8388,0.062625
149.555,75.8325,0.062625
149.586,75.8262,0.062625
149.618,75.8197,0.062625
149.649,75.8138,0.062625
149.681,75.8073,0.062625
149.710,75.8014,0.062625
149.741,75.7951,0.062625
149.772,75.7890,0.095243
149.803,75.7827,0.095243
149.835,75.7766,0.095243
149.867,75.7701,0.095243
149.899,75.7638,0.095243
149.930,75.7575,0.095243
149.960,75.7514,0.095243
149.992,75.7450,0.095243
150.022,75.7391,0.095243
150.053,75.7329,0.133721
150.084,75.7267,0.133721
150.115,75.7204,0.133721
150.146,75.7144,0.133721
150.178,75.7079,0.133721
150.208,75.7020,0.133721
150.239,75.6957,0.133721
150.270,75.6896,0.178002
150.301,75.6833,0.178002
150.332,75.6771,0.178002
150.363,75.6708,0.178002
150.394,75.6648,0.178002
150.424,75.6588,0.178002
150.454,75.6527,0.178002
150.485,75.6464,0.178002
150.517,75.6402,0.227805
150.548,75.6337,0.227805
150.579,75.6278,0.227805
150.610,75.6213,0.227805
150.641,75.6155,0.227805
150.671,75.6092,0.227805
150.702,75.6031,0.227805
150.734,75.5967,0.227805
150.764,75.5908,0.283015
150.795,75.5843,0.283015
150.826,75.5784,0.283015
150.858,75.5718,0.283015
150.890,75.5656,0.283015
150.921,75.5593,0.283015
150.952,75.5531,0.283015
150.983,75.5469,0.283015
151.014,75.5408,0.343201
151.044,75.5346,0.343201
151.076,75.5282,0.343201
151.106,75.5222,0.343201
151.137,75.5161,0.343201
151.168,75.5098,0.343201
151.199,75.5037,0.343201
151.230,75.4974,0.343201
151.261,75.4913,0.408445
151.293,75.4849,0.408445
151.324,75.4788,0.408445
151.354,75.4727,0.408445
151.385,75.4665,0.408445
151.418,75.4598,0.408445
151.449,75.4538,0.408445
151.480,75.4475,0.408445
151.511,75.4413,0.478485
151.543,75.4349,0.478485
151.574,75.4288,0.478485
151.606,75.4222,0.478485
151.637,75.4160,0.478485
151.668,75.4100,0.478485
151.698,75.4039,0.478485
151.729,75.3977,0.478485
151.759,75.3916,0.553227
151.790,75.3854,0.553227
151.822,75.3791,0.553227
151.852,75.3731,0.553227
151.884,75.3667,0.553227
151.914,75.3606,0.553227
151.945,75.3544,0.553227
151.976,75.3482,0.553227
152.008,75.3419,0.632425
152.040,75.3356,0.632425
152.071,75.3292,0.632425
152.102,75.3230,0.632425
152.133,75.3170,0.632425
152.163,75.3110,0.632425
152.194,75.3047,0.632425
152.225,75.2983,0.632425
152.255,75.2924,0.715740
152.287,75.2862,0.715740
152.318,75.2800,0.715740
152.350,75.2735,0.715740
152.381,75.2675,0.715740
152.412,75.2610,0.715740
152.443,75.2547,0.715740
152.474,75.2489,0.715740
152.505,75.2424,0.803361
152.536,75.2363,0.803361
152.567,75.2301,0.803361
152.599,75.2238,0.803361
152.629,75.2177,0.803361
152.660,75.2117,0.803361
152.691,75.2053,0.803361
152.722,75.1990,0.803361
152.754,75.1927,0.894816
152.783,75.1867,0.894816
152.815,75.1807,0.894816
152.846,75.1742,0.894816
152.876,75.1682,0.894816
152.907,75.1619,0.894816
152.938,75.1558,0.894816
152.970,75.1494,0.894816
153.001,75.1434,0.989814
153.032,75.1370,0.989814
153.063,75.1309,0.989814
153.095,75.1245,0.989814
153.126,75.1183,0.989814
153.158,75.1118,0.989814
153.190,75.1055,0.989814
153.221,75.0993,0.989814
153.252,75.0930,1.087384
153.284,75.0866,1.087384
153.314,75.0808,1.087384
153.345,75.0745,1.087384
153.376,75.0683,1.087384
153.407,75.0621,1.087384
153.438,75.0558,1.087384
153.469,75.0497,1.187216
153.499,75.0437,1.187216
153.531,75.0374,1.187216
153.562,75.0312,1.187216
153.593,75.0249,1.187216
153.625,75.0186,1.187216
153.655,75.0125,1.187216
153.686,75.0063,1.187216
153.717,75.0002,1.187216
153.749,74.9937,1.289261
153.779,74.9878,1.289261
153.809,74.9817,1.289261
153.840,74.9755,1.289261
153.871,74.9692,1.289261
153.902,74.9630,1.289261
153.933,74.9570,1.289261
153.964,74.9507,1.289261
153.996,74.9444,1.289261
154.027,74.9382,1.392635
154.057,74.9321,1.392635
154.090,74.9257,1.392635
154.120,74.9195,1.392635
154.152,74.9133,1.392635
154.182,74.9069,1.392635
154.213,74.9009,1.392635
154.244,74.8947,1.392635
154.276,74.8885,1.497441
154.307,74.8821,1.497441
154.338,74.8759,1.497441
154.369,74.8698,1.497441
154.400,74.8636,1.497441
154.430,74.8574,1.497441
154.461,74.8512,1.497441
154.492,74.8452,1.497441
154.523,74.8391,1.602916
154.554,74.8328,1.602916
154.585,74.8266,1.602916
154.617,74.8201,1.602916
154.648,74.8140,1.602916
154.679,74.8078,1.602916
154.709,74.8019,1.602916
154.740,74.7956,1.602916
154.771,74.7894,1.707948
154.802,74.7830,1.707948
154.833,74.7770,1.707948
154.864,74.7708,1.707948
154.896,74.7644,1.707948
154.927,74.7581,1.707948
154.958,74.7520,1.707948
154.989,74.7457,1.707948
155.020,74.7396,1.788540
155.050,74.7334,1.788540
155.082,74.7272,1.788540
155.112,74.7210,1.788540
155.143,74.7149,1.788540
155.174,74.7087,1.788540
155.206,74.7024,1.788540
155.237,74.6961,1.788540
155.268,74.6899,0.968870
155.299,74.6837,0.968870
155.330,74.6775,0.968870
155.361,74.6713,0.968870
155.392,74.6651,0.968870
155.423,74.6588,0.968870
155.454,74.6527,0.968870
155.485,74.6466,0.968870
155.517,74.6403,0.069117
155.548,74.6340,0.069117
155.580,74.6275,0.069117
155.611,74.6214,0.069117
155.643,74.6149,0.069117
155.674,74.6088,0.069117
155.706,74.6023,0.069117
155.736,74.5964,0.069117
155.767,74.5899,0.016959
155.798,74.5840,0.016959
155.829,74.5776,0.016959
155.860,74.5714,0.016959
155.891,74.5651,0.016959
155.923,74.5588,0.016959
155.955,74.5523,0.016959
155.986,74.5463,0.016639
156.017,74.5401,0.016639
156.047,74.5341,0.016639
156.078,74.5280,0.016639
156.109,74.5217,0.016639
156.140,74.5155,0.016639
156.171,74.5092,0.016639
156.202,74.5031,0.016639
156.233,74.4968,0.016478
156.264,74.4908,0.016478
156.295,74.4845,0.016478
156.325,74.4784,0.016478
156.356,74.4722,0.016478
156.387,74.4663,0.016478
156.418,74.4600,0.016478
156.449,74.4537,0.016478
156.481,74.4472,0.016441
156.513,74.4410,0.016441
156.545,74.4347,0.016441
156.576,74.4283,0.016441
156.608,74.4218,0.016441
156.638,74.4160,0.016441
156.669,74.4096,0.016441
156.701,74.4033,0.016441
156.732,74.3972,0.016186
156.762,74.3911,0.016186
156.793,74.3848,0.016186
156.824,74.3788,0.016186
156.854,74.3725,0.016186
156.885,74.3666,0.016186
156.916,74.3602,0.016186
156.948,74.3540,0.016186
156.979,74.3477,0.016186
157.010,74.3416,0.016036
157.041,74.3353,0.016036
157.071,74.3294,0.016036
157.103,74.3230,0.016036
157.133,74.3170,0.016036
157.165,74.3105,0.016036
157.197,74.3043,0.016036
157.228,74.2979,0.016233
157.260,74.2915,0.016233
157.293,74.2851,0.016233
157.323,74.2790,0.016233
157.354,74.2728,0.016233
157.385,74.2665,0.016233
157.417,74.2601,0.016233
157.449,74.2538,0.016233
157.480,74.2475,0.016036
157.511,74.2414,0.016036
157.542,74.2350,0.016036
157.573,74.2289,0.016036
157.605,74.2224,0.016036
157.636,74.2162,0.016036
157.666,74.2103,0.016036
157.698,74.2041,0.016036
157.728,74.1978,0.016036
157.759,74.1916,0.016102
157.789,74.1856,0.016102
157.821,74.1793,0.016102
157.851,74.1732,0.016102
157.883,74.1670,0.016102
157.914,74.1608,0.016102
157.945,74.1547,0.016102
157.975,74.1485,0.016196
158.006,74.1422,0.016196
158.037,74.1361,0.016196
158.068,74.1300,0.016196
158.098,74.1238,0.016196
158.130,74.1176,0.016196
158.160,74.1116,0.016196
158.191,74.1054,0.016196
158.222,74.0992,0.016196
158.253,74.0928,0.016054
158.285,74.0866,0.016054
158.315,74.0804,0.016054
158.347,74.0742,0.016054
158.379,74.0678,0.016054
158.410,74.0615,0.016054
158.441,74.0553,0.016054
158.472,74.0492,0.016054
158.503,74.0429,0.016120
158.534,74.0369,0.016120
158.565,74.0305,0.016120
158.596,74.0244,0.016120
158.627,74.0182,0.016120
158.658,74.0121,0.016120
158.688,74.0059,0.016120
158.719,73.9998,0.016120
158.750,73.9935,0.016120
158.781,73.9874,0.016102
158.812,73.9811,0.016102
158.843,73.9749,0.016102
158.874,73.9687,0.016102
158.905,73.9626,0.016102
158.936,73.9564,0.016102
158.967,73.9502,0.016102
158.998,73.9439,0.016102
159.029,73.9378,0.016167
159.060,73.9315,0.016167
159.092,73.9253,0.016167
159.123,73.9190,0.016167
159.154,73.9125,0.016167
159.186,73.9063,0.016167
159.216,73.9004,0.016167
159.246,73.8944,0.016167
159.277,73.8881,0.016130
159.309,73.8816,0.016130
159.339,73.8758,0.016130
159.370,73.8694,0.016130
159.400,73.8634,0.016130
159.431,73.8573,0.016130
159.462,73.8512,0.016130
159.493,73.8448,0.016130
159.525,73.8386,0.016045
159.556,73.8324,0.016045
159.587,73.8262,0.016045
159.619,73.8197,0.016045
159.651,73.8135,0.016045
159.682,73.8072,0.016045
159.712,73.8013,0.016045
159.742,73.7952,0.016045
159.773,73.7891,0.016045
159.804,73.7827,0.016045
159.835,73.7765,0.016045
159.867,73.7703,0.016045
159.897,73.7642,0.016045
159.928,73.7579,0.016045
159.960,73.7515,0.016045
159.991,73.7453,0.016045
160.022,73.7393,0.016045
160.053,73.7329,0.016045
160.085,73.7267,0.016045
160.115,73.7205,0.016045
160.147,73.7142,0.016045
160.178,73.7079,0.016045
160.209,73.7017,0.016045
160.241,73.6955,0.016045
160.272,73.6891,0.016045
160.303,73.6829,0.016045
160.334,73.6769,0.016045
160.365,73.6705,0.016045
160.396,73.6643,0.016045
160.427,73.6581,0.016045
160.457,73.6522,0.016045
160.488,73.6459,0.016045
160.519,73.6397,0.016120
160.550,73.6336,0.016120
160.581,73.6275,0.016120
160.612,73.6212,0.016120
160.643,73.6150,0.016120
160.675,73.6087,0.016120
160.706,73.6025,0.016120
160.736,73.5963,0.016120
160.768,73.5901,0.016177
160.799,73.5837,0.016177
160.830,73.5776,0.016177
160.860,73.5713,0.016177
160.892,73.5652,0.016177
160.924,73.5589,0.016177
160.955,73.5526,0.016177
160.986,73.5463,0.016177
161.017,73.5401,0.016149
161.048,73.5339,0.016149
161.079,73.5277,0.016149
161.110,73.5216,0.016149
161.141,73.5153,0.016149
161.172,73.5092,0.016149
161.203,73.5027,0.016149
161.234,73.4969,0.016149
161.265,73.4903,0.016177
161.296,73.4844,0.016177
161.327,73.4779,0.016177
161.359,73.4716,0.016177
161.390,73.4654,0.016177
161.422,73.4591,0.016177
161.453,73.4528,0.016177
161.484,73.4469,0.016177
161.515,73.4406,0.016149
161.546,73.4344,0.016149
161.577,73.4283,0.016149
161.608,73.4219,0.016149
161.639,73.4159,0.016149
161.669,73.4097,0.016149
161.700,73.4035,0.016149
161.731,73.3973,0.016149
161.762,73.3911,0.016102
161.793,73.3850,0.016102
161.824,73.3788,0.016102
161.855,73.3726,0.016102
161.886,73.3664,0.016102
161.917,73.3601,0.016102
161.949,73.3538,0.016102
161.980,73.3476,0.016102
162.012,73.3413,0.016158
162.043,73.3351,0.016158
162.073,73.3290,0.016158
162.104,73.3225,0.016158
162.135,73.3167,0.016158
162.165,73.3106,0.016158
162.197,73.3043,0.016158
162.227,73.2981,0.016158
162.259,73.2919,0.016233
162.289,73.2858,0.016233
162.320,73.2796,0.016233
162.352,73.2733,0.016233
162.382,73.2672,0.016233
162.414,73.2610,0.016233
162.445,73.2559,0.016233
162.477,73.2515,0.016233
162.508,73.2477,0.016205
162.540,73.2448,0.016205
162.571,73.2425,0.016205
162.602,73.2412,0.016205
162.633,73.2404,0.016205
162.664,73.2403,0.016205
162.695,73.2403,0.016205
162.726,73.2403,0.016205
162.757,73.2403,0.016092
162.788,73.2403,0.016092
162.819,73.2403,0.016092
162.851,73.2403,0.016092
162.881,73.2403,0.016092
162.913,73.2403,0.016092
162.944,73.2403,0.016092
162.975,73.2403,0.016092
163.006,73.2403,0.016064
163.038,73.2403,0.016064
163.069,73.2403,0.016064
163.099,73.2403,0.016064
163.131,73.2403,0.016064
163.163,73.2403,0.016064
163.194,73.2403,0.016064
163.225,73.2404,0.016064
163.255,73.2410,0.016120
163.286,73.2424,0.016120
163.316,73.2445,0.016120
163.347,73.2472,0.016120
163.378,73.2507,0.016120
163.409,73.2552,0.016120
163.441,73.2603,0.016120
163.472,73.2660,0.016120
163.504,73.2723,0.016120
163.535,73.2786,0.016073
163.565,73.2847,0.016073
163.597,73.2909,0.016073
163.628,73.2971,0.016073
163.659,73.3033,0.016073
163.689,73.3095,0.016073
163.719,73.3153,0.016073
163.752,73.3219,0.015904
163.783,73.3281,0.015904
163.814,73.3342,0.015904
163.845,73.3404,0.015904
163.875,73.3467,0.015904
163.907,73.3528,0.015904
163.937,73.3591,0.015904
163.968,73.3651,0.015904
164.000,73.3716,0.015904
164.031,73.3777,0.015923
164.062,73.3842,0.015923
164.094,73.3902,0.015923
164.125,73.3967,0.015923
164.157,73.4029,0.015923
164.188,73.4092,0.015923
164.220,73.4154,0.015923
164.251,73.4219,0.015904
164.283,73.4281,0.015904
164.314,73.4344,0.015904
164.345,73.4405,0.015904
164.377,73.4471,0.015904
164.407,73.4529,0.015904
164.438,73.4592,0.015904
164.468,73.4653,0.015904
164.499,73.4714,0.015743
164.529,73.4774,0.015743
164.561,73.4836,0.015743
164.592,73.4901,0.015743
164.623,73.4962,0.015743
164.654,73.5024,0.015743
164.685,73.5087,0.015743
164.716,73.5148,0.015743
164.747,73.5210,0.015743
164.778,73.5272,0.015630
164.809,73.5335,0.015630
164.840,73.5396,0.015630
164.871,73.5458,0.015630
164.902,73.5521,0.015630
164.934,73.5582,0.015630
164.965,73.5645,0.015630
164.996,73.5707,0.015612
165.028,73.5772,0.015612
165.058,73.5834,0.015612
165.088,73.5892,0.015612
165.119,73.5953,0.015612
165.151,73.6016,0.015612
165.182,73.6078,0.015612
165.213,73.6142,0.015612
165.244,73.6203,0.015791
165.275,73.6266,0.015791
165.306,73.6326,0.015791
165.337,73.6390,0.015791
165.369,73.6452,0.015791
165.400,73.6517,0.015791
165.432,73.6578,0.015791
165.463,73.6642,0.015791
165.493,73.6702,0.015734
165.524,73.6764,0.015734
165.555,73.6826,0.015734
165.587,73.6890,0.015734
165.618,73.6951,0.015734
165.650,73.7017,0.015734
165.681,73.7076,0.015734
165.713,73.7142,0.015734
165.744,73.7203,0.015536
165.776,73.7268,0.015536
165.807,73.7328,0.015536
165.837,73.7389,0.015536
165.868,73.7451,0.015536
165.899,73.7514,0.015536
165.930,73.7576,0.015536
165.961,73.7637,0.015536
165.992,73.7699,0.015546
166.023,73.7762,0.015546
166.054,73.7823,0.015546
166.086,73.7887,0.015546
166.117,73.7948,0.015546
166.147,73.8010,0.015546
166.179,73.8072,0.015546
166.210,73.8134,0.015546
166.241,73.8197,0.015536
166.273,73.8261,0.015536
166.304,73.8324,0.015536
166.336,73.8386,0.015536
166.367,73.8449,0.015536
166.398,73.8511,0.015536
166.429,73.8574,0.015536
166.460,73.8636,0.015536
166.492,73.8700,0.015536
166.523,73.8763,0.015536
166.554,73.8822,0.015536
166.586,73.8888,0.015536
166.616,73.8948,0.015536
166.647,73.9009,0.015536
166.678,73.9072,0.015536
166.708,73.9131,0.015536
166.740,73.9196,0.015536
166.771,73.9258,0.015527
166.802,73.9321,0.015527
166.834,73.9384,0.015527
166.866,73.9446,0.015527
166.896,73.9507,0.015527
166.928,73.9570,0.015527
166.959,73.9632,0.015527
166.991,73.9697,0.015527
167.021,73.9758,0.015442
167.053,73.9822,0.015442
167.083,73.9882,0.015442
167.115,73.9946,0.015442
167.146,74.0007,0.015442
167.177,74.0073,0.015442
167.209,74.0132,0.015442
167.239,74.0193,0.015414
167.269,74.0254,0.015414
167.300,74.0316,0.015414
167.331,74.0379,0.015414
167.362,74.0440,0.015414
167.392,74.0501,0.015414
167.423,74.0561,0.015414
167.454,74.0625,0.015414
167.485,74.0685,0.015395
167.517,74.0750,0.015395
167.548,74.0811,0.015395
167.580,74.0876,0.015395
167.611,74.0937,0.015395
167.643,74.1002,0.015395
167.674,74.1062,0.015395
167.705,74.1127,0.015395
167.735,74.1186,0.015329
167.767,74.1248,0.015329
167.797,74.1309,0.015329
167.828,74.1371,0.015329
167.859,74.1436,0.015329
167.890,74.1495,0.015329
167.922,74.1558,0.015329
167.952,74.1620,0.015329
167.983,74.1681,0.015329
168.014,74.1744,0.015225
168.047,74.1808,0.015225
168.077,74.1869,0.015225
168.107,74.1929,0.015225
168.138,74.1990,0.015225
168.169,74.2053,0.015225
168.200,74.2115,0.015225
168.231,74.2177,0.015188
168.262,74.2241,0.015188
168.293,74.2301,0.015188
168.323,74.2363,0.015188
168.354,74.2424,0.015188
168.386,74.2487,0.015188
168.417,74.2548,0.015188
168.448,74.2610,0.015188
168.479,74.2673,0.015188
168.510,74.2735,0.015188
168.542,74.2799,0.015225
168.572,74.2859,0.015225
168.603,74.2921,0.015225
168.633,74.2980,0.015225
168.665,74.3044,0.015225
168.695,74.3105,0.015225
168.725,74.3167,0.015225
168.757,74.3230,0.015159
168.790,74.3295,0.015159
168.820,74.3354,0.015159
168.851,74.3418,0.015159
168.881,74.3477,0.015159
168.913,74.3540,0.015159
168.944,74.3604,0.015159
168.976,74.3667,0.015159
169.006,74.3726,0.015056
169.037,74.3788,0.015056
169.068,74.3850,0.015056
169.098,74.3912,0.015056
169.129,74.3973,0.015056
169.160,74.4038,0.015056
169.191,74.4097,0.015056
169.223,74.4160,0.015056
169.254,74.4224,0.015046
169.286,74.4287,0.015046
169.317,74.4349,0.015046
169.348,74.4411,0.015046
169.379,74.4473,0.015046
169.410,74.4535,0.015046
169.440,74.4596,0.015046
169.472,74.4659,0.015046
169.502,74.4720,0.015075
169.533,74.4782,0.015075
169.565,74.4845,0.015075
169.596,74.4907,0.015075
169.626,74.4967,0.015075
169.657,74.5031,0.015075
169.688,74.5091,0.015075
169.718,74.5151,0.015075
169.749,74.5212,0.015037
169.780,74.5274,0.015037
169.811,74.5337,0.015037
169.842,74.5399,0.015037
169.873,74.5460,0.015037
169.904,74.5522,0.015037
169.935,74.5584,0.015037
169.966,74.5648,0.015037
169.996,74.5708,0.014961
170.028,74.5772,0.014961
170.058,74.5831,0.014961
170.089,74.5893,0.014961
170.119,74.5955,0.014961
170.150,74.6016,0.014961
170.181,74.6077,0.014961
170.214,74.6144,0.014961
170.243,74.6202,0.014924
170.274,74.6263,0.014924
170.305,74.6325,0.014924
170.337,74.6388,0.014924
170.367,74.6449,0.014924
170.398,74.6513,0.014924
170.429,74.6571,0.014924
170.460,74.6635,0.014924
170.491,74.6697,0.014886
170.522,74.6760,0.014886
170.554,74.6823,0.014886
170.585,74.6885,0.014886
170.615,74.6944,0.014886
170.646,74.7008,0.014886
170.678,74.7070,0.014886
170.708,74.7131,0.014886
170.739,74.7192,0.014886
170.770,74.7255,0.014886
170.801,74.7316,0.014886
170.832,74.7379,0.014886
170.863,74.7441,0.014886
170.894,74.7503,0.014886
170.925,74.7564,0.014886
170.956,74.7627,0.014886
170.987,74.7689,0.014801
171.018,74.7751,0.014801
171.050,74.7815,0.014801
171.082,74.7879,0.014801
171.113,74.7941,0.014801
171.143,74.8003,0.014801
171.175,74.8063,0.014801
171.205,74.8125,0.014801
171.235,74.8185,0.014735
171.266,74.8248,0.014735
171.298,74.8310,0.014735
171.329,74.8374,0.014735
171.361,74.8437,0.014735
171.391,74.8498,0.014735
171.422,74.8561,0.014735
171.453,74.8622,0.014735
171.484,74.8684,0.014651
171.516,74.8746,0.014651
171.546,74.8809,0.014651
171.577,74.8870,0.014651
171.609,74.8934,0.014651
171.640,74.8995,0.014651
171.672,74.9059,0.014651
171.703,74.9123,0.014651
171.734,74.9185,0.014651
171.765,74.9245,0.014594
171.796,74.9307,0.014594
171.827,74.9369,0.014594
171.858,74.9430,0.014594
171.890,74.9495,0.014594
171.920,74.9554,0.014594
171.951,74.9616,0.014594
171.981,74.9677,0.014594
172.012,74.9738,0.014594
172.045,74.9805,0.014566
172.075,74.9866,0.014566
172.106,74.9926,0.014566
172.137,74.9990,0.014566
172.168,75.0052,0.014566
172.200,75.0114,0.014566
172.230,75.0174,0.014566
172.262,75.0239,0.014462
172.293,75.0301,0.014462
172.324,75.0363,0.014462
172.354,75.0424,0.014462
172.385,75.0486,0.014462
172.417,75.0549,0.014462
172.447,75.0608,0.014462
172.478,75.0670,0.014462
172.509,75.0734,0.014368
172.539,75.0793,0.014368
172.571,75.0858,0.014368
172.601,75.0917,0.014368
172.633,75.0982,0.014368
172.663,75.1041,0.014368
172.694,75.1103,0.014368
172.725,75.1165,0.014368
172.756,75.1229,0.014368
172.788,75.1291,0.014245
172.820,75.1355,0.014245
172.850,75.1415,0.014245
172.882,75.1480,0.014245
172.913,75.1540,0.014245
172.943,75.1601,0.014245
172.974,75.1661,0.014245
173.006,75.1726,0.014104
173.036,75.1787,0.014104
173.068,75.1850,0.014104
173.099,75.1914,0.014104
173.130,75.1974,0.014104
173.161,75.2037,0.014104
173.193,75.2100,0.014104
173.224,75.2165,0.014104
173.254,75.2224,0.014104
173.285,75.2285,0.013982
173.316,75.2347,0.013982
173.348,75.2412,0.013982
173.380,75.2474,0.013982
173.412,75.2539,0.013982
173.441,75.2598,0.013982
173.472,75.2659,0.013982
173.503,75.2721,0.013821
173.535,75.2784,0.013821
173.566,75.2847,0.013821
173.596,75.2907,0.013821
173.626,75.2967,0.013821
173.657,75.3029,0.013821
173.688,75.3091,0.013821
173.719,75.3153,0.013821
173.750,75.3217,0.013821
173.781,75.3276,0.013614
173.812,75.3339,0.013614
173.844,75.3401,0.013614
173.875,75.3465,0.013614
173.907,75.3528,0.013614
173.938,75.3591,0.013614
173.969,75.3654,0.013614
174.000,75.3714,0.013341
174.032,75.3778,0.013341
174.062,75.3838,0.013341
174.094,75.3903,0.013341
174.123,75.3961,0.013341
174.154,75.4022,0.013341
174.185,75.4085,0.013341
174.216,75.4148,0.013341
174.248,75.4210,0.013011
174.279,75.4272,0.013011
174.310,75.4337,0.013011
174.341,75.4396,0.013011
174.371,75.4458,0.013011
174.402,75.4519,0.013011
174.432,75.4581,0.013011
174.464,75.4642,0.013011
174.494,75.4702,0.012616
174.526,75.4766,0.012616
174.555,75.4825,0.012616
174.586,75.4888,0.012616
174.618,75.4951,0.012616
174.649,75.5013,0.012616
174.679,75.5073,0.012616
174.710,75.5135,0.012616
174.741,75.5196,0.012050
174.772,75.5258,0.012050
174.803,75.5320,0.012050
174.834,75.5383,0.012050
174.866,75.5445,0.012050
174.897,75.5507,0.012050
174.927,75.5568,0.012050
174.958,75.5630,0.012050
174.988,75.5692,0.011334
175.020,75.5755,0.011334
175.051,75.5816,0.011334
175.082,75.5878,0.011334
175.113,75.5941,0.011334
175.145,75.6005,0.011334
175.176,75.6067,0.011334
175.208,75.6131,0.011334
175.240,75.6193,0.010401
175.268,75.6253,0.010401
175.299,75.6312,0.010401
175.329,75.6374,0.010401
175.360,75.6435,0.010401
175.392,75.6500,0.010401
175.424,75.6563,0.010401
175.454,75.6625,0.010401
175.485,75.6683,0.010401
175.516,75.6746,0.009167
175.546,75.6807,0.009167
175.578,75.6870,0.009167
175.609,75.6934,0.009167
175.641,75.6997,0.009167
175.671,75.7056,0.009167
175.702,75.7118,0.009167
175.734,75.7183,0.009167
175.765,75.7244,0.007387
175.796,75.7306,0.007387
175.826,75.7366,0.007387
175.857,75.7430,0.007387
175.888,75.7491,0.007387
175.920,75.7555,0.007387
175.951,75.7616,0.007387
175.983,75.7680,0.007387
176.013,75.7741,0.004927
176.045,75.7806,0.004927
176.076,75.7868,0.004927
176.107,75.7928,0.004927
176.139,75.7992,0.004927
176.169,75.8054,0.004927
176.200,75.8114,0.004927
176.231,75.8178,0.004927
176.262,75.8238,0.001837
176.293,75.8302,0.001837
176.323,75.8361,0.001837
176.355,75.8426,0.001837
176.387,75.8490,0.001837
176.417,75.8548,0.001837
176.448,75.8612,0.001837
176.479,75.8674,0.001837
176.510,75.8736,-0.002082
176.541,75.8799,-0.002082
176.573,75.8860,-0.002082
176.604,75.8923,-0.002082
176.634,75.8983,-0.002082
176.664,75.9043,-0.002082
176.696,75.9107,-0.002082
176.727,75.9170,-0.006981
176.758,75.9232,-0.006981
176.790,75.9294,-0.006981
176.821,75.9357,-0.006981
176.852,75.9418,-0.006981
176.883,75.9480,-0.006981
176.913,75.9541,-0.006981
176.945,75.9605,-0.006981
176.976,75.9666,-0.006981
177.007,75.9729,-0.012625
177.038,75.9790,-0.012625
177.069,75.9852,-0.012625
177.100,75.9914,-0.012625
177.131,75.9977,-0.012625
177.161,76.0038,-0.012625
177.192,76.0099,-0.012625
177.224,76.0162,-0.018598
177.255,76.0224,-0.018598
177.285,76.0285,-0.018598
177.316,76.0348,-0.018598
177.347,76.0409,-0.018598
177.379,76.0475,-0.018598
177.410,76.0534,-0.018598
177.441,76.0597,-0.018598
177.471,76.0657,-0.018598
177.503,76.0721,-0.024779
177.533,76.0781,-0.024779
177.564,76.0843,-0.024779
177.595,76.0904,-0.024779
177.626,76.0968,-0.024779
177.656,76.1026,-0.024779
177.687,76.1090,-0.024779
177.718,76.1150,-0.024779
177.749,76.1212,-0.024779
177.780,76.1276,-0.030837
177.812,76.1338,-0.030837
177.843,76.1400,-0.030837
177.874,76.1463,-0.030837
177.905,76.1525,-0.030837
177.937,76.1589,-0.030837
177.968,76.1650,-0.030837
177.999,76.1712,-0.030837
178.029,76.1773,-0.036575
178.060,76.1835,-0.036575
178.092,76.1898,-0.036575
178.124,76.1962,-0.036575
178.154,76.2022,-0.036575
178.185,76.2084,-0.036575
178.215,76.2144,-0.036575
178.246,76.2203,-0.036575
178.278,76.2254,-0.041719
178.309,76.2298,-0.041719
178.340,76.2332,-0.041719
178.371,76.2361,-0.041719
178.402,76.2382,-0.041719
178.433,76.2396,-0.041719
178.463,76.2403,-0.041719
178.494,76.2403,-0.041719
178.526,76.2403,-0.045666
178.556,76.2403,-0.045666
178.588,76.2403,-0.045666
178.618,76.2403,-0.045666
178.650,76.2403,-0.045666
178.681,76.2403,-0.045666
178.712,76.2403,-0.045666
178.744,76.2403,-0.046477
178.775,76.2403,-0.046477
178.807,76.2403,-0.046477
178.838,76.2403,-0.046477
178.870,76.2403,-0.046477
178.901,76.2403,-0.046477
178.933,76.2403,-0.046477
178.964,76.2403,-0.046477
178.994,76.2403,-0.046477
179.025,76.2403,-0.044819
179.056,76.2403,-0.044819
179.086,76.2403,-0.044819
179.117,76.2403,-0.044819
179.148,76.2403,-0.044819
179.179,76.2403,-0.044819
179.210,76.2403,-0.044819
179.241,76.2403,-0.044819
179.273,76.2403,-0.043170
179.305,76.2403,-0.043170
179.337,76.2403,-0.043170
179.368,76.2403,-0.043170
179.399,76.2403,-0.043170
179.430,76.2403,-0.043170
179.462,76.2403,-0.043170
179.492,76.2403,-0.041738
179.523,76.2403,-0.041738
179.555,76.2403,-0.041738
179.585,76.2403,-0.041738
179.616,76.2403,-0.041738
179.649,76.2403,-0.041738
179.679,76.2403,-0.041738
179.709,76.2403,-0.041738
179.740,76.2403,-0.040400
179.770,76.2403,-0.040400
179.801,76.2403,-0.040400
179.831,76.2403,-0.040400
179.863,76.2403,-0.040400
179.893,76.2403,-0.040400
179.924,76.2403,-0.040400
179.956,76.2403,-0.040400
179.987,76.2403,-0.040400
180.018,76.2403,-0.039090
180.049,76.2403,-0.039090
180.080,76.2403,-0.039090
180.111,76.2403,-0.039090
180.143,76.2403,-0.039090
180.174,76.2403,-0.039090
180.205,76.2403,-0.039090
180.236,76.2403,-0.038026
180.267,76.2403,-0.038026
180.298,76.2403,-0.038026
180.329,76.2403,-0.038026
180.360,76.2403,-0.038026
180.391,76.2403,-0.038026
180.422,76.2403,-0.038026
180.453,76.2403,-0.038026
180.484,76.2403,-0.038026
180.516,76.2403,-0.037065
180.547,76.2403,-0.037065
180.578,76.2403,-0.037065
180.610,76.2403,-0.037065
180.641,76.2403,-0.037065
180.672,76.2403,-0.037065
180.703,76.2403,-0.037065
180.734,76.2403,-0.036160
180.765,76.2403,-0.036160
180.796,76.2403,-0.036160
180.827,76.2403,-0.036160
180.858,76.2403,-0.036160
180.890,76.2403,-0.036160
180.921,76.2403,-0.036160
180.952,76.2403,-0.036160
180.983,76.2403,-0.036160
181.014,76.2403,-0.035190
181.045,76.2403,-0.035190
181.076,76.2403,-0.035190
181.108,76.2403,-0.035190
181.139,76.2403,-0.035190
181.171,76.2403,-0.035190
181.202,76.2403,-0.035190
181.233,76.2403,-0.035190
181.265,76.2403,-0.034295
181.295,76.2403,-0.034295
181.326,76.2403,-0.034295
181.357,76.2403,-0.034295
181.388,76.2403,-0.034295
181.420,76.2403,-0.034295
181.451,76.2403,-0.034295
181.483,76.2403,-0.033456
181.514,76.2403,-0.033456
181.545,76.2403,-0.033456
181.576,76.2403,-0.033456
181.608,76.2403,-0.033456
181.640,76.2403,-0.033456
181.670,76.2403,-0.033456
181.702,76.2403,-0.033456
181.733,76.2403,-0.032618
181.764,76.2403,-0.032618
181.795,76.2403,-0.032618
181.825,76.2403,-0.032618
181.857,76.2403,-0.032618
181.887,76.2403,-0.032618
181.919,76.2403,-0.032618
181.950,76.2403,-0.032618
181.981,76.2403,-0.031845
182.012,76.2403,-0.031845
182.044,76.2403,-0.031845
182.075,76.2403,-0.031845
182.106,76.2403,-0.031845
182.136,76.2403,-0.031845
182.168,76.2403,-0.031845
182.198,76.2403,-0.031845
182.229,76.2403,-0.031845
182.260,76.2403,-0.031054
182.292,76.2403,-0.031054
182.324,76.2403,-0.031054
182.354,76.2403,-0.031054
182.386,76.2403,-0.031054
182.417,76.2403,-0.031054
182.448,76.2403,-0.031054
182.479,76.2403,-0.031054
182.510,76.2403,-0.030441
182.541,76.2403,-0.030441
182.572,76.2403,-0.030441
182.603,76.2403,-0.030441
182.635,76.2403,-0.030441
182.666,76.2403,-0.030441
182.698,76.2403,-0.030441
182.729,76.2403,-0.030441
182.760,76.2403,-0.030507
182.791,76.2403,-0.030507
182.822,76.2403,-0.030507
182.853,76.2403,-0.030507
182.884,76.2403,-0.030507
182.915,76.2403,-0.030507
182.945,76.2403,-0.030507
182.975,76.2403,-0.030507
183.006,76.2403,-0.031054
183.038,76.2403,-0.031054
183.068,76.2403,-0.031054
183.099,76.2401,-0.031054
183.131,76.2391,-0.031054
183.162,76.2373,-0.031054
183.194,76.2349,-0.031054
183.226,76.2315,-0.030884
183.257,76.2275,-0.030884
183.288,76.2227,-0.030884
183.319,76.2175,-0.030884
183.351,76.2112,-0.030884
183.382,76.2050,-0.030884
183.412,76.1988,-0.030884
183.443,76.1926,-0.030884
183.474,76.1866,-0.026767
183.506,76.1802,-0.026767
183.536,76.1742,-0.026767
183.567,76.1679,-0.026767
183.597,76.1620,-0.026767
183.627,76.1560,-0.026767
183.658,76.1498,-0.026767
183.689,76.1434,-0.026767
183.720,76.1374,-0.026767
183.751,76.1310,-0.016846
183.782,76.1247,-0.016846
183.814,76.1186,-0.016846
183.845,76.1122,-0.016846
183.875,76.1062,-0.016846
183.906,76.1002,-0.016846
183.937,76.0937,-0.016846
183.968,76.0878,-0.016846
183.999,76.0814,-0.016846
184.030,76.0754,-0.003495
184.061,76.0690,-0.003495
184.091,76.0631,-0.003495
184.123,76.0566,-0.003495
184.154,76.0506,-0.003495
184.185,76.0441,-0.003495
184.217,76.0380,-0.003495
184.248,76.0316,-0.003495
184.280,76.0254,0.012220
184.311,76.0189,0.012220
184.342,76.0130,0.012220
184.374,76.0065,0.012220
184.404,76.0004,0.012220
184.435,75.9942,0.012220
184.466,75.9879,0.012220
184.497,75.9818,0.031289
184.528,75.9756,0.031289
184.558,75.9696,0.031289
184.590,75.9632,0.031289
184.621,75.9572,0.031289
184.652,75.9508,0.031289
184.683,75.9446,0.031289
184.713,75.9386,0.031289
184.744,75.9326,0.031289
184.775,75.9263,0.054316
184.807,75.9201,0.054316
184.838,75.9138,0.054316
184.868,75.9078,0.054316
184.899,75.9015,0.054316
184.930,75.8952,0.054316
184.961,75.8892,0.054316
184.992,75.8829,0.054316
185.023,75.8767,0.081761
185.055,75.8703,0.081761
185.086,75.8643,0.081761
185.117,75.8577,0.081761
185.149,75.8516,0.081761
185.179,75.8454,0.081761
185.211,75.8392,0.081761
185.242,75.8329,0.081761
185.273,75.8267,0.114058
185.305,75.8202,0.114058
185.336,75.8143,0.114058
185.367,75.8077,0.114058
185.398,75.8018,0.114058
185.430,75.7953,0.114058
185.459,75.7894,0.114058
185.490,75.7833,0.151480
185.521,75.7771,0.151480
185.552,75.7708,0.151480
185.583,75.7647,0.151480
185.614,75.7584,0.151480
185.646,75.7523,0.151480
185.677,75.7458,0.151480
185.708,75.7397,0.151480
185.739,75.7334,0.194245
185.770,75.7273,0.194245
185.800,75.7211,0.194245
185.832,75.7148,0.194245
185.864,75.7084,0.194245
185.895,75.7024,0.194245
185.925,75.6961,0.194245
185.957,75.6900,0.194245
185.986,75.6841,0.242295
186.018,75.6777,0.242295
186.049,75.6714,0.242295
186.082,75.6650,0.242295
186.112,75.6589,0.242295
186.143,75.6527,0.242295
186.174,75.6465,0.242295
186.206,75.6403,0.242295
186.237,75.6337,0.295263
186.268,75.6276,0.295263
186.299,75.6216,0.295263
186.330,75.6154,0.295263
186.361,75.6090,0.295263
186.391,75.6031,0.295263
186.422,75.5967,0.295263
186.454,75.5905,0.295263
186.484,75.5843,0.295263
186.516,75.5781,0.352829
186.547,75.5721,0.352829
186.578,75.5657,0.352829
186.609,75.5595,0.352829
186.640,75.5531,0.352829
186.672,75.5470,0.352829
186.703,75.5407,0.352829
186.734,75.5346,0.352829
186.765,75.5284,0.414824
186.796,75.5220,0.414824
186.827,75.5159,0.414824
186.859,75.5094,0.414824
186.890,75.5034,0.414824
186.922,75.4969,0.414824
186.952,75.4908,0.414824
186.983,75.4846,0.414824
187.015,75.4783,0.414824
187.045,75.4721,0.480897
187.077,75.4659,0.480897
187.109,75.4595,0.480897
187.140,75.4534,0.480897
187.170,75.4473,0.480897
187.200,75.4413,0.480897
187.232,75.4349,0.480897
187.263,75.4287,0.551079
187.296,75.4221,0.551079
187.326,75.4162,0.551079
187.357,75.4100,0.551079
187.388,75.4036,0.551079
187.419,75.3977,0.551079
187.450,75.3914,0.551079
187.481,75.3852,0.551079
187.512,75.3788,0.625472
187.542,75.3728,0.625472
187.573,75.3667,0.625472
187.604,75.3605,0.625472
187.636,75.3543,0.625472
187.666,75.3481,0.625472
187.696,75.3420,0.625472
187.727,75.3358,0.625472
187.758,75.3297,0.703991
187.790,75.3233,0.703991
187.821,75.3171,0.703991
187.852,75.3108,0.703991
187.883,75.3047,0.703991
187.914,75.2985,0.703991
187.945,75.2924,0.703991
187.976,75.2862,0.703991
188.008,75.2797,0.786468
188.040,75.2734,0.786468
188.071,75.2672,0.786468
188.102,75.2610,0.786468
188.133,75.2548,0.786468
188.164,75.2485,0.786468
188.195,75.2424,0.786468
188.227,75.2360,0.786468
188.256,75.2300,0.872713
188.288,75.2237,0.872713
188.319,75.2176,0.872713
188.350,75.2113,0.872713
188.381,75.2052,0.872713
188.412,75.1988,0.872713
188.444,75.1926,0.872713
188.475,75.1864,0.872713
188.506,75.1802,0.962350
188.538,75.1738,0.962350
188.569,75.1675,0.962350
188.599,75.1614,0.962350
188.631,75.1552,0.962350
188.661,75.1491,0.962350
188.692,75.1429,0.962350
188.723,75.1369,0.962350
188.754,75.1305,1.054183
188.785,75.1243,1.054183
188.817,75.1179,1.054183
188.848,75.1118,1.054183
188.879,75.1056,1.054183
188.910,75.0994,1.054183
188.940,75.0932,1.054183
188.972,75.0870,1.054183
189.003,75.0808,1.054183
189.034,75.0746,1.148465
189.064,75.0684,1.148465
189.096,75.0622,1.148465
189.128,75.0558,1.148465
189.159,75.0496,1.148465
189.190,75.0434,1.148465
189.221,75.0369,1.148465
189.253,75.0307,1.245215
189.284,75.0246,1.245215
189.315,75.0183,1.245215
189.345,75.0124,1.245215
189.376,75.0062,1.245215
189.408,74.9997,1.245215
189.438,74.9937,1.245215
189.469,74.9875,1.245215
189.501,74.9813,1.245215
189.532,74.9750,1.343539
189.563,74.9688,1.343539
189.594,74.9626,1.343539
189.625,74.9564,1.343539
189.657,74.9498,1.343539
189.687,74.9438,1.343539
189.718,74.9377,1.343539
189.749,74.9315,1.442852
189.781,74.9252,1.442852
189.812,74.9188,1.442852
189.845,74.9124,1.442852
189.875,74.9063,1.442852
189.906,74.9001,1.442852
189.938,74.8938,1.442852
189.969,74.8876,1.442852
190.001,74.8811,1.542947
190.031,74.8751,1.542947
190.062,74.8689,1.542947
190.093,74.8628,1.542947
190.124,74.8566,1.542947
190.155,74.8505,1.542947
190.186,74.8439,1.542947
190.217,74.8380,1.542947
190.248,74.8316,1.542947
190.278,74.8257,1.644606
190.310,74.8194,1.644606
190.342,74.8130,1.644606
190.373,74.8067,1.644606
190.404,74.8005,1.644606
190.436,74.7942,1.644606
190.468,74.7879,1.644606
190.499,74.7815,1.748197
190.530,74.7753,1.748197
190.561,74.7691,1.748197
190.592,74.7629,1.748197
190.623,74.7567,1.748197
190.654,74.7507,1.748197
190.684,74.7446,1.748197
190.716,74.7383,1.748197
190.746,74.7321,1.748197
190.777,74.7260,1.854077
190.808,74.7197,1.854077
190.839,74.7136,1.854077
190.871,74.7071,1.854077
190.902,74.7011,1.854077
190.934,74.6946,1.854077
190.966,74.6883,1.854077
190.996,74.6822,1.961096
191.026,74.6760,1.961096
191.058,74.6698,1.961096
191.089,74.6636,1.961096
191.122,74.6570,1.961096
191.151,74.6512,1.961096
191.183,74.6447,1.961096
191.215,74.6384,1.961096
191.245,74.6323,2.069125
191.275,74.6264,2.069125
191.307,74.6199,2.069125
191.338,74.6139,2.069125
191.369,74.6075,2.069125
191.399,74.6015,2.069125
191.431,74.5951,2.069125
191.463,74.5888,2.069125
191.495,74.5825,2.069125
191.526,74.5762,2.179583
191.557,74.5700,2.179583
191.587,74.5638,2.179583
191.618,74.5576,2.179583
191.649,74.5516,2.179583
191.680,74.5454,2.179583
191.710,74.5393,2.179583
191.742,74.5330,2.292247
191.773,74.5266,2.292247
191.805,74.5205,2.292247
191.836,74.5141,2.292247
191.867,74.5079,2.292247
191.898,74.5019,2.292247
191.929,74.4954,2.292247
191.960,74.4895,2.292247
191.991,74.4831,2.292247
192.022,74.4771,2.406748
192.054,74.4705,2.406748
192.084,74.4645,2.406748
192.115,74.4582,2.406748
192.146,74.4520,2.406748
192.179,74.4456,2.406748
192.210,74.4392,2.406748
192.242,74.4329,2.522690
192.272,74.4268,2.522690
192.303,74.4208,2.522690
192.334,74.4147,2.522690
192.363,74.4087,2.522690
192.394,74.4024,2.522690
192.424,74.3966,2.522690
192.455,74.3904,2.522690
192.485,74.3843,2.640186
192.517,74.3780,2.640186
192.548,74.3719,2.640186
192.579,74.3654,2.640186
192.610,74.3594,2.640186
192.640,74.3533,2.640186
192.672,74.3471,2.640186
192.703,74.3409,2.640186
192.733,74.3347,2.759671
192.765,74.3284,2.759671
192.796,74.3222,2.759671
192.828,74.3158,2.759671
192.858,74.3098,2.759671
192.890,74.3034,2.759671
192.920,74.2972,2.759671
192.952,74.2910,2.759671
192.983,74.2848,2.759671
193.014,74.2786,2.881511
193.046,74.2721,2.881511
193.076,74.2661,2.881511
193.106,74.2600,2.881511
193.138,74.2537,2.881511
193.168,74.2477,2.881511
193.199,74.2415,2.881511
193.230,74.2355,2.881511
193.261,74.2290,3.004463
193.292,74.2228,3.004463
193.324,74.2165,3.004463
193.356,74.2103,3.004463
193.386,74.2040,3.004463
193.418,74.1979,3.004463
193.450,74.1913,3.004463
193.482,74.1851,3.004463
193.512,74.1790,3.128593
193.543,74.1727,3.128593
193.574,74.1666,3.128593
193.606,74.1603,3.128593
193.636,74.1542,3.128593
193.666,74.1480,3.128593
193.698,74.1418,3.128593
193.729,74.1356,3.128593
193.758,74.1298,3.255926
193.789,74.1236,3.255926
193.819,74.1175,3.255926
193.851,74.1112,3.255926
193.882,74.1050,3.255926
193.914,74.0987,3.255926
193.945,74.0925,3.255926
193.975,74.0863,3.255926
194.006,74.0801,3.384926
194.037,74.0740,3.384926
194.068,74.0679,3.384926
194.099,74.0616,3.384926
194.130,74.0554,3.384926
194.160,74.0492,3.384926
194.192,74.0430,3.384926
194.223,74.0368,3.384926
194.255,74.0305,3.384926
194.287,74.0239,3.515387
194.317,74.0179,3.515387
194.348,74.0119,3.515387
194.379,74.0055,3.515387
194.410,73.9995,3.515387
194.440,73.9933,3.515387
194.471,73.9872,3.515387
194.502,73.9810,3.646960
194.533,73.9749,3.646960
194.564,73.9686,3.646960
194.595,73.9624,3.646960
194.626,73.9562,3.646960
194.657,73.9500,3.646960
194.688,73.9439,3.646960
194.720,73.9374,3.646960
194.751,73.9311,3.778966
194.781,73.9250,3.778966
194.813,73.9190,3.778966
194.844,73.9124,3.778966
194.876,73.9063,3.778966
194.907,73.9000,3.778966
194.937,73.8939,3.778966
194.969,73.8875,3.778966
195.001,73.8813,3.913666
195.033,73.8748,3.913666
195.063,73.8689,3.913666
195.095,73.8623,3.913666
195.127,73.8561,3.913666
195.157,73.8500,3.913666
195.188,73.8438,3.913666
195.220,73.8374,3.913666
195.251,73.8313,3.913666
195.281,73.8252,4.051486
195.312,73.8189,4.051486
195.343,73.8129,4.051486
195.374,73.8065,4.051486
195.406,73.8003,4.051486
195.437,73.7939,4.051486
195.468,73.7877,4.051486
195.499,73.7814,4.191830
195.530,73.7755,4.191830
195.561,73.7691,4.191830
195.593,73.7629,4.191830
195.624,73.7565,4.191830
195.654,73.7505,4.191830
195.686,73.7440,4.191830
195.718,73.7379,4.191830
195.749,73.7314,4.333945
195.780,73.7254,4.333945
195.811,73.7192,4.333945
195.842,73.7130,4.333945
195.873,73.7068,4.333945
195.905,73.7002,4.333945
195.936,73.6942,4.333945
195.967,73.6880,4.333945
195.998,73.6818,4.476880
196.030,73.6755,4.476880
196.060,73.6694,4.476880
196.092,73.6630,4.476880
196.124,73.6568,4.476880
196.154,73.6506,4.476880
196.184,73.6445,4.476880
196.216,73.6383,4.476880
196.247,73.6321,4.620484
196.279,73.6258,4.620484
196.309,73.6196,4.620484
196.341,73.6131,4.620484
196.372,73.6070,4.620484
196.402,73.6008,4.620484
196.433,73.5948,4.620484
196.464,73.5887,4.620484
196.495,73.5825,4.765313
196.526,73.5762,4.765313
196.556,73.5702,4.765313
196.587,73.5640,4.765313
196.619,73.5577,4.765313
196.649,73.5515,4.765313
196.681,73.5453,4.765313
196.712,73.5391,4.765313
196.743,73.5329,4.911715
196.774,73.5264,4.911715
196.806,73.5203,4.911715
196.837,73.5140,4.911715
196.868,73.5078,4.911715
196.899,73.5016,4.911715
196.929,73.4957,4.911715
196.960,73.4893,4.911715
196.991,73.4833,5.057741
197.022,73.4771,5.057741
197.054,73.4706,5.057741
197.085,73.4645,5.057741
197.116,73.4581,5.057741
197.148,73.4519,5.057741
197.179,73.4456,5.057741
197.210,73.4392,5.057741
197.242,73.4330,5.202796
197.273,73.4270,5.202796
197.304,73.4205,5.202796
197.335,73.4142,5.202796
197.367,73.4080,5.202796
197.398,73.4018,5.202796
197.430,73.3953,5.202796
197.461,73.3894,5.202796
197.492,73.3829,5.348651
197.524,73.3766,5.348651
197.556,73.3700,5.348651
197.585,73.3645,5.348651
197.615,73.3584,5.348651
197.646,73.3523,5.348651
197.676,73.3462,5.348651
197.707,73.3399,5.348651
197.738,73.3338,5.496052
197.770,73.3274,5.496052
197.801,73.3213,5.496052
197.832,73.3150,5.496052
197.863,73.3088,5.496052
197.894,73.3024,5.496052
197.925,73.2965,5.496052
197.956,73.2900,5.496052
197.987,73.2840,5.496052
198.018,73.2778,3.020866
198.048,73.2718,3.020866
198.080,73.2652,3.020866
198.111,73.2590,3.020866
198.143,73.2527,3.020866
198.175,73.2464,3.020866
198.205,73.2404,3.020866
198.237,73.2340,3.020866
198.267,73.2279,0.244867
198.298,73.2218,0.244867
198.330,73.2154,0.244867
198.361,73.2095,0.244867
198.392,73.2048,0.244867
198.422,73.2006,0.244867
198.453,73.1971,0.244867
198.485,73.1942,0.244867
198.515,73.1922,0.017816
198.546,73.1908,0.017816
198.578,73.1902,0.017816
198.608,73.1902,0.017816
198.639,73.1902,0.017816
198.671,73.1902,0.017816
198.702,73.1902,0.017816
198.734,73.1902,0.017816
198.764,73.1902,0.017270
198.795,73.1902,0.017270
198.826,73.1902,0.017270
198.857,73.1902,0.017270
198.889,73.1902,0.017270
198.920,73.1902,0.017270
198.950,73.1902,0.017270
198.981,73.1902,0.017270
199.012,73.1902,0.017270
199.044,73.1902,0.017034
199.075,73.1902,0.017034
199.105,73.1902,0.017034
199.136,73.1902,0.017034
199.167,73.1902,0.017034
199.199,73.1902,0.017034
199.231,73.1902,0.017034
199.262,73.1902,0.016827
199.294,73.1902,0.016827
199.324,73.1902,0.016827
199.356,73.1902,0.016827
199.387,73.1908,0.016827
199.417,73.1922,0.016827
199.448,73.1942,0.016827
199.479,73.1969,0.016827
199.510,73.2005,0.016686
199.541,73.2047,0.016686
199.572,73.2097,0.016686
199.603,73.2155,0.016686
199.635,73.2218,0.016686
199.666,73.2280,0.016686
199.697,73.2342,0.016686
199.728,73.2404,0.016686
199.760,73.2468,0.016507
199.791,73.2530,0.016507
199.821,73.2589,0.016507
199.852,73.2652,0.016507
199.883,73.2713,0.016507
199.915,73.2776,0.016507
199.947,73.2841,0.016507
199.978,73.2905,0.016507
200.008,73.2965,0.016346
200.039,73.3026,0.016346
200.069,73.3086,0.016346
200.101,73.3150,0.016346
200.131,73.3210,0.016346
200.162,73.3271,0.016346
200.193,73.3334,0.016346
200.223,73.3394,0.016346
200.254,73.3455,0.016215
200.284,73.3517,0.016215
200.316,73.3580,0.016215
200.347,73.3642,0.016215
200.378,73.3704,0.016215
200.409,73.3766,0.016215
200.440,73.3828,0.016215
200.472,73.3891,0.016215
200.503,73.3952,0.016139
200.534,73.4015,0.016139
200.566,73.4079,0.016139
200.596,73.4139,0.016139
200.627,73.4203,0.016139
200.658,73.4263,0.016139
200.688,73.4324,0.016139
200.719,73.4386,0.016139
200.751,73.4451,0.016130
200.781,73.4509,0.016130
200.812,73.4572,0.016130
200.843,73.4633,0.016130
200.875,73.4696,0.016130
200.905,73.4758,0.016130
200.937,73.4822,0.016130
200.969,73.4885,0.016130
201.001,73.4950,0.016054
201.032,73.5011,0.016054
201.063,73.5073,0.016054
201.094,73.5137,0.016054
201.125,73.5197,0.016054
201.156,73.5261,0.016054
201.187,73.5323,0.016054
201.217,73.5382,0.016054
201.248,73.5445,0.016054
201.279,73.5506,0.015979
201.311,73.5571,0.015979
201.342,73.5630,0.015979
201.373,73.5696,0.015979
201.404,73.5755,0.015979
201.436,73.5821,0.015979
201.467,73.5882,0.015979
201.498,73.5945,0.015979
201.530,73.6007,0.015904
201.561,73.6070,0.015904
201.593,73.6132,0.015904
201.624,73.6197,0.015904
201.656,73.6260,0.015904
201.688,73.6323,0.015904
201.719,73.6385,0.015904
201.750,73.6446,0.015904
201.781,73.6508,0.015866
201.812,73.6571,0.015866
201.843,73.6636,0.015866
201.876,73.6698,0.015866
201.907,73.6762,0.015866
201.938,73.6824,0.015866
201.970,73.6889,0.015866
202.001,73.6951,0.015809
202.032,73.7011,0.015809
202.062,73.7073,0.015809
202.093,73.7135,0.015809
202.124,73.7194,0.015809
202.154,73.7256,0.015809
202.185,73.7317,0.015809
202.217,73.7380,0.015809
202.248,73.7443,0.015762
202.279,73.7505,0.015762
202.304,73.7556,0.015762
202.340,73.7628,0.015762
202.371,73.7689,0.015762
202.402,73.7753,0.015762
202.433,73.7814,0.015762
202.465,73.7879,0.015762
202.496,73.7938,0.015706
202.526,73.8000,0.015706
202.557,73.8063,0.015706
202.588,73.8123,0.015706
202.619,73.8186,0.015706
202.650,73.8247,0.015706
202.681,73.8309,0.015706
202.712,73.8371,0.015706
202.744,73.8436,0.015706
202.775,73.8496,0.015649
202.806,73.8558,0.015649
202.836,73.8619,0.015649
202.867,73.8684,0.015649
202.898,73.8746,0.015649
202.930,73.8808,0.015649
202.961,73.8868,0.015649
202.992,73.8933,0.015649
203.023,73.8994,0.015574
203.054,73.9056,0.015574
203.085,73.9118,0.015574
203.117,73.9181,0.015574
203.149,73.9245,0.015574
203.180,73.9307,0.015574
203.211,73.9369,0.015574
203.243,73.9433,0.015574
203.274,73.9496,0.015527
203.304,73.9557,0.015527
203.335,73.9617,0.015527
203.367,73.9681,0.015527
203.397,73.9740,0.015527
203.428,73.9804,0.015527
203.458,73.9864,0.015527
203.489,73.9928,0.015527
203.520,73.9987,0.015480
203.552,74.0052,0.015480
203.583,74.0114,0.015480
203.614,74.0177,0.015480
203.645,74.0236,0.015480
203.676,74.0300,0.015480
203.707,74.0360,0.015480
203.739,74.0426,0.015480
203.770,74.0487,0.015433
203.801,74.0551,0.015433
203.833,74.0613,0.015433
203.864,74.0677,0.015433
203.895,74.0737,0.015433
203.926,74.0799,0.015433
203.956,74.0859,0.015433
203.987,74.0921,0.015423
204.017,74.0983,0.015423
204.049,74.1045,0.015423
204.079,74.1106,0.015423
204.110,74.1167,0.015423
204.141,74.1230,0.015423
204.171,74.1289,0.015423
204.203,74.1354,0.015423
204.234,74.1416,0.015423
204.266,74.1480,0.015423
204.297,74.1541,0.015310
204.329,74.1607,0.015310
204.360,74.1668,0.015310
204.393,74.1736,0.015310
204.422,74.1790,0.015310
204.452,74.1852,0.015310
204.484,74.1916,0.015310
204.514,74.1976,0.015225
204.546,74.2040,0.015225
204.577,74.2102,0.015225
204.608,74.2164,0.015225
204.639,74.2226,0.015225
204.670,74.2288,0.015225
204.701,74.2350,0.015225
204.732,74.2410,0.015225
204.763,74.2474,0.015225
204.794,74.2536,0.015301
204.825,74.2599,0.015301
204.856,74.2660,0.015301
204.887,74.2722,0.015301
204.918,74.2784,0.015301
204.950,74.2846,0.015301
204.981,74.2909,0.015301
205.012,74.2972,0.015320
205.042,74.3032,0.015320
205.074,74.3095,0.015320
205.105,74.3156,0.015320
205.136,74.3219,0.015320
205.166,74.3281,0.015320
205.197,74.3342,0.015320
205.228,74.3405,0.015320
205.260,74.3467,0.015320
205.291,74.3530,0.015178
205.323,74.3594,0.015178
205.354,74.3657,0.015178
205.386,74.3719,0.015178
205.418,74.3783,0.015178
205.447,74.3840,0.015178
205.479,74.3905,0.015178
205.509,74.3966,0.014961
205.540,74.4027,0.014961
205.571,74.4089,0.014961
205.601,74.4149,0.014961
205.632,74.4213,0.014961
205.663,74.4272,0.014961
205.694,74.4335,0.014961
205.726,74.4399,0.014961
205.757,74.4461,0.014961
205.787,74.4521,0.014858
205.819,74.4586,0.014858
205.850,74.4648,0.014858
205.882,74.4711,0.014858
205.912,74.4772,0.014858
205.943,74.4834,0.014858
205.974,74.4896,0.014858
206.006,74.4960,0.014924
206.037,74.5021,0.014924
206.069,74.5086,0.014924
206.100,74.5146,0.014924
206.131,74.5210,0.014924
206.162,74.5272,0.014924
206.193,74.5332,0.014924
206.224,74.5395,0.014924
206.255,74.5457,0.014961
206.285,74.5517,0.014961
206.317,74.5581,0.014961
206.347,74.5640,0.014961
206.378,74.5703,0.014961
206.409,74.5765,0.014961
206.440,74.5829,0.014961
206.471,74.5889,0.014961
206.502,74.5953,0.014961
206.534,74.6015,0.014820
206.566,74.6080,0.014820
206.598,74.6142,0.014820
206.630,74.6207,0.014820
206.660,74.6268,0.014820
206.692,74.6332,0.014820
206.722,74.6392,0.014820
206.754,74.6455,0.014632
206.785,74.6516,0.014632
206.815,74.6578,0.014632
206.848,74.6643,0.014632
206.877,74.6702,0.014632
206.908,74.6764,0.014632
206.939,74.6824,0.014632
206.970,74.6887,0.014632
207.001,74.6950,0.014632
207.033,74.7013,0.014613
207.064,74.7075,0.014613
207.094,74.7136,0.014613
207.126,74.7198,0.014613
207.159,74.7266,0.014613
207.188,74.7322,0.014613
207.220,74.7386,0.014613
207.250,74.7447,0.014594
207.282,74.7512,0.014594
207.313,74.7574,0.014594
207.344,74.7634,0.014594
207.376,74.7700,0.014594
207.407,74.7763,0.014594
207.438,74.7823,0.014594
207.468,74.7882,0.014594
207.499,74.7944,0.014434
207.530,74.8006,0.014434
207.560,74.8068,0.014434
207.593,74.8133,0.014434
207.622,74.8191,0.014434
207.653,74.8253,0.014434
207.684,74.8315,0.014434
207.716,74.8379,0.014434
207.746,74.8439,0.014434
207.777,74.8501,0.014208
207.808,74.8563,0.014208
207.839,74.8624,0.014208
207.870,74.8687,0.014208
207.902,74.8751,0.014208
207.932,74.8811,0.014208
207.964,74.8875,0.014208
207.995,74.8938,0.014048
208.026,74.9001,0.014048
208.057,74.9061,0.014048
208.088,74.9123,0.014048
208.120,74.9186,0.014048
208.150,74.9249,0.014048
208.182,74.9310,0.014048
208.213,74.9373,0.014048
208.244,74.9435,0.013859
208.276,74.9500,0.013859
208.306,74.9558,0.013859
208.337,74.9621,0.013859
208.368,74.9683,0.013859
208.399,74.9745,0.013859
208.430,74.9807,0.013859
208.461,74.9869,0.013859
208.493,74.9933,0.013642
208.523,74.9995,0.013642
208.554,75.0055,0.013642
208.586,75.0119,0.013642
208.618,75.0182,0.013642
208.650,75.0248,0.013642
208.682,75.0310,0.013642
208.713,75.0372,0.013642
208.744,75.0435,0.013303
208.776,75.0499,0.013303
208.806,75.0559,0.013303
208.838,75.0623,0.013303
208.870,75.0685,0.013303
208.901,75.0750,0.013303
208.932,75.0813,0.013303
208.963,75.0871,0.013303
208.994,75.0935,0.012898
209.025,75.0995,0.012898
209.055,75.1057,0.012898
209.086,75.1119,0.012898
209.117,75.1181,0.012898
209.148,75.1243,0.012898
209.179,75.1304,0.012898
209.209,75.1366,0.012898
209.241,75.1428,0.012437
209.273,75.1494,0.012437
209.303,75.1554,0.012437
209.334,75.1614,0.012437
209.366,75.1679,0.012437
209.397,75.1743,0.012437
209.427,75.1800,0.012437
209.458,75.1864,0.012437
209.489,75.1924,0.011730
209.520,75.1989,0.011730
209.552,75.2052,0.011730
209.584,75.2114,0.011730
209.615,75.2177,0.011730
209.645,75.2238,0.011730
209.677,75.2301,0.011730
209.708,75.2362,0.011730
209.739,75.2427,0.010816
209.770,75.2487,0.010816
209.802,75.2551,0.010816
209.833,75.2613,0.010816
209.865,75.2677,0.010816
209.895,75.2738,0.010816
209.926,75.2800,0.010816
209.956,75.2858,0.010816
209.987,75.2920,0.009591
210.017,75.2981,0.009591
210.049,75.3044,0.009591
210.080,75.3108,0.009591
210.110,75.3168,0.009591
210.141,75.3229,0.009591
210.172,75.3291,0.009591
210.203,75.3353,0.009591
210.234,75.3415,0.009591
210.264,75.3476,0.007980
210.297,75.3540,0.007980
210.327,75.3601,0.007980
210.357,75.3662,0.007980
210.389,75.3725,0.007980
210.421,75.3790,0.007980
210.452,75.3850,0.007980
210.483,75.3914,0.007980
210.514,75.3974,0.005634
210.545,75.4036,0.005634
210.576,75.4100,0.005634
210.607,75.4162,0.005634
210.639,75.4225,0.005634
210.672,75.4291,0.005634
210.701,75.4349,0.005634
210.732,75.4412,0.002459
210.763,75.4472,0.002459
210.793,75.4535,0.002459
210.824,75.4595,0.002459
210.856,75.4659,0.002459
210.887,75.4720,0.002459
210.918,75.4784,0.002459
210.949,75.4845,0.002459
210.981,75.4911,-0.001724
211.012,75.4973,-0.001724
211.043,75.5035,-0.001724
211.070,75.5087,-0.001724
211.106,75.5160,-0.001724
211.137,75.5222,-0.001724
211.169,75.5284,-0.001724
211.201,75.5349,-0.001724
211.231,75.5408,-0.007123
211.262,75.5471,-0.007123
211.292,75.5530,-0.007123
211.323,75.5593,-0.007123
211.355,75.5656,-0.007123
211.386,75.5718,-0.007123
211.416,75.5780,-0.007123
211.447,75.5842,-0.007123
211.478,75.5904,-0.007123
211.509,75.5965,-0.013708
211.540,75.6030,-0.013708
211.572,75.6092,-0.013708
211.603,75.6155,-0.013708
211.635,75.6216,-0.013708
211.666,75.6280,-0.013708
211.697,75.6341,-0.013708
211.728,75.6404,-0.013708
211.760,75.6466,-0.021406
211.791,75.6529,-0.021406
211.822,75.6590,-0.021406
211.853,75.6655,-0.021406
211.885,75.6715,-0.021406
211.916,75.6779,-0.021406
211.947,75.6842,-0.021406
211.977,75.6901,-0.029725
212.009,75.6965,-0.029725
212.039,75.7024,-0.029725
212.071,75.7089,-0.029725
212.100,75.7147,-0.029725
212.132,75.7211,-0.029725
212.163,75.7271,-0.029725
212.193,75.7333,-0.029725
212.223,75.7394,-0.029725
212.255,75.7457,-0.038139
212.286,75.7519,-0.038139
212.317,75.7582,-0.038139
212.347,75.7643,-0.038139
212.378,75.7703,-0.038139
212.409,75.7763,-0.038139
212.440,75.7827,-0.038139
212.471,75.7889,-0.038139
212.502,75.7952,-0.038139
212.534,75.8014,-0.046156
212.565,75.8077,-0.046156
212.596,75.8138,-0.046156
212.628,75.8204,-0.046156
212.658,75.8263,-0.046156
212.690,75.8326,-0.046156
212.720,75.8388,-0.046156
212.751,75.8449,-0.046156
212.781,75.8509,-0.053270
212.813,75.8573,-0.053270
212.844,75.8635,-0.053270
212.875,75.8697,-0.053270
212.906,75.8758,-0.053270
212.937,75.8823,-0.053270
212.969,75.8885,-0.053270
213.001,75.8949,-0.053270
213.031,75.9009,-0.059318
213.062,75.9069,-0.059318
213.093,75.9133,-0.059318
213.123,75.9193,-0.059318
213.154,75.9255,-0.059318
213.185,75.9317,-0.059318
213.216,75.9378,-0.059318
213.249,75.9444,-0.064312
213.279,75.9505,-0.064312
213.310,75.9565,-0.064312
213.340,75.9627,-0.064312
213.372,75.9691,-0.064312
213.402,75.9751,-0.064312
213.433,75.9813,-0.064312
213.464,75.9875,-0.064312
213.495,75.9937,-0.064312
213.526,75.9998,-0.068269
213.557,76.0062,-0.068269
213.588,76.0124,-0.068269
213.620,76.0187,-0.068269
213.651,76.0249,-0.068269
213.682,76.0311,-0.068269
213.713,76.0374,-0.068269
213.744,76.0435,-0.068269
213.775,76.0498,-0.071519
213.806,76.0559,-0.071519
213.838,76.0622,-0.071519
213.869,76.0684,-0.071519
213.900,76.0746,-0.071519
213.931,76.0809,-0.071519
213.962,76.0871,-0.071519
213.993,76.0933,-0.071519
214.024,76.0994,-0.074242
214.056,76.1059,-0.074242
214.087,76.1121,-0.074242
214.118,76.1184,-0.074242
214.150,76.1246,-0.074242
214.181,76.1308,-0.074242
214.211,76.1369,-0.074242
214.242,76.1432,-0.076635
214.273,76.1493,-0.076635
214.304,76.1555,-0.076635
214.338,76.1622,-0.076635
214.367,76.1680,-0.076635
214.398,76.1733,-0.076635
214.429,76.1778,-0.076635
214.460,76.1818,-0.076635
214.491,76.1849,-0.076635
214.522,76.1873,-0.078934
214.553,76.1890,-0.078934
214.586,76.1900,-0.078934
214.616,76.1902,-0.078934
214.646,76.1902,-0.078934
214.676,76.1902,-0.078934
214.708,76.1902,-0.078934
214.737,76.1902,-0.079028
214.769,76.1902,-0.079028
214.799,76.1902,-0.079028
214.830,76.1902,-0.079028
214.861,76.1902,-0.079028
214.893,76.1902,-0.079028
214.924,76.1902,-0.079028
214.954,76.1902,-0.079028
214.985,76.1902,-0.076174
215.016,76.1902,-0.076174
