Elapsed Time (s),Position (mm),Force (N)
-0.012,63.9903,0.015122
0.019,63.9903,0.015122
0.051,63.9903,0.015122
0.082,63.9903,0.015122
0.114,63.9903,0.015122
0.146,63.9903,0.015122
0.176,63.9903,0.015122
0.208,63.9903,0.015122
0.239,63.9903,0.015122
0.270,63.9903,0.015122
0.301,63.9903,0.015122
0.332,63.9903,0.015122
0.363,63.9903,0.015122
0.394,63.9903,0.015122
0.425,63.9903,0.015122
0.456,63.9903,0.015084
0.486,63.9903,0.015084
0.517,63.9903,0.015084
0.548,63.9903,0.015084
0.579,63.9903,0.015084
0.610,63.9903,0.015084
0.641,63.9903,0.015084
0.672,63.9903,0.015009
0.703,63.9903,0.015009
0.735,63.9903,0.015009
0.767,63.9903,0.015009
0.798,63.9903,0.015009
0.830,63.9903,0.015009
0.860,63.9903,0.015009
0.891,63.9903,0.015009
0.922,63.9903,0.014990
0.953,63.9903,0.014990
0.984,63.9903,0.014990
1.015,63.9903,0.014990
1.045,63.9903,0.014990
1.076,63.9903,0.014990
1.107,63.9903,0.014990
1.138,63.9903,0.014990
1.170,63.9903,0.015037
1.201,63.9903,0.015037
1.233,63.9903,0.015037
1.264,63.9903,0.015037
1.295,63.9903,0.015037
1.327,63.9903,0.015037
1.358,63.9903,0.015037
1.389,63.9903,0.015037
1.421,63.9903,0.015027
1.453,63.9903,0.015027
1.484,63.9903,0.015027
1.516,63.9903,0.015027
1.547,63.9903,0.015027
1.578,63.9903,0.015027
1.608,63.9903,0.015027
1.640,63.9903,0.015027
1.672,63.9903,0.015009
1.702,63.9903,0.015009
1.733,63.9903,0.015009
1.765,63.9903,0.015009
1.796,63.9903,0.015009
1.827,63.9903,0.015009
1.858,63.9903,0.015009
1.888,63.9903,0.015009
1.919,63.9903,0.014980
1.950,63.9903,0.014980
1.981,63.9903,0.014980
2.012,63.9903,0.014980
2.043,63.9903,0.014980
2.075,63.9903,0.014980
2.106,63.9903,0.014980
2.137,63.9903,0.014980
2.167,63.9903,0.014980
2.198,63.9903,0.015065
2.228,63.9903,0.015065
2.260,63.9903,0.015065
2.292,63.9903,0.015065
2.323,63.9903,0.015065
2.355,63.9903,0.015065
2.386,63.9903,0.015065
2.418,63.9903,0.015084
2.450,63.9903,0.015084
2.481,63.9903,0.015084
2.511,63.9903,0.015084
2.542,63.9903,0.015084
2.573,63.9903,0.015084
2.603,63.9903,0.015084
2.634,63.9903,0.015084
2.665,63.9903,0.015084
2.697,63.9903,0.015056
2.727,63.9903,0.015056
2.758,63.9903,0.015056
2.789,63.9903,0.015056
2.820,63.9903,0.015056
2.851,63.9903,0.015056
2.883,63.9903,0.015056
2.915,63.9903,0.015075
2.946,63.9903,0.015075
2.977,63.9903,0.015075
3.008,63.9903,0.015075
3.038,63.9903,0.015075
3.069,63.9903,0.015075
3.102,63.9903,0.015075
3.133,63.9903,0.015075
3.164,63.9903,0.015084
3.195,63.9903,0.015084
3.226,63.9903,0.015084
3.258,63.9903,0.015084
3.288,63.9903,0.015084
3.319,63.9903,0.015084
3.351,63.9903,0.015084
3.381,63.9903,0.015084
3.412,63.9903,0.015065
3.442,63.9903,0.015065
3.473,63.9903,0.015065
3.505,63.9903,0.015065
3.535,63.9903,0.015065
3.566,63.9903,0.015065
3.598,63.9903,0.015065
3.628,63.9903,0.015065
3.659,63.9903,0.015065
3.690,63.9903,0.015065
3.722,63.9903,0.015065
3.753,63.9903,0.015065
3.783,63.9903,0.015065
3.814,63.9903,0.015065
3.844,63.9903,0.015065
3.875,63.9903,0.015065
3.906,63.9903,0.015084
3.938,63.9903,0.015084
3.969,63.9903,0.015084
4.001,63.9903,0.015084
4.033,63.9903,0.015084
4.063,63.9903,0.015084
4.095,63.9903,0.015084
4.124,63.9903,0.015084
4.154,63.9901,0.015065
4.185,63.9895,0.015065
4.216,63.9880,0.015065
4.247,63.9859,0.015065
4.277,63.9831,0.015065
4.308,63.9794,0.015065
4.340,63.9750,0.015065
4.372,63.9697,0.015065
4.402,63.9641,0.015065
4.433,63.9580,0.015169
4.464,63.9517,0.015169
4.495,63.9455,0.015169
4.526,63.9393,0.015169
4.557,63.9332,0.015169
4.587,63.9270,0.015169
4.618,63.9208,0.015169
4.650,63.9146,0.015169
4.681,63.9084,0.015122
4.713,63.9018,0.015122
4.744,63.8958,0.015122
4.775,63.8893,0.015122
4.807,63.8832,0.015122
4.838,63.8768,0.015122
4.869,63.8707,0.015122
4.900,63.8645,0.015122
4.931,63.8583,0.015027
4.962,63.8521,0.015027
4.993,63.8460,0.015027
5.024,63.8397,0.015027
5.055,63.8335,0.015027
5.086,63.8272,0.015027
5.118,63.8210,0.015027
5.150,63.8146,0.015027
5.181,63.8084,0.015027
5.213,63.8021,0.015027
5.243,63.7959,0.015027
5.275,63.7897,0.015027
5.306,63.7833,0.015027
5.336,63.7773,0.015027
5.369,63.7709,0.015027
5.398,63.7650,0.015027
5.429,63.7588,0.015027
5.460,63.7525,0.015027
5.490,63.7464,0.015027
5.521,63.7404,0.015027
5.552,63.7343,0.015027
5.583,63.7278,0.015027
5.614,63.7219,0.015027
5.645,63.7156,0.015027
5.677,63.7092,0.015075
5.708,63.7029,0.015075
5.739,63.6967,0.015075
5.771,63.6904,0.015075
5.802,63.6842,0.015075
5.832,63.6780,0.015075
5.864,63.6718,0.015075
5.895,63.6656,0.015075
5.925,63.6594,0.015065
5.957,63.6532,0.015065
5.988,63.6468,0.015065
6.021,63.6403,0.015065
6.050,63.6344,0.015065
6.081,63.6284,0.015065
6.112,63.6220,0.015065
6.143,63.6160,0.015046
6.174,63.6098,0.015046
6.204,63.6037,0.015046
6.237,63.5972,0.015046
6.268,63.5909,0.015046
6.298,63.5847,0.015046
6.329,63.5786,0.015046
6.360,63.5726,0.015046
6.391,63.5662,0.015037
6.422,63.5600,0.015037
6.454,63.5538,0.015037
6.484,63.5477,0.015037
6.515,63.5415,0.015037
6.546,63.5353,0.015037
6.580,63.5286,0.015037
6.608,63.5228,0.015037
6.640,63.5166,0.015037
6.671,63.5102,0.015037
6.701,63.5043,0.015037
6.733,63.4979,0.015037
6.764,63.4917,0.015037
6.796,63.4854,0.015037
6.827,63.4793,0.015037
6.859,63.4727,0.015037
6.890,63.4666,0.015037
6.920,63.4606,0.015037
6.951,63.4544,0.015037
6.983,63.4480,0.015037
7.014,63.4417,0.015037
7.045,63.4355,0.015037
7.077,63.4292,0.015037
7.108,63.4229,0.015037
7.139,63.4168,0.015075
7.170,63.4103,0.015075
7.201,63.4044,0.015075
7.232,63.3981,0.015075
7.263,63.3920,0.015075
7.294,63.3858,0.015075
7.325,63.3794,0.015075
7.357,63.3730,0.015075
7.388,63.3670,0.015075
7.420,63.3605,0.015075
7.450,63.3545,0.015093
7.482,63.3481,0.015093
7.513,63.3419,0.015093
7.544,63.3354,0.015093
7.574,63.3297,0.015093
7.606,63.3234,0.015093
7.636,63.3173,0.015065
7.667,63.3112,0.015065
7.699,63.3048,0.015065
7.729,63.2988,0.015065
7.760,63.2926,0.015065
7.790,63.2866,0.015065
7.821,63.2804,0.015065
7.852,63.2742,0.015065
7.883,63.2680,0.015065
7.914,63.2618,0.015065
7.944,63.2558,0.015075
7.975,63.2495,0.015075
8.006,63.2433,0.015075
8.038,63.2369,0.015075
8.068,63.2309,0.015075
8.099,63.2247,0.015075
8.129,63.2188,0.015075
8.160,63.2125,0.015084
8.191,63.2062,0.015084
8.222,63.2000,0.015084
8.253,63.1939,0.015084
8.284,63.1877,0.015084
8.314,63.1816,0.015084
8.346,63.1752,0.015084
8.378,63.1691,0.015084
8.409,63.1625,0.015093
8.440,63.1565,0.015093
8.472,63.1500,0.015093
8.503,63.1439,0.015093
8.534,63.1379,0.015093
8.565,63.1317,0.015093
8.596,63.1254,0.015093
8.627,63.1190,0.015093
8.659,63.1129,0.015046
8.689,63.1067,0.015046
8.719,63.1005,0.015046
8.751,63.0943,0.015046
8.781,63.0884,0.015046
8.812,63.0820,0.015046
8.843,63.0761,0.015046
8.874,63.0698,0.015046
8.905,63.0637,0.015065
8.935,63.0575,0.015065
8.967,63.0510,0.015065
8.997,63.0451,0.015065
9.028,63.0390,0.015065
9.059,63.0327,0.015065
9.091,63.0264,0.015065
9.123,63.0199,0.015065
9.153,63.0140,0.015037
9.184,63.0078,0.015037
9.215,63.0017,0.015037
9.246,62.9953,0.015037
9.276,62.9891,0.015037
9.307,62.9831,0.015037
9.338,62.9770,0.015037
9.369,62.9707,0.015037
9.401,62.9645,0.015037
9.432,62.9583,0.014952
9.463,62.9518,0.014952
9.495,62.9456,0.014952
9.526,62.9393,0.014952
9.557,62.9332,0.014952
9.587,62.9271,0.014952
9.619,62.9208,0.014952
9.650,62.9145,0.014952
9.681,62.9083,0.015046
9.712,62.9022,0.015046
9.743,62.8961,0.015046
9.773,62.8899,0.015046
9.804,62.8836,0.015046
9.835,62.8777,0.015046
9.865,62.8714,0.015046
9.896,62.8655,0.015046
9.927,62.8592,0.015084
9.958,62.8530,0.015084
9.990,62.8466,0.015084
10.020,62.8404,0.015084
10.051,62.8344,0.015084
10.082,62.8280,0.015084
10.113,62.8220,0.015084
10.145,62.8155,0.015084
10.176,62.8094,0.015056
10.207,62.8034,0.015056
10.238,62.7969,0.015056
10.269,62.7907,0.015056
10.301,62.7844,0.015056
10.332,62.7782,0.015056
10.363,62.7719,0.015056
10.393,62.7659,0.015056
10.424,62.7597,0.015056
10.455,62.7535,0.015056
10.486,62.7474,0.015056
10.517,62.7411,0.015056
10.548,62.7349,0.015056
10.580,62.7287,0.015056
10.611,62.7225,0.015056
10.642,62.7163,0.015056
10.673,62.7101,0.015027
10.703,62.7038,0.015027
10.734,62.6978,0.015027
10.765,62.6915,0.015027
10.796,62.6854,0.015027
10.827,62.6792,0.015027
10.857,62.6730,0.015027
10.888,62.6669,0.015027
10.919,62.6605,0.015027
10.950,62.6545,0.015046
10.980,62.6486,0.015046
11.011,62.6425,0.015046
11.041,62.6363,0.015046
11.071,62.6302,0.015046
11.102,62.6241,0.015046
11.133,62.6179,0.015046
11.163,62.6120,0.015037
11.194,62.6058,0.015037
11.225,62.5997,0.015037
11.256,62.5934,0.015037
11.287,62.5871,0.015037
11.318,62.5810,0.015037
11.350,62.5745,0.015037
11.382,62.5682,0.015037
11.412,62.5619,0.015037
11.444,62.5557,0.015037
11.475,62.5496,0.015037
11.506,62.5434,0.015037
11.539,62.5368,0.015037
11.567,62.5313,0.015037
11.598,62.5251,0.015037
11.629,62.5189,0.015037
11.660,62.5126,0.015056
11.691,62.5064,0.015056
11.722,62.5002,0.015056
11.753,62.4939,0.015056
11.784,62.4877,0.015056
11.815,62.4815,0.015056
11.846,62.4754,0.015056
11.877,62.4691,0.015056
11.907,62.4630,0.015037
11.938,62.4570,0.015037
11.969,62.4508,0.015037
12.000,62.4447,0.015037
12.031,62.4384,0.015037
12.063,62.4320,0.015037
12.093,62.4260,0.015037
12.124,62.4198,0.015037
12.155,62.4137,0.015056
12.185,62.4075,0.015056
12.216,62.4014,0.015056
12.247,62.3952,0.015056
12.278,62.3890,0.015056
12.309,62.3825,0.015056
12.341,62.3765,0.015056
12.371,62.3703,0.015056
12.403,62.3641,0.015056
12.434,62.3577,0.015056
12.465,62.3514,0.015056
12.496,62.3452,0.015056
12.528,62.3390,0.015056
12.560,62.3326,0.015056
12.590,62.3265,0.015056
12.620,62.3207,0.015056
12.651,62.3143,0.015065
12.682,62.3083,0.015065
12.713,62.3019,0.015065
12.744,62.2957,0.015065
12.776,62.2894,0.015065
12.807,62.2831,0.015065
12.840,62.2765,0.015065
12.870,62.2707,0.015065
12.900,62.2646,0.015122
12.930,62.2586,0.015122
12.960,62.2526,0.015122
12.991,62.2465,0.015122
13.022,62.2402,0.015122
13.053,62.2341,0.015122
13.083,62.2278,0.015122
13.115,62.2217,0.015122
13.146,62.2152,0.015122
13.177,62.2092,0.015122
13.209,62.2028,0.015122
13.239,62.1968,0.015122
13.270,62.1906,0.015122
13.301,62.1844,0.015122
13.333,62.1779,0.015122
13.364,62.1717,0.015122
13.395,62.1655,0.015122
13.426,62.1594,0.015065
13.457,62.1531,0.015065
13.488,62.1472,0.015065
13.518,62.1410,0.015065
13.550,62.1345,0.015065
13.581,62.1284,0.015065
13.612,62.1222,0.015065
13.643,62.1159,0.015065
13.674,62.1098,0.015065
13.705,62.1035,0.015065
13.736,62.0973,0.015065
13.766,62.0913,0.015065
13.797,62.0853,0.015065
13.827,62.0791,0.015065
13.859,62.0729,0.015065
13.890,62.0665,0.015065
13.921,62.0605,0.015075
13.952,62.0540,0.015075
13.984,62.0479,0.015075
14.014,62.0416,0.015075
14.046,62.0355,0.015075
14.077,62.0292,0.015075
14.108,62.0230,0.015075
14.139,62.0168,0.015075
14.169,62.0106,0.015056
14.200,62.0045,0.015056
14.232,61.9981,0.015056
14.262,61.9921,0.015056
14.293,61.9859,0.015056
14.323,61.9800,0.015056
14.353,61.9740,0.015056
14.384,61.9677,0.015056
14.416,61.9615,0.015065
14.448,61.9550,0.015065
14.478,61.9490,0.015065
14.509,61.9428,0.015065
14.540,61.9367,0.015065
14.571,61.9304,0.015065
14.603,61.9242,0.015065
14.634,61.9178,0.015065
14.665,61.9115,0.015065
14.696,61.9053,0.015065
14.728,61.8990,0.015065
14.758,61.8929,0.015065
14.789,61.8863,0.015065
14.820,61.8806,0.015065
14.851,61.8744,0.015065
14.881,61.8683,0.015065
14.913,61.8620,0.015084
14.944,61.8557,0.015084
14.976,61.8495,0.015084
15.007,61.8432,0.015084
15.038,61.8370,0.015084
15.069,61.8308,0.015084
15.101,61.8244,0.015084
15.132,61.8181,0.015084
15.163,61.8120,0.015046
15.194,61.8057,0.015046
15.225,61.7996,0.015046
15.257,61.7933,0.015046
15.288,61.7869,0.015046
15.320,61.7807,0.015046
15.350,61.7746,0.015046
15.381,61.7684,0.015046
15.412,61.7621,0.015009
15.443,61.7560,0.015009
15.475,61.7494,0.015009
15.507,61.7432,0.015009
15.537,61.7371,0.015009
15.568,61.7311,0.015009
15.600,61.7247,0.015009
15.631,61.7183,0.015009
15.663,61.7121,0.015046
15.694,61.7058,0.015046
15.724,61.6997,0.015046
15.755,61.6934,0.015046
15.786,61.6874,0.015046
15.818,61.6811,0.015046
15.849,61.6749,0.015046
15.880,61.6684,0.015018
15.912,61.6622,0.015018
15.943,61.6559,0.015018
15.975,61.6496,0.015018
16.005,61.6436,0.015018
16.036,61.6374,0.015018
16.067,61.6312,0.015018
16.099,61.6249,0.015018
16.130,61.6187,0.015018
16.161,61.6125,0.014990
16.192,61.6062,0.014990
16.223,61.6001,0.014990
16.254,61.5939,0.014990
16.285,61.5877,0.014990
16.316,61.5814,0.014990
16.348,61.5749,0.014990
16.379,61.5688,0.014971
16.410,61.5626,0.014971
16.441,61.5564,0.014971
16.472,61.5504,0.014971
16.502,61.5442,0.014971
16.533,61.5382,0.014971
16.564,61.5319,0.014971
16.595,61.5255,0.014971
16.627,61.5192,0.014971
16.657,61.5131,0.015018
16.689,61.5069,0.015018
16.720,61.5006,0.015018
16.751,61.4944,0.015018
16.782,61.4882,0.015018
16.814,61.4819,0.015018
16.844,61.4759,0.015018
16.875,61.4696,0.015018
16.905,61.4634,0.015027
16.937,61.4571,0.015027
16.968,61.4511,0.015027
16.999,61.4448,0.015027
17.030,61.4386,0.015027
17.061,61.4323,0.015027
17.091,61.4265,0.015027
17.122,61.4200,0.015027
17.153,61.4140,0.015027
17.184,61.4077,0.015027
17.215,61.4015,0.015027
17.247,61.3953,0.015027
17.276,61.3894,0.015027
17.307,61.3830,0.015027
17.338,61.3770,0.015027
17.370,61.3706,0.015027
17.402,61.3642,0.015037
17.434,61.3577,0.015037
17.465,61.3515,0.015037
17.495,61.3456,0.015037
17.526,61.3395,0.015037
17.556,61.3334,0.015037
17.588,61.3270,0.015037
17.620,61.3207,0.015037
17.649,61.3148,0.015037
17.680,61.3085,0.015027
17.711,61.3024,0.015027
17.742,61.2962,0.015027
17.772,61.2902,0.015027
17.804,61.2837,0.015027
17.835,61.2776,0.015027
17.866,61.2712,0.015027
17.899,61.2647,0.015027
17.930,61.2586,0.015046
17.960,61.2526,0.015046
17.991,61.2465,0.015046
18.022,61.2402,0.015046
18.052,61.2342,0.015046
18.084,61.2279,0.015046
18.114,61.2217,0.015046
18.145,61.2155,0.015046
18.177,61.2093,0.015056
18.208,61.2031,0.015056
18.239,61.1969,0.015056
18.270,61.1904,0.015056
18.301,61.1845,0.015056
18.333,61.1780,0.015056
18.363,61.1720,0.015056
18.395,61.1655,0.015056
18.427,61.1592,0.015075
18.457,61.1532,0.015075
18.488,61.1470,0.015075
18.518,61.1410,0.015075
18.550,61.1346,0.015075
18.582,61.1283,0.015075
18.613,61.1220,0.015075
18.645,61.1156,0.015103
18.677,61.1092,0.015103
18.706,61.1034,0.015103
18.737,61.0972,0.015103
18.768,61.0910,0.015103
18.799,61.0848,0.015103
18.830,61.0787,0.015103
18.861,61.0722,0.015103
18.892,61.0662,0.015103
18.923,61.0600,0.015093
18.955,61.0538,0.015093
18.985,61.0474,0.015093
19.017,61.0412,0.015093
19.049,61.0348,0.015093
19.080,61.0286,0.015093
19.111,61.0223,0.015093
19.142,61.0163,0.015093
19.172,61.0102,0.015056
19.203,61.0040,0.015056
19.234,60.9978,0.015056
19.266,60.9914,0.015056
19.296,60.9854,0.015056
19.327,60.9792,0.015056
19.358,60.9730,0.015056
19.389,60.9668,0.015056
19.420,60.9610,0.015027
19.452,60.9558,0.015027
19.483,60.9513,0.015027
19.515,60.9476,0.015027
19.546,60.9447,0.015027
19.577,60.9425,0.015027
19.608,60.9410,0.015027
19.639,60.9404,0.015027
19.671,60.9403,0.014971
19.702,60.9403,0.014971
19.733,60.9403,0.014971
19.764,60.9403,0.014971
19.795,60.9404,0.014971
19.826,60.9410,0.014971
19.857,60.9425,0.014971
19.887,60.9446,0.015018
19.918,60.9475,0.015018
19.949,60.9512,0.015018
19.982,60.9557,0.015018
20.012,60.9607,0.015018
20.043,60.9664,0.015018
20.074,60.9727,0.015018
20.106,60.9789,0.015018
20.136,60.9852,0.015018
20.167,60.9911,0.015018
20.199,60.9977,0.015018
20.230,61.0038,0.015018
20.262,61.0102,0.015018
20.293,61.0163,0.015018
20.323,61.0225,0.015018
20.354,61.0285,0.015018
20.385,61.0348,0.014914
20.416,61.0410,0.014914
20.447,61.0471,0.014914
20.478,61.0533,0.014914
20.509,61.0596,0.014914
20.540,61.0657,0.014914
20.571,61.0720,0.014914
20.602,61.0781,0.014914
20.633,61.0844,0.014914
20.664,61.0905,0.014971
20.695,61.0969,0.014971
20.728,61.1034,0.014971
20.758,61.1094,0.014971
20.790,61.1156,0.014971
20.821,61.1221,0.014971
20.853,61.1283,0.014971
20.884,61.1346,0.014971
20.915,61.1407,0.015065
20.946,61.1470,0.015065
20.977,61.1532,0.015065
21.008,61.1594,0.015065
21.038,61.1654,0.015065
21.069,61.1716,0.015065
21.100,61.1779,0.015065
21.131,61.1840,0.015065
21.163,61.1904,0.015018
21.194,61.1966,0.015018
21.226,61.2031,0.015018
21.257,61.2092,0.015018
21.288,61.2155,0.015018
21.318,61.2214,0.015018
21.350,61.2279,0.015018
21.382,61.2343,0.015018
21.413,61.2405,0.014999
21.445,61.2469,0.014999
21.477,61.2531,0.014999
21.507,61.2594,0.014999
21.539,61.2655,0.014999
21.569,61.2715,0.014999
21.600,61.2777,0.014999
21.631,61.2839,0.014999
21.663,61.2903,0.015037
21.693,61.2964,0.015037
21.723,61.3023,0.015037
21.754,61.3088,0.015037
21.786,61.3151,0.015037
21.816,61.3209,0.015037
21.847,61.3271,0.015037
21.878,61.3334,0.014999
21.908,61.3394,0.014999
21.940,61.3456,0.014999
21.971,61.3520,0.014999
22.001,61.3581,0.014999
22.032,61.3641,0.014999
22.063,61.3704,0.014999
22.095,61.3767,0.014999
22.126,61.3829,0.014999
22.157,61.3891,0.014943
22.188,61.3954,0.014943
22.219,61.4018,0.014943
22.250,61.4077,0.014943
22.281,61.4140,0.014943
22.312,61.4201,0.014943
22.343,61.4263,0.014943
22.374,61.4327,0.014943
22.404,61.4387,0.014943
22.436,61.4451,0.015009
22.467,61.4511,0.015009
22.497,61.4576,0.015009
22.529,61.4637,0.015009
22.561,61.4700,0.015009
22.591,61.4759,0.015009
22.621,61.4820,0.015009
22.652,61.4882,0.015009
22.684,61.4944,0.015027
22.716,61.5010,0.015027
22.748,61.5072,0.015027
22.778,61.5134,0.015027
22.809,61.5196,0.015027
22.840,61.5259,0.015027
22.870,61.5319,0.015027
22.902,61.5381,0.015027
22.933,61.5443,0.014980
22.964,61.5505,0.014980
22.994,61.5567,0.014980
23.025,61.5628,0.014980
23.056,61.5692,0.014980
23.088,61.5753,0.014980
23.118,61.5815,0.014980
23.149,61.5876,0.014980
23.181,61.5939,0.015018
23.211,61.6001,0.015018
23.243,61.6063,0.015018
23.275,61.6127,0.015018
23.306,61.6189,0.015018
23.338,61.6254,0.015018
23.369,61.6316,0.015018
23.401,61.6379,0.015018
23.431,61.6440,0.015065
23.463,61.6504,0.015065
23.494,61.6564,0.015065
23.525,61.6626,0.015065
23.556,61.6688,0.015065
23.587,61.6751,0.015065
23.618,61.6816,0.015065
23.648,61.6875,0.015065
23.679,61.6937,0.015027
23.711,61.6999,0.015027
23.742,61.7062,0.015027
23.772,61.7122,0.015027
23.802,61.7183,0.015027
23.832,61.7242,0.015027
23.864,61.7307,0.015027
23.894,61.7366,0.015027
23.925,61.7428,0.014961
23.957,61.7493,0.014961
23.989,61.7555,0.014961
24.020,61.7619,0.014961
24.051,61.7679,0.014961
24.082,61.7742,0.014961
24.113,61.7804,0.014961
24.145,61.7867,0.014961
24.175,61.7928,0.014961
24.205,61.7989,0.014999
24.236,61.8050,0.014999
24.268,61.8113,0.014999
24.299,61.8175,0.014999
24.330,61.8238,0.014999
24.360,61.8298,0.014999
24.392,61.8361,0.014999
24.423,61.8423,0.015018
24.454,61.8485,0.015018
24.484,61.8547,0.015018
24.516,61.8609,0.015018
24.546,61.8670,0.015018
24.577,61.8732,0.015018
24.608,61.8794,0.015018
24.639,61.8857,0.015018
24.670,61.8918,0.015009
24.701,61.8981,0.015009
24.732,61.9042,0.015009
24.763,61.9105,0.015009
24.794,61.9166,0.015009
24.825,61.9229,0.015009
24.857,61.9290,0.015009
24.888,61.9354,0.015009
24.919,61.9416,0.015018
24.951,61.9481,0.015018
24.982,61.9540,0.015018
25.012,61.9604,0.015018
25.044,61.9666,0.015018
25.075,61.9729,0.015018
25.107,61.9791,0.015018
25.139,61.9854,0.015018
25.168,61.9914,0.015046
25.200,61.9977,0.015046
25.230,62.0039,0.015046
25.262,62.0101,0.015046
25.293,62.0163,0.015046
25.327,62.0231,0.015046
25.355,62.0288,0.015046
25.385,62.0349,0.015046
25.417,62.0411,0.015046
25.448,62.0474,0.015056
25.478,62.0533,0.015056
25.509,62.0597,0.015056
25.540,62.0658,0.015056
25.571,62.0721,0.015056
25.603,62.0784,0.015056
25.635,62.0849,0.015056
25.666,62.0910,0.015056
25.697,62.0973,0.014990
25.728,62.1034,0.014990
25.760,62.1098,0.014990
25.792,62.1161,0.014990
25.822,62.1222,0.014990
25.854,62.1285,0.014990
25.885,62.1346,0.014990
25.916,62.1410,0.014990
25.946,62.1469,0.014933
25.977,62.1531,0.014933
26.007,62.1591,0.014933
26.038,62.1654,0.014933
26.069,62.1715,0.014933
26.100,62.1778,0.014933
26.131,62.1840,0.014933
26.163,62.1904,0.014933
26.194,62.1964,0.014990
26.225,62.2028,0.014990
26.257,62.2093,0.014990
26.288,62.2152,0.014990
26.319,62.2216,0.014990
26.350,62.2276,0.014990
26.381,62.2340,0.014990
26.413,62.2403,0.015018
26.443,62.2464,0.015018
26.475,62.2528,0.015018
26.505,62.2588,0.015018
26.536,62.2650,0.015018
26.567,62.2711,0.015018
26.598,62.2775,0.015018
26.629,62.2836,0.015018
26.660,62.2898,0.015018
26.691,62.2960,0.015046
26.723,62.3023,0.015046
26.754,62.3085,0.015046
26.786,62.3148,0.015046
26.817,62.3210,0.015046
26.847,62.3271,0.015046
26.878,62.3336,0.015046
26.910,62.3396,0.015046
26.940,62.3460,0.015046
26.971,62.3519,0.015046
26.997,62.3571,0.015046
27.034,62.3646,0.015046
27.064,62.3704,0.015046
27.095,62.3768,0.015046
27.127,62.3830,0.015046
27.159,62.3896,0.015046
27.189,62.3954,0.015009
27.220,62.4019,0.015009
27.251,62.4078,0.015009
27.282,62.4142,0.015009
27.313,62.4204,0.015009
27.344,62.4265,0.015009
27.375,62.4328,0.015009
27.405,62.4387,0.014980
27.437,62.4451,0.014980
27.467,62.4511,0.014980
27.499,62.4576,0.014980
27.530,62.4638,0.014980
27.561,62.4699,0.014980
27.592,62.4761,0.014980
27.623,62.4824,0.014980
27.653,62.4883,0.014961
27.684,62.4947,0.014961
27.716,62.5009,0.014961
27.748,62.5073,0.014961
27.778,62.5134,0.014961
27.810,62.5197,0.014961
27.841,62.5258,0.014961
27.871,62.5319,0.014961
27.903,62.5383,0.015018
27.933,62.5444,0.015018
27.965,62.5507,0.015018
27.996,62.5569,0.015018
28.027,62.5630,0.015018
28.058,62.5693,0.015018
28.089,62.5754,0.015018
28.119,62.5816,0.015018
28.150,62.5878,0.015018
28.181,62.5940,0.015018
28.211,62.6000,0.015018
28.242,62.6062,0.015018
28.274,62.6125,0.015018
28.306,62.6189,0.015018
28.337,62.6251,0.015018
28.368,62.6313,0.015018
28.399,62.6377,0.014971
28.430,62.6437,0.014971
28.461,62.6501,0.014971
28.493,62.6563,0.014971
28.524,62.6627,0.014971
28.555,62.6688,0.014971
28.586,62.6749,0.014971
28.617,62.6811,0.014971
28.648,62.6873,0.014971
28.680,62.6936,0.015018
28.710,62.6997,0.015018
28.742,62.7060,0.015018
28.773,62.7125,0.015018
28.804,62.7184,0.015018
28.835,62.7249,0.015018
28.867,62.7309,0.015018
28.897,62.7373,0.015018
28.928,62.7433,0.015027
28.959,62.7495,0.015027
28.990,62.7559,0.015027
29.022,62.7621,0.015027
29.054,62.7684,0.015027
29.084,62.7746,0.015027
29.115,62.7807,0.015027
29.147,62.7871,0.015027
29.178,62.7936,0.014999
29.209,62.7996,0.014999
29.240,62.8057,0.014999
29.270,62.8117,0.014999
29.301,62.8179,0.014999
29.332,62.8242,0.014999
29.363,62.8303,0.014999
29.395,62.8367,0.014999
29.426,62.8428,0.015037
29.458,62.8492,0.015037
29.489,62.8556,0.015037
29.521,62.8620,0.015037
29.553,62.8682,0.015037
29.584,62.8745,0.015037
29.614,62.8808,0.015037
29.645,62.8868,0.015037
29.676,62.8928,0.015065
29.707,62.8990,0.015065
29.738,62.9052,0.015065
29.769,62.9115,0.015065
29.799,62.9175,0.015065
29.831,62.9239,0.015065
29.863,62.9302,0.015065
29.895,62.9367,0.015065
29.924,62.9425,0.015027
29.956,62.9491,0.015027
29.988,62.9553,0.015027
30.019,62.9617,0.015027
30.050,62.9677,0.015027
30.082,62.9741,0.015027
30.112,62.9802,0.015027
30.142,62.9865,0.015027
30.172,62.9921,0.015018
30.203,62.9983,0.015018
30.236,63.0049,0.015018
30.265,63.0107,0.015018
30.296,63.0169,0.015018
30.326,63.0230,0.015018
30.357,63.0293,0.015018
30.389,63.0355,0.015018
30.419,63.0417,0.015027
30.451,63.0478,0.015027
30.482,63.0541,0.015027
30.514,63.0605,0.015027
30.545,63.0668,0.015027
30.576,63.0729,0.015027
30.606,63.0789,0.015027
30.638,63.0854,0.015027
30.670,63.0916,0.014999
30.701,63.0978,0.014999
30.731,63.1039,0.014999
30.762,63.1103,0.014999
30.793,63.1164,0.014999
30.824,63.1225,0.014999
30.855,63.1287,0.014999
30.886,63.1349,0.014999
30.918,63.1413,0.015009
30.948,63.1473,0.015009
30.980,63.1537,0.015009
31.010,63.1598,0.015009
31.041,63.1659,0.015009
31.072,63.1722,0.015009
31.105,63.1787,0.015009
31.136,63.1849,0.015009
31.168,63.1912,0.015027
31.198,63.1974,0.015027
31.229,63.2036,0.015027
31.260,63.2098,0.015027
31.291,63.2161,0.015027
31.323,63.2222,0.015027
31.353,63.2284,0.015027
31.384,63.2346,0.015075
31.415,63.2408,0.015075
31.446,63.2471,0.015075
31.477,63.2532,0.015075
31.508,63.2594,0.015075
31.539,63.2653,0.015075
31.569,63.2715,0.015075
31.600,63.2779,0.015075
31.632,63.2841,0.015075
31.662,63.2900,0.015046
31.694,63.2965,0.015046
31.725,63.3028,0.015046
31.757,63.3093,0.015046
31.787,63.3151,0.015046
31.818,63.3213,0.015046
31.849,63.3276,0.015046
31.880,63.3338,0.015037
31.911,63.3400,0.015037
31.943,63.3462,0.015037
31.974,63.3525,0.015037
32.005,63.3587,0.015037
32.036,63.3649,0.015037
32.068,63.3711,0.015037
32.098,63.3775,0.015037
32.129,63.3835,0.015037
32.161,63.3900,0.015056
32.192,63.3961,0.015056
32.223,63.4025,0.015056
32.255,63.4086,0.015056
32.286,63.4150,0.015056
32.318,63.4212,0.015056
32.349,63.4276,0.015056
32.379,63.4335,0.015018
32.412,63.4403,0.015018
32.442,63.4459,0.015018
32.473,63.4521,0.015018
32.504,63.4587,0.015018
32.536,63.4648,0.015018
32.565,63.4707,0.015018
32.595,63.4767,0.015018
32.625,63.4830,0.015018
32.656,63.4888,0.015009
32.687,63.4950,0.015009
32.719,63.5014,0.015009
32.750,63.5077,0.015009
32.781,63.5140,0.015009
32.813,63.5202,0.015009
32.843,63.5264,0.015009
32.874,63.5325,0.015009
32.905,63.5387,0.015009
32.936,63.5449,0.014999
32.967,63.5512,0.014999
32.999,63.5574,0.014999
33.031,63.5639,0.014999
33.061,63.5702,0.014999
33.092,63.5763,0.014999
33.123,63.5824,0.014999
33.154,63.5886,0.014999
33.185,63.5946,0.014961
33.217,63.6011,0.014961
33.248,63.6072,0.014961
33.280,63.6136,0.014961
33.311,63.6198,0.014961
33.342,63.6261,0.014961
33.373,63.6322,0.014961
33.404,63.6384,0.014961
33.435,63.6447,0.014961
33.466,63.6511,0.014961
33.498,63.6571,0.014961
33.529,63.6635,0.014961
33.560,63.6695,0.014961
33.591,63.6759,0.014961
33.622,63.6823,0.014961
33.653,63.6883,0.014961
33.683,63.6943,0.014980
33.715,63.7007,0.014980
33.745,63.7066,0.014980
33.775,63.7128,0.014980
33.805,63.7188,0.014980
33.837,63.7251,0.014980
33.867,63.7311,0.014980
33.899,63.7376,0.015018
33.931,63.7438,0.015018
33.962,63.7502,0.015018
33.993,63.7564,0.015018
34.023,63.7623,0.015018
34.054,63.7685,0.015018
34.085,63.7746,0.015018
34.116,63.7810,0.015018
34.147,63.7870,0.015018
34.178,63.7933,0.015065
34.209,63.7995,0.015065
34.240,63.8056,0.015065
34.271,63.8118,0.015065
34.302,63.8181,0.015065
34.333,63.8242,0.015065
34.364,63.8305,0.015065
34.396,63.8370,0.015018
34.426,63.8429,0.015018
34.457,63.8490,0.015018
34.489,63.8553,0.015018
34.519,63.8615,0.015018
34.551,63.8680,0.015018
34.582,63.8742,0.015018
34.613,63.8804,0.015018
34.644,63.8865,0.014980
34.675,63.8927,0.014980
34.705,63.8986,0.014980
34.736,63.9051,0.014980
34.767,63.9111,0.014980
34.798,63.9171,0.014980
34.828,63.9224,0.014980
34.860,63.9273,0.014980
34.891,63.9312,0.015075
34.923,63.9346,0.015075
34.954,63.9371,0.015075
34.985,63.9389,0.015075
35.016,63.9400,0.015075
35.047,63.9403,0.015075
35.079,63.9403,0.015075
35.110,63.9403,0.015075
35.140,63.9403,0.015141
35.172,63.9403,0.015141
35.204,63.9403,0.015141
35.235,63.9403,0.015141
35.266,63.9403,0.015141
35.296,63.9403,0.015141
35.328,63.9403,0.015141
35.359,63.9403,0.015141
35.390,63.9403,0.015084
35.421,63.9403,0.015084
35.452,63.9403,0.015084
35.483,63.9403,0.015084
35.516,63.9403,0.015084
35.546,63.9403,0.015084
35.578,63.9403,0.015084
35.610,63.9403,0.015084
35.641,63.9403,0.015037
35.671,63.9403,0.015037
35.702,63.9403,0.015037
35.734,63.9403,0.015037
35.764,63.9403,0.015037
35.795,63.9403,0.015037
35.827,63.9403,0.015037
35.858,63.9403,0.015037
35.887,63.9403,0.015037
35.919,63.9403,0.015027
35.950,63.9403,0.015027
35.981,63.9403,0.015027
36.012,63.9403,0.015027
36.044,63.9403,0.015027
36.075,63.9403,0.015027
36.107,63.9403,0.015027
36.138,63.9403,0.015027
36.169,63.9403,0.015037
36.200,63.9403,0.015037
36.231,63.9403,0.015037
36.262,63.9403,0.015037
36.293,63.9403,0.015037
36.324,63.9403,0.015037
36.356,63.9403,0.015037
36.387,63.9403,0.015037
36.419,63.9403,0.015009
36.448,63.9403,0.015009
36.479,63.9403,0.015009
36.510,63.9403,0.015009
36.542,63.9403,0.015009
36.572,63.9403,0.015009
36.603,63.9403,0.015009
36.635,63.9403,0.015009
36.666,63.9403,0.015009
36.698,63.9403,0.015009
36.728,63.9403,0.015009
36.759,63.9403,0.015009
36.790,63.9403,0.015009
36.820,63.9403,0.015009
36.851,63.9403,0.015009
36.882,63.9403,0.015009
36.912,63.9403,0.015046
36.943,63.9403,0.015046
36.975,63.9403,0.015046
37.005,63.9403,0.015046
37.036,63.9403,0.015046
37.067,63.9403,0.015046
37.098,63.9403,0.015046
37.129,63.9403,0.015046
37.160,63.9403,0.015056
37.191,63.9403,0.015056
37.222,63.9403,0.015056
37.254,63.9403,0.015056
37.284,63.9403,0.015056
37.315,63.9403,0.015056
37.346,63.9403,0.015056
37.377,63.9403,0.015056
37.407,63.9403,0.015056
37.439,63.9403,0.015056
37.470,63.9403,0.015056
37.500,63.9403,0.015056
37.531,63.9403,0.015056
37.562,63.9403,0.015056
37.594,63.9403,0.015056
37.625,63.9403,0.015056
37.657,63.9403,0.014980
37.687,63.9403,0.014980
37.719,63.9403,0.014980
37.750,63.9403,0.014980
37.781,63.9403,0.014980
37.812,63.9403,0.014980
37.844,63.9403,0.014980
37.876,63.9403,0.014980
37.907,63.9403,0.014952
37.939,63.9403,0.014952
37.970,63.9403,0.014952
38.001,63.9403,0.014952
38.032,63.9403,0.014952
38.064,63.9403,0.014952
38.094,63.9403,0.014952
38.125,63.9403,0.014952
38.157,63.9403,0.015009
38.188,63.9403,0.015009
38.219,63.9403,0.015009
38.250,63.9403,0.015009
38.281,63.9403,0.015009
38.312,63.9403,0.015009
38.342,63.9403,0.015009
38.373,63.9403,0.015009
38.405,63.9403,0.015009
38.435,63.9403,0.014999
38.466,63.9403,0.014999
38.498,63.9403,0.014999
38.528,63.9403,0.014999
38.558,63.9403,0.014999
38.590,63.9403,0.014999
38.621,63.9403,0.014999
38.652,63.9403,0.014999
38.684,63.9403,0.014999
38.715,63.9403,0.014999
38.747,63.9403,0.014999
38.778,63.9403,0.014999
38.809,63.9403,0.014999
38.840,63.9403,0.014999
38.872,63.9403,0.014999
38.904,63.9403,0.014999
38.935,63.9403,0.015018
38.967,63.9403,0.015018
38.998,63.9403,0.015018
39.029,63.9403,0.015018
39.061,63.9403,0.015018
39.092,63.9403,0.015018
39.123,63.9403,0.015018
39.156,63.9403,0.015018
39.185,63.9403,0.015018
39.216,63.9403,0.015018
39.247,63.9403,0.015018
39.279,63.9403,0.015018
39.309,63.9403,0.015018
39.340,63.9400,0.015018
39.372,63.9390,0.015018
39.404,63.9373,0.015018
39.436,63.9348,0.015027
39.467,63.9316,0.015027
39.498,63.9278,0.015027
39.530,63.9230,0.015027
39.561,63.9176,0.015027
39.593,63.9114,0.015027
39.623,63.9053,0.015027
39.655,63.8990,0.015103
39.686,63.8928,0.015103
39.717,63.8866,0.015103
39.748,63.8804,0.015103
39.778,63.8743,0.015103
39.809,63.8681,0.015103
39.840,63.8619,0.015103
39.871,63.8558,0.015103
39.902,63.8496,0.015103
39.934,63.8433,0.015131
39.964,63.8371,0.015131
39.997,63.8304,0.015131
40.027,63.8246,0.015131
40.059,63.8182,0.015131
40.088,63.8122,0.015131
40.119,63.8061,0.015131
40.149,63.8000,0.015009
40.181,63.7939,0.015009
40.211,63.7877,0.015009
40.242,63.7814,0.015009
40.273,63.7753,0.015009
40.304,63.7690,0.015009
40.335,63.7628,0.015009
40.366,63.7566,0.015009
40.398,63.7504,0.015009
40.429,63.7441,0.014980
40.461,63.7378,0.014980
40.492,63.7316,0.014980
40.524,63.7252,0.014980
40.555,63.7189,0.014980
40.586,63.7126,0.014980
40.619,63.7063,0.014980
40.649,63.7002,0.014980
40.680,63.6941,0.014999
40.710,63.6880,0.014999
40.742,63.6816,0.014999
40.772,63.6755,0.014999
40.807,63.6687,0.014999
40.834,63.6631,0.014999
40.866,63.6568,0.014999
40.896,63.6508,0.014999
40.928,63.6444,0.014990
40.960,63.6380,0.014990
40.990,63.6318,0.014990
41.021,63.6259,0.014990
41.051,63.6196,0.014990
41.083,63.6135,0.014990
41.115,63.6069,0.014990
41.146,63.6008,0.014990
41.177,63.5945,0.014990
41.209,63.5883,0.014990
41.240,63.5821,0.014990
41.271,63.5757,0.014990
41.302,63.5696,0.014990
41.333,63.5631,0.014990
41.365,63.5571,0.014990
41.397,63.5506,0.014990
41.428,63.5444,0.014990
41.459,63.5381,0.014990
41.490,63.5317,0.014990
41.522,63.5257,0.014990
41.552,63.5197,0.014990
41.583,63.5134,0.014990
41.613,63.5073,0.014990
41.644,63.5011,0.014990
41.674,63.4950,0.015018
41.705,63.4890,0.015018
41.737,63.4825,0.015018
41.766,63.4768,0.015018
41.797,63.4706,0.015018
41.828,63.4642,0.015018
41.860,63.4578,0.015018
41.890,63.4520,0.015018
41.920,63.4459,0.015056
41.951,63.4398,0.015056
41.982,63.4335,0.015056
42.014,63.4271,0.015056
42.044,63.4211,0.015056
42.075,63.4148,0.015056
42.106,63.4087,0.015056
42.138,63.4024,0.015056
42.169,63.3962,0.015027
42.200,63.3899,0.015027
42.232,63.3837,0.015027
42.264,63.3773,0.015027
42.295,63.3709,0.015027
42.327,63.3646,0.015027
42.358,63.3584,0.015027
42.390,63.3520,0.014999
42.420,63.3460,0.014999
42.452,63.3396,0.014999
42.482,63.3336,0.014999
42.513,63.3272,0.014999
42.543,63.3213,0.014999
42.574,63.3152,0.014999
42.605,63.3090,0.014999
42.636,63.3027,0.014999
42.668,63.2965,0.015009
42.699,63.2903,0.015009
42.729,63.2842,0.015009
42.761,63.2779,0.015009
42.793,63.2713,0.015009
42.823,63.2653,0.015009
42.854,63.2591,0.015009
42.886,63.2529,0.015009
42.917,63.2465,0.014999
42.949,63.2403,0.014999
42.979,63.2341,0.014999
43.011,63.2279,0.014999
43.041,63.2218,0.014999
43.072,63.2155,0.014999
43.102,63.2097,0.014999
43.133,63.2032,0.014999
43.165,63.1971,0.015018
43.195,63.1909,0.015018
43.227,63.1847,0.015018
43.257,63.1784,0.015018
43.287,63.1726,0.015018
43.319,63.1660,0.015018
43.351,63.1598,0.015018
43.382,63.1535,0.015018
43.413,63.1474,0.014952
43.445,63.1411,0.014952
43.477,63.1348,0.014952
43.509,63.1283,0.014952
43.539,63.1220,0.014952
43.571,63.1159,0.014952
43.602,63.1097,0.014952
43.633,63.1034,0.014980
43.664,63.0973,0.014980
43.695,63.0908,0.014980
43.726,63.0849,0.014980
43.757,63.0786,0.014980
43.787,63.0726,0.014980
43.819,63.0662,0.014980
43.850,63.0601,0.014980
43.882,63.0535,0.014980
43.912,63.0476,0.015037
43.943,63.0412,0.015037
43.975,63.0350,0.015037
44.006,63.0286,0.015037
44.037,63.0226,0.015037
44.068,63.0162,0.015037
44.100,63.0100,0.015037
44.130,63.0039,0.015037
44.161,62.9978,0.014999
44.192,62.9915,0.014999
44.224,62.9852,0.014999
44.255,62.9789,0.014999
44.286,62.9729,0.014999
44.317,62.9666,0.014999
44.348,62.9604,0.014999
44.380,62.9540,0.014999
44.411,62.9476,0.015027
44.442,62.9415,0.015027
44.473,62.9353,0.015027
44.505,62.9290,0.015027
44.535,62.9230,0.015027
44.566,62.9168,0.015027
44.597,62.9105,0.015027
44.629,62.9042,0.015027
44.660,62.8979,0.015056
44.692,62.8915,0.015056
44.723,62.8853,0.015056
44.754,62.8793,0.015056
44.785,62.8729,0.015056
44.815,62.8670,0.015056
44.847,62.8607,0.015056
44.878,62.8545,0.015056
44.909,62.8483,0.015056
44.941,62.8417,0.015056
44.972,62.8356,0.015056
45.003,62.8293,0.015056
45.035,62.8231,0.015056
45.066,62.8169,0.015056
45.097,62.8104,0.015056
45.129,62.8042,0.015037
45.161,62.7979,0.015037
45.192,62.7916,0.015037
45.223,62.7855,0.015037
45.254,62.7791,0.015037
45.286,62.7729,0.015037
45.317,62.7665,0.015037
45.348,62.7604,0.015037
45.378,62.7542,0.015037
45.410,62.7480,0.015027
45.440,62.7418,0.015027
45.471,62.7359,0.015027
45.502,62.7296,0.015027
45.533,62.7235,0.015027
45.564,62.7172,0.015027
45.595,62.7110,0.015027
45.626,62.7049,0.015027
45.656,62.6986,0.015065
45.687,62.6925,0.015065
45.718,62.6864,0.015065
45.749,62.6801,0.015065
45.780,62.6740,0.015065
45.810,62.6681,0.015065
45.841,62.6618,0.015065
45.872,62.6556,0.015065
45.903,62.6493,0.015065
45.934,62.6432,0.015075
45.965,62.6369,0.015075
45.997,62.6306,0.015075
46.028,62.6244,0.015075
46.058,62.6182,0.015075
46.090,62.6120,0.015075
46.120,62.6059,0.015075
46.151,62.5997,0.015075
46.183,62.5935,0.015018
46.214,62.5872,0.015018
46.245,62.5811,0.015018
46.275,62.5749,0.015018
46.305,62.5690,0.015018
46.337,62.5625,0.015018
46.368,62.5563,0.015018
46.399,62.5500,0.015018
46.431,62.5438,0.015037
46.462,62.5376,0.015037
46.493,62.5315,0.015037
46.523,62.5253,0.015037
46.554,62.5192,0.015037
46.585,62.5130,0.015037
46.616,62.5069,0.015037
46.647,62.5006,0.015037
46.678,62.4943,0.015065
46.710,62.4880,0.015065
46.741,62.4818,0.015065
46.772,62.4757,0.015065
46.803,62.4695,0.015065
46.834,62.4632,0.015065
46.864,62.4571,0.015065
46.896,62.4508,0.015065
46.926,62.4448,0.015065
46.958,62.4384,0.015018
46.989,62.4323,0.015018
47.020,62.4260,0.015018
47.052,62.4196,0.015018
47.082,62.4134,0.015018
47.114,62.4074,0.015018
47.144,62.4012,0.015018
47.176,62.3950,0.014943
47.206,62.3886,0.014943
47.237,62.3825,0.014943
47.268,62.3763,0.014943
47.300,62.3700,0.014943
47.332,62.3636,0.014943
47.363,62.3574,0.014943
47.394,62.3510,0.014943
47.425,62.3450,0.014943
47.455,62.3388,0.014952
47.487,62.3327,0.014952
47.518,62.3262,0.014952
47.549,62.3203,0.014952
47.580,62.3140,0.014952
47.610,62.3080,0.014952
47.642,62.3014,0.014952
47.674,62.2952,0.015037
47.706,62.2888,0.015037
47.736,62.2828,0.015037
47.767,62.2764,0.015037
47.799,62.2703,0.015037
47.830,62.2641,0.015037
47.859,62.2582,0.015037
47.890,62.2520,0.015037
47.921,62.2456,0.015084
47.952,62.2395,0.015084
47.984,62.2331,0.015084
48.015,62.2269,0.015084
48.046,62.2207,0.015084
48.077,62.2146,0.015084
48.107,62.2084,0.015084
48.139,62.2022,0.015084
48.170,62.1959,0.014999
48.201,62.1897,0.014999
48.232,62.1835,0.014999
48.264,62.1773,0.014999
48.295,62.1711,0.014999
48.325,62.1650,0.014999
48.355,62.1591,0.014999
48.386,62.1527,0.014999
48.417,62.1467,0.015009
48.448,62.1405,0.015009
48.479,62.1343,0.015009
48.510,62.1282,0.015009
48.540,62.1220,0.015009
48.571,62.1159,0.015009
48.602,62.1097,0.015009
48.633,62.1034,0.015009
48.664,62.0972,0.015046
48.695,62.0910,0.015046
48.727,62.0846,0.015046
48.759,62.0782,0.015046
48.790,62.0720,0.015046
48.820,62.0659,0.015046
48.852,62.0595,0.015046
48.884,62.0533,0.015046
48.914,62.0472,0.015046
48.945,62.0410,0.015046
48.977,62.0347,0.015046
49.008,62.0282,0.015046
49.039,62.0224,0.015046
49.070,62.0159,0.015046
49.101,62.0099,0.015046
49.131,62.0037,0.015046
49.162,61.9977,0.015046
49.193,61.9914,0.015075
49.225,61.9849,0.015075
49.256,61.9789,0.015075
49.287,61.9727,0.015075
49.319,61.9663,0.015075
49.349,61.9602,0.015075
49.381,61.9538,0.015075
49.413,61.9474,0.015046
49.444,61.9413,0.015046
49.474,61.9352,0.015046
49.505,61.9289,0.015046
49.536,61.9228,0.015046
49.567,61.9166,0.015046
49.598,61.9104,0.015046
49.629,61.9041,0.015046
49.660,61.8980,0.015018
49.691,61.8918,0.015018
49.722,61.8853,0.015018
49.753,61.8793,0.015018
49.785,61.8731,0.015018
49.817,61.8666,0.015018
49.848,61.8604,0.015018
49.879,61.8541,0.015018
49.910,61.8480,0.015056
49.941,61.8417,0.015056
49.971,61.8359,0.015056
50.002,61.8295,0.015056
50.033,61.8235,0.015056
50.064,61.8172,0.015056
50.095,61.8109,0.015056
50.126,61.8048,0.015056
50.157,61.7988,0.015018
50.187,61.7926,0.015018
50.218,61.7862,0.015018
50.250,61.7800,0.015018
50.280,61.7741,0.015018
50.311,61.7678,0.015018
50.342,61.7617,0.015018
50.373,61.7554,0.015018
50.404,61.7492,0.014980
50.436,61.7428,0.014980
50.467,61.7366,0.014980
50.497,61.7304,0.014980
50.529,61.7244,0.014980
50.559,61.7182,0.014980
50.590,61.7120,0.014980
50.622,61.7056,0.014980
50.653,61.6993,0.015037
50.683,61.6935,0.015037
50.714,61.6873,0.015037
50.745,61.6811,0.015037
50.776,61.6747,0.015037
50.807,61.6687,0.015037
50.837,61.6626,0.015037
50.868,61.6564,0.015037
50.899,61.6502,0.015056
50.930,61.6440,0.015056
50.962,61.6377,0.015056
50.994,61.6312,0.015056
51.026,61.6248,0.015056
51.057,61.6186,0.015056
51.088,61.6124,0.015056
51.119,61.6062,0.015056
51.150,61.6000,0.015046
51.181,61.5938,0.015046
51.213,61.5874,0.015046
51.244,61.5812,0.015046
51.275,61.5749,0.015046
51.305,61.5691,0.015046
51.335,61.5626,0.015046
51.366,61.5568,0.015046
51.398,61.5504,0.015065
51.428,61.5444,0.015065
51.459,61.5382,0.015065
51.490,61.5320,0.015065
51.521,61.5258,0.015065
51.552,61.5195,0.015065
51.584,61.5133,0.015065
51.616,61.5067,0.015065
51.647,61.5005,0.015075
51.678,61.4943,0.015075
51.709,61.4882,0.015075
51.739,61.4821,0.015075
51.770,61.4759,0.015075
51.801,61.4697,0.015075
51.833,61.4634,0.015075
51.864,61.4572,0.015075
51.894,61.4513,0.015075
51.926,61.4448,0.015065
51.956,61.4389,0.015065
51.987,61.4327,0.015065
52.018,61.4265,0.015065
52.050,61.4201,0.015065
52.081,61.4138,0.015065
52.112,61.4076,0.015065
52.143,61.4014,0.015065
52.174,61.3952,0.015027
52.206,61.3889,0.015027
52.237,61.3825,0.015027
52.268,61.3765,0.015027
52.299,61.3703,0.015027
52.330,61.3639,0.015027
52.362,61.3576,0.015027
52.392,61.3517,0.014971
52.423,61.3455,0.014971
52.453,61.3393,0.014971
52.484,61.3332,0.014971
52.515,61.3270,0.014971
52.546,61.3210,0.014971
52.578,61.3143,0.014971
52.609,61.3083,0.014971
52.640,61.3018,0.015018
52.672,61.2956,0.015018
52.703,61.2893,0.015018
52.735,61.2830,0.015018
52.766,61.2769,0.015018
52.796,61.2708,0.015018
52.827,61.2646,0.015018
52.859,61.2582,0.015018
52.890,61.2520,0.015075
52.922,61.2457,0.015075
52.952,61.2394,0.015075
52.984,61.2333,0.015075
53.014,61.2273,0.015075
53.044,61.2212,0.015075
53.076,61.2147,0.015075
53.108,61.2085,0.015075
53.138,61.2022,0.015018
53.170,61.1960,0.015018
53.201,61.1897,0.015018
53.232,61.1836,0.015018
53.264,61.1772,0.015018
53.294,61.1713,0.015018
53.324,61.1653,0.015018
53.354,61.1592,0.015018
53.385,61.1531,0.015027
53.416,61.1468,0.015027
53.449,61.1403,0.015027
53.478,61.1344,0.015027
53.508,61.1283,0.015027
53.539,61.1221,0.015027
53.570,61.1159,0.015027
53.602,61.1096,0.015027
53.633,61.1034,0.015027
53.664,61.0972,0.015056
53.694,61.0913,0.015056
53.726,61.0848,0.015056
53.758,61.0786,0.015056
53.788,61.0725,0.015056
53.818,61.0663,0.015056
53.850,61.0601,0.015056
53.881,61.0538,0.015056
53.912,61.0476,0.014999
53.943,61.0414,0.014999
53.973,61.0354,0.014999
54.003,61.0295,0.014999
54.034,61.0230,0.014999
54.065,61.0169,0.014999
54.095,61.0111,0.014999
54.126,61.0049,0.014999
54.158,60.9986,0.015009
54.188,60.9924,0.015009
54.219,60.9863,0.015009
54.250,60.9800,0.015009
54.281,60.9738,0.015009
54.312,60.9676,0.015009
54.344,60.9614,0.015009
54.375,60.9550,0.015009
54.405,60.9491,0.015056
54.436,60.9428,0.015056
54.467,60.9366,0.015056
54.498,60.9304,0.015056
54.529,60.9243,0.015056
54.560,60.9181,0.015056
54.590,60.9121,0.015056
54.622,60.9068,0.015056
54.654,60.9021,0.015056
54.685,60.8984,0.015065
54.715,60.8954,0.015065
54.746,60.8930,0.015065
54.777,60.8914,0.015065
54.808,60.8905,0.015065
54.839,60.8903,0.015065
54.871,60.8903,0.015065
54.903,60.8903,0.014980
54.934,60.8903,0.014980
54.964,60.8903,0.014980
54.996,60.8907,0.014980
55.028,60.8918,0.014980
55.058,60.8936,0.014980
55.090,60.8961,0.014980
55.121,60.8995,0.014980
55.152,60.9034,0.014943
55.183,60.9083,0.014943
55.214,60.9139,0.014943
55.245,60.9198,0.014943
55.276,60.9261,0.014943
55.307,60.9322,0.014943
55.338,60.9384,0.014943
55.370,60.9446,0.014943
55.401,60.9509,0.014999
55.435,60.9576,0.014999
55.463,60.9635,0.014999
55.494,60.9695,0.014999
55.525,60.9758,0.014999
55.556,60.9818,0.014999
55.586,60.9880,0.014999
55.617,60.9944,0.014999
55.648,61.0004,0.014999
55.678,61.0066,0.015037
55.709,61.0126,0.015037
55.741,61.0192,0.015037
55.771,61.0250,0.015037
55.801,61.0311,0.015037
55.832,61.0374,0.015037
55.864,61.0436,0.015037
55.896,61.0500,0.015037
55.929,61.0567,0.015103
55.959,61.0626,0.015103
55.990,61.0686,0.015103
56.020,61.0750,0.015103
56.052,61.0812,0.015103
56.082,61.0871,0.015103
56.114,61.0937,0.015103
56.145,61.0997,0.015075
56.175,61.1059,0.015075
56.206,61.1119,0.015075
56.236,61.1180,0.015075
56.268,61.1242,0.015075
56.297,61.1303,0.015075
56.328,61.1364,0.015075
56.359,61.1428,0.015075
56.391,61.1489,0.014990
56.423,61.1553,0.014990
56.453,61.1614,0.014990
56.485,61.1679,0.014990
56.516,61.1739,0.014990
56.547,61.1803,0.014990
56.578,61.1863,0.014990
56.609,61.1925,0.014990
56.641,61.1990,0.014999
56.671,61.2051,0.014999
56.702,61.2111,0.014999
56.733,61.2173,0.014999
56.764,61.2234,0.014999
56.795,61.2298,0.014999
56.826,61.2358,0.014999
56.856,61.2420,0.014999
56.888,61.2484,0.015018
56.920,61.2548,0.015018
56.951,61.2609,0.015018
56.982,61.2672,0.015018
57.014,61.2734,0.015018
57.045,61.2797,0.015018
57.076,61.2859,0.015018
57.108,61.2924,0.015018
57.139,61.2985,0.014999
57.170,61.3048,0.014999
57.202,61.3111,0.014999
57.232,61.3173,0.014999
57.264,61.3235,0.014999
57.295,61.3300,0.014999
57.326,61.3362,0.014999
57.357,61.3421,0.014999
57.388,61.3486,0.015027
57.418,61.3544,0.015027
57.449,61.3607,0.015027
57.481,61.3669,0.015027
57.512,61.3732,0.015027
57.542,61.3792,0.015027
57.573,61.3854,0.015027
57.605,61.3918,0.015027
57.636,61.3981,0.015027
57.667,61.4043,0.015027
57.699,61.4107,0.015027
57.731,61.4170,0.015027
57.763,61.4234,0.015027
57.793,61.4293,0.015027
57.824,61.4355,0.015027
57.855,61.4417,0.015027
57.885,61.4477,0.015027
57.916,61.4540,0.015027
57.947,61.4601,0.015027
57.979,61.4665,0.015027
58.008,61.4723,0.015027
58.040,61.4789,0.015027
58.071,61.4850,0.015027
58.103,61.4913,0.015027
58.134,61.4975,0.015027
58.166,61.5038,0.015027
58.196,61.5098,0.015056
58.226,61.5160,0.015056
58.257,61.5221,0.015056
58.288,61.5284,0.015056
58.319,61.5346,0.015056
58.351,61.5409,0.015056
58.382,61.5473,0.015056
58.413,61.5533,0.015027
58.444,61.5595,0.015027
58.475,61.5657,0.015027
58.505,61.5717,0.015027
58.536,61.5779,0.015027
58.567,61.5842,0.015027
58.598,61.5903,0.015027
58.628,61.5964,0.015027
58.659,61.6026,0.015027
58.690,61.6088,0.014999
58.721,61.6151,0.014999
58.753,61.6213,0.014999
58.784,61.6276,0.014999
58.815,61.6337,0.014999
58.847,61.6400,0.014999
58.878,61.6463,0.014999
58.909,61.6525,0.015009
58.941,61.6590,0.015009
58.972,61.6651,0.015009
59.003,61.6713,0.015009
59.033,61.6775,0.015009
59.064,61.6836,0.015009
59.095,61.6898,0.015009
59.125,61.6957,0.015009
59.156,61.7020,0.015009
59.187,61.7081,0.015018
59.219,61.7146,0.015018
59.250,61.7209,0.015018
59.281,61.7270,0.015018
59.313,61.7333,0.015018
59.345,61.7396,0.015018
59.376,61.7461,0.015018
59.405,61.7520,0.015046
59.436,61.7580,0.015046
59.467,61.7640,0.015046
59.498,61.7704,0.015046
59.530,61.7767,0.015046
59.561,61.7829,0.015046
59.591,61.7888,0.015046
59.622,61.7952,0.015046
59.653,61.8011,0.015037
59.683,61.8075,0.015037
59.714,61.8135,0.015037
59.745,61.8197,0.015037
59.775,61.8257,0.015037
59.806,61.8319,0.015037
59.837,61.8381,0.015037
59.867,61.8442,0.015037
59.898,61.8505,0.014924
59.930,61.8568,0.014924
59.961,61.8629,0.014924
59.992,61.8691,0.014924
60.023,61.8753,0.014924
60.053,61.8814,0.014924
60.085,61.8877,0.014924
60.116,61.8940,0.014924
60.147,61.9002,0.014914
60.178,61.9062,0.014914
60.209,61.9125,0.014914
60.240,61.9187,0.014914
60.270,61.9248,0.014914
60.301,61.9310,0.014914
60.332,61.9371,0.014914
60.363,61.9434,0.014914
60.394,61.9496,0.015046
60.425,61.9558,0.015046
60.456,61.9619,0.015046
60.487,61.9682,0.015046
60.518,61.9744,0.015046
60.549,61.9805,0.015046
60.580,61.9869,0.015046
60.611,61.9929,0.015046
60.641,61.9994,0.015046
60.673,62.0055,0.015075
60.705,62.0116,0.015075
60.734,62.0175,0.015075
60.765,62.0237,0.015075
60.796,62.0300,0.015075
60.828,62.0363,0.015075
60.859,62.0425,0.015075
60.890,62.0488,0.014980
60.921,62.0551,0.014980
60.953,62.0612,0.014980
60.984,62.0677,0.014980
61.014,62.0736,0.014980
61.045,62.0798,0.014980
61.077,62.0860,0.014980
61.108,62.0922,0.014980
61.139,62.0987,0.014980
61.171,62.1050,0.014980
61.202,62.1112,0.014980
61.234,62.1175,0.014980
61.263,62.1235,0.014980
61.295,62.1298,0.014980
61.326,62.1360,0.014980
61.357,62.1421,0.014980
61.389,62.1486,0.015027
61.420,62.1547,0.015027
61.452,62.1613,0.015027
61.483,62.1672,0.015027
61.514,62.1736,0.015027
61.545,62.1798,0.015027
61.576,62.1861,0.015027
61.608,62.1924,0.015027
61.639,62.1985,0.014990
61.670,62.2047,0.014990
61.700,62.2108,0.014990
61.732,62.2172,0.014990
61.763,62.2232,0.014990
61.794,62.2295,0.014990
61.825,62.2357,0.014990
61.856,62.2419,0.014990
61.887,62.2481,0.014990
61.919,62.2546,0.014990
61.950,62.2606,0.014980
61.981,62.2670,0.014980
62.012,62.2732,0.014980
62.043,62.2792,0.014980
62.074,62.2854,0.014980
62.104,62.2915,0.014980
62.134,62.2977,0.014980
62.165,62.3037,0.014971
62.196,62.3099,0.014971
62.227,62.3161,0.014971
62.257,62.3221,0.014971
62.288,62.3285,0.014971
62.320,62.3347,0.014971
62.352,62.3411,0.014971
62.382,62.3470,0.014971
62.413,62.3534,0.014924
62.444,62.3595,0.014924
62.475,62.3658,0.014924
62.507,62.3720,0.014924
62.538,62.3783,0.014924
62.569,62.3847,0.014924
62.601,62.3910,0.014924
62.633,62.3974,0.014924
62.663,62.4035,0.014952
62.695,62.4097,0.014952
62.726,62.4160,0.014952
62.757,62.4220,0.014952
62.788,62.4282,0.014952
62.820,62.4346,0.014952
62.851,62.4408,0.014952
62.881,62.4470,0.014952
62.912,62.4531,0.015018
62.944,62.4593,0.015018
62.975,62.4656,0.015018
63.005,62.4718,0.015018
63.037,62.4779,0.015018
63.068,62.4842,0.015018
63.100,62.4906,0.015018
63.132,62.4970,0.015018
63.163,62.5033,0.015037
63.194,62.5094,0.015037
63.224,62.5156,0.015037
63.255,62.5217,0.015037
63.286,62.5279,0.015037
63.316,62.5339,0.015037
63.346,62.5399,0.015037
63.377,62.5461,0.015037
63.408,62.5525,0.015037
63.438,62.5584,0.015018
63.470,62.5646,0.015018
63.500,62.5707,0.015018
63.532,62.5770,0.015018
63.563,62.5832,0.015018
63.595,62.5897,0.015018
63.626,62.5959,0.015018
63.657,62.6022,0.014999
63.688,62.6083,0.014999
63.720,62.6146,0.014999
63.751,62.6209,0.014999
63.780,62.6268,0.014999
63.811,62.6330,0.014999
63.842,62.6390,0.014999
63.873,62.6452,0.014999
63.903,62.6513,0.014990
63.934,62.6576,0.014990
63.965,62.6638,0.014990
63.996,62.6698,0.014990
64.027,62.6760,0.014990
64.058,62.6822,0.014990
64.089,62.6885,0.014990
64.120,62.6947,0.014990
64.151,62.7009,0.015037
64.182,62.7071,0.015037
64.214,62.7134,0.015037
64.245,62.7196,0.015037
64.275,62.7258,0.015037
64.307,62.7320,0.015037
64.337,62.7380,0.015037
64.367,62.7442,0.015037
64.398,62.7503,0.015037
64.429,62.7566,0.015037
64.461,62.7628,0.015037
64.492,62.7691,0.015037
64.523,62.7753,0.015037
64.555,62.7817,0.015037
64.586,62.7879,0.015037
64.617,62.7941,0.015037
64.648,62.8003,0.015046
64.679,62.8065,0.015046
64.710,62.8127,0.015046
64.741,62.8190,0.015046
64.772,62.8252,0.015046
64.804,62.8315,0.015046
64.834,62.8376,0.015046
64.865,62.8437,0.015046
64.895,62.8496,0.015046
64.925,62.8558,0.015046
64.957,62.8620,0.015046
64.988,62.8682,0.015046
65.019,62.8745,0.015046
65.050,62.8806,0.015046
65.081,62.8873,0.015046
65.112,62.8932,0.015046
65.143,62.8995,0.015009
65.176,62.9059,0.015009
65.206,62.9120,0.015009
65.237,62.9182,0.015009
65.268,62.9245,0.015009
65.300,62.9307,0.015009
65.332,62.9372,0.015009
65.362,62.9431,0.015009
65.393,62.9492,0.015075
65.423,62.9553,0.015075
65.454,62.9614,0.015075
65.485,62.9678,0.015075
65.515,62.9736,0.015075
65.546,62.9798,0.015075
65.577,62.9860,0.015075
65.609,62.9924,0.015075
65.639,62.9986,0.015075
65.670,63.0047,0.015037
65.700,63.0106,0.015037
65.731,63.0168,0.015037
65.762,63.0231,0.015037
65.792,63.0291,0.015037
65.823,63.0353,0.015037
65.854,63.0414,0.015037
65.885,63.0478,0.015037
65.917,63.0540,0.015037
65.948,63.0603,0.015037
65.979,63.0665,0.015037
66.010,63.0727,0.015037
66.042,63.0792,0.015037
66.073,63.0851,0.015037
66.104,63.0916,0.015037
66.135,63.0978,0.015037
66.166,63.1041,0.015037
66.197,63.1101,0.015046
66.229,63.1165,0.015046
66.260,63.1227,0.015046
66.291,63.1289,0.015046
66.322,63.1351,0.015046
66.353,63.1413,0.015046
66.384,63.1476,0.015046
66.415,63.1537,0.014980
66.446,63.1599,0.014980
66.478,63.1661,0.014980
66.508,63.1725,0.014980
66.540,63.1785,0.014980
66.570,63.1849,0.014980
66.601,63.1909,0.014980
66.632,63.1971,0.014980
66.662,63.2031,0.014990
66.693,63.2094,0.014990
66.724,63.2160,0.014990
66.755,63.2216,0.014990
66.786,63.2279,0.014990
66.817,63.2342,0.014990
66.848,63.2404,0.014990
66.880,63.2466,0.014990
66.910,63.2528,0.015037
66.942,63.2590,0.015037
66.973,63.2655,0.015037
67.005,63.2717,0.015037
67.036,63.2777,0.015037
67.066,63.2840,0.015037
67.098,63.2903,0.015037
67.130,63.2967,0.015075
67.161,63.3028,0.015075
67.191,63.3090,0.015075
67.223,63.3155,0.015075
67.254,63.3214,0.015075
67.285,63.3277,0.015075
67.316,63.3338,0.015075
67.346,63.3400,0.015075
67.377,63.3461,0.015075
67.410,63.3527,0.015056
67.440,63.3587,0.015056
67.473,63.3653,0.015056
67.503,63.3713,0.015056
67.534,63.3776,0.015056
67.565,63.3837,0.015056
67.597,63.3901,0.015056
67.627,63.3961,0.015056
67.659,63.4024,0.015056
67.690,63.4086,0.015056
67.721,63.4149,0.015056
67.751,63.4211,0.015056
67.783,63.4273,0.015056
67.814,63.4333,0.015056
67.845,63.4397,0.015056
67.875,63.4457,0.015056
67.906,63.4519,0.015056
67.936,63.4580,0.015037
67.968,63.4642,0.015037
67.998,63.4702,0.015037
68.029,63.4764,0.015037
68.059,63.4825,0.015037
68.089,63.4887,0.015037
68.121,63.4948,0.015037
68.151,63.5010,0.015018
68.183,63.5072,0.015018
68.214,63.5134,0.015018
68.246,63.5200,0.015018
68.277,63.5260,0.015018
68.308,63.5321,0.015018
68.339,63.5384,0.015018
68.370,63.5446,0.015018
68.401,63.5507,0.015018
68.432,63.5569,0.015018
68.463,63.5633,0.015018
68.494,63.5693,0.015018
68.524,63.5755,0.015018
68.556,63.5819,0.015018
68.587,63.5881,0.015018
68.618,63.5944,0.015018
68.649,63.6005,0.015009
68.680,63.6067,0.015009
68.710,63.6129,0.015009
68.742,63.6189,0.015009
68.773,63.6253,0.015009
68.803,63.6313,0.015009
68.834,63.6374,0.015009
68.866,63.6437,0.015009
68.895,63.6497,0.015009
68.927,63.6560,0.015027
68.958,63.6622,0.015027
68.989,63.6685,0.015027
69.020,63.6746,0.015027
69.051,63.6810,0.015027
69.081,63.6869,0.015027
69.113,63.6935,0.015027
69.145,63.6997,0.014980
69.176,63.7059,0.014980
69.206,63.7120,0.014980
69.238,63.7183,0.014980
69.268,63.7242,0.014980
69.299,63.7303,0.014980
69.330,63.7369,0.014980
69.361,63.7430,0.014980
69.393,63.7492,0.014971
69.425,63.7556,0.014971
69.455,63.7617,0.014971
69.486,63.7680,0.014971
69.517,63.7740,0.014971
69.547,63.7803,0.014971
69.578,63.7864,0.014971
69.609,63.7927,0.014971
69.640,63.7988,0.014961
69.673,63.8052,0.014961
69.703,63.8114,0.014961
69.734,63.8176,0.014961
69.765,63.8237,0.014961
69.797,63.8300,0.014961
69.828,63.8362,0.014961
69.859,63.8426,0.014961
69.890,63.8488,0.014952
69.921,63.8548,0.014952
69.952,63.8610,0.014952
69.984,63.8672,0.014952
70.015,63.8727,0.014952
70.045,63.8774,0.014952
70.077,63.8815,0.014952
70.107,63.8846,0.014952
70.139,63.8871,0.014952
70.170,63.8889,0.014952
70.201,63.8899,0.015103
70.232,63.8903,0.015103
70.263,63.8903,0.015103
70.294,63.8903,0.015103
70.324,63.8903,0.015103
70.356,63.8903,0.015103
70.387,63.8903,0.015103
70.418,63.8903,0.015103
70.449,63.8903,0.015056
70.481,63.8903,0.015056
70.512,63.8903,0.015056
70.543,63.8903,0.015056
70.575,63.8903,0.015056
70.605,63.8903,0.015056
70.636,63.8903,0.015056
70.667,63.8903,0.014990
70.698,63.8903,0.014990
70.728,63.8903,0.014990
70.759,63.8903,0.014990
70.790,63.8903,0.014990
70.822,63.8903,0.014990
70.853,63.8903,0.014990
70.884,63.8903,0.014990
70.915,63.8903,0.015065
70.946,63.8903,0.015065
70.977,63.8903,0.015065
71.008,63.8903,0.015065
71.039,63.8903,0.015065
71.071,63.8903,0.015065
71.102,63.8903,0.015065
71.133,63.8903,0.015065
71.164,63.8903,0.015056
71.194,63.8903,0.015056
71.226,63.8903,0.015056
71.256,63.8903,0.015056
71.287,63.8903,0.015056
71.319,63.8903,0.015056
71.351,63.8903,0.015056
71.381,63.8903,0.015056
71.412,63.8903,0.015027
71.443,63.8903,0.015027
71.475,63.8903,0.015027
71.506,63.8903,0.015027
71.536,63.8903,0.015027
71.566,63.8903,0.015027
71.598,63.8903,0.015027
71.629,63.8903,0.015027
71.661,63.8903,0.015018
71.692,63.8903,0.015018
71.723,63.8903,0.015018
71.753,63.8903,0.015018
71.783,63.8903,0.015018
71.814,63.8903,0.015018
71.845,63.8903,0.015018
71.877,63.8903,0.015018
71.909,63.8903,0.015065
71.939,63.8903,0.015065
71.971,63.8903,0.015065
72.002,63.8903,0.015065
72.032,63.8903,0.015065
72.063,63.8903,0.015065
72.094,63.8903,0.015065
72.124,63.8903,0.015027
72.155,63.8903,0.015027
72.186,63.8903,0.015027
72.216,63.8903,0.015027
72.247,63.8903,0.015027
72.278,63.8903,0.015027
72.309,63.8903,0.015027
72.340,63.8903,0.015027
72.372,63.8903,0.015027
72.403,63.8903,0.015027
72.435,63.8903,0.014990
72.467,63.8903,0.014990
72.498,63.8903,0.014990
72.530,63.8903,0.014990
72.562,63.8903,0.014990
72.594,63.8903,0.014990
72.625,63.8903,0.014990
72.655,63.8903,0.015027
72.687,63.8903,0.015027
72.718,63.8903,0.015027
72.750,63.8903,0.015027
72.781,63.8903,0.015027
72.812,63.8903,0.015027
72.843,63.8903,0.015027
72.874,63.8903,0.015027
72.906,63.8903,0.015027
72.937,63.8903,0.015027
72.969,63.8903,0.015027
73.000,63.8903,0.015027
73.031,63.8903,0.015027
73.062,63.8903,0.015027
73.093,63.8903,0.015027
73.124,63.8903,0.015027
73.155,63.8903,0.015027
73.187,63.8903,0.015037
73.218,63.8903,0.015037
73.250,63.8903,0.015037
73.280,63.8903,0.015037
73.311,63.8903,0.015037
73.342,63.8903,0.015037
73.372,63.8903,0.015037
73.403,63.8903,0.015046
73.435,63.8903,0.015046
73.466,63.8903,0.015046
73.496,63.8903,0.015046
73.528,63.8903,0.015046
73.559,63.8903,0.015046
73.590,63.8903,0.015046
73.621,63.8903,0.015046
73.651,63.8903,0.015046
73.682,63.8903,0.015084
73.714,63.8903,0.015084
73.744,63.8903,0.015084
73.775,63.8903,0.015084
73.805,63.8903,0.015084
73.836,63.8903,0.015084
73.867,63.8903,0.015084
73.898,63.8903,0.015084
73.929,63.8903,0.015084
73.962,63.8903,0.015075
73.992,63.8903,0.015075
74.024,63.8903,0.015075
74.055,63.8903,0.015075
74.086,63.8903,0.015075
74.117,63.8903,0.015075
74.148,63.8903,0.015075
74.179,63.8903,0.015037
74.209,63.8903,0.015037
74.240,63.8903,0.015037
74.271,63.8903,0.015037
74.303,63.8903,0.015037
74.333,63.8903,0.015037
74.365,63.8903,0.015037
74.396,63.8903,0.015037
74.427,63.8903,0.015084
74.458,63.8903,0.015084
74.490,63.8903,0.015084
74.520,63.8901,0.015084
74.551,63.8892,0.015084
74.582,63.8876,0.015084
74.613,63.8852,0.015084
74.644,63.8821,0.015084
74.676,63.8783,0.015122
74.707,63.8736,0.015122
74.739,63.8683,0.015122
74.769,63.8621,0.015122
74.800,63.8562,0.015122
74.832,63.8499,0.015122
74.863,63.8437,0.015122
74.895,63.8372,0.015122
74.926,63.8310,0.015084
74.955,63.8252,0.015084
74.986,63.8191,0.015084
75.017,63.8128,0.015084
75.050,63.8062,0.015084
75.079,63.8005,0.015084
75.109,63.7944,0.015084
75.140,63.7882,0.015084
75.171,63.7822,0.015037
75.201,63.7760,0.015037
75.232,63.7698,0.015037
75.263,63.7634,0.015037
75.294,63.7575,0.015037
75.325,63.7513,0.015037
75.355,63.7453,0.015037
75.385,63.7392,0.015037
75.416,63.7329,0.015037
75.447,63.7268,0.015037
75.478,63.7205,0.015037
75.508,63.7146,0.015037
75.539,63.7084,0.015037
75.572,63.7019,0.015037
75.603,63.6956,0.015037
75.633,63.6896,0.015037
75.663,63.6836,0.015037
75.694,63.6774,0.015037
75.725,63.6714,0.015037
75.755,63.6652,0.015037
75.787,63.6590,0.015037
75.818,63.6527,0.015037
75.849,63.6465,0.015037
75.881,63.6400,0.015037
75.911,63.6341,0.014990
75.942,63.6277,0.014990
75.973,63.6217,0.014990
76.004,63.6155,0.014990
76.035,63.6091,0.014990
76.067,63.6029,0.014990
76.097,63.5969,0.014990
76.129,63.5905,0.014990
76.159,63.5843,0.014980
76.190,63.5783,0.014980
76.222,63.5719,0.014980
76.252,63.5657,0.014980
76.283,63.5597,0.014980
76.314,63.5535,0.014980
76.346,63.5471,0.014980
76.377,63.5409,0.014980
76.408,63.5347,0.014999
76.439,63.5284,0.014999
76.471,63.5222,0.014999
76.502,63.5158,0.014999
76.533,63.5097,0.014999
76.564,63.5035,0.014999
76.594,63.4974,0.014999
76.626,63.4911,0.014999
76.657,63.4850,0.015093
76.688,63.4787,0.015093
76.719,63.4722,0.015093
76.750,63.4663,0.015093
76.780,63.4603,0.015093
76.811,63.4541,0.015093
76.841,63.4480,0.015093
76.873,63.4418,0.015093
76.905,63.4354,0.015065
76.934,63.4293,0.015065
76.965,63.4231,0.015065
76.997,63.4168,0.015065
77.028,63.4107,0.015065
77.059,63.4045,0.015065
77.090,63.3982,0.015065
77.121,63.3921,0.015065
77.152,63.3858,0.015065
77.182,63.3798,0.014952
77.215,63.3734,0.014952
77.245,63.3673,0.014952
77.277,63.3608,0.014952
77.307,63.3549,0.014952
77.339,63.3484,0.014952
77.370,63.3424,0.014952
77.400,63.3362,0.014952
77.432,63.3300,0.014961
77.464,63.3235,0.014961
77.494,63.3176,0.014961
77.525,63.3114,0.014961
77.555,63.3050,0.014961
77.586,63.2991,0.014961
77.618,63.2928,0.014961
77.649,63.2866,0.014961
77.680,63.2804,0.015027
77.711,63.2740,0.015027
77.741,63.2681,0.015027
77.772,63.2616,0.015027
77.803,63.2557,0.015027
77.834,63.2493,0.015027
77.865,63.2433,0.015027
77.896,63.2369,0.015027
77.927,63.2309,0.015037
77.959,63.2244,0.015037
77.990,63.2183,0.015037
78.022,63.2118,0.015037
78.052,63.2058,0.015037
78.083,63.1996,0.015037
78.114,63.1935,0.015037
78.145,63.1872,0.015037
78.176,63.1810,0.015037
78.207,63.1748,0.015037
78.238,63.1687,0.015037
78.269,63.1624,0.015037
78.300,63.1561,0.015037
78.332,63.1499,0.015037
78.363,63.1436,0.015037
78.394,63.1374,0.015037
78.425,63.1313,0.015037
78.456,63.1251,0.015037
78.487,63.1189,0.015037
78.518,63.1127,0.015037
78.550,63.1062,0.015037
78.581,63.1000,0.015037
78.613,63.0938,0.015037
78.644,63.0875,0.014971
78.675,63.0812,0.014971
78.706,63.0750,0.014971
78.737,63.0689,0.014971
78.768,63.0628,0.014971
78.799,63.0565,0.014971
78.831,63.0502,0.014971
78.863,63.0437,0.014971
78.893,63.0378,0.014961
78.923,63.0316,0.014961
78.954,63.0255,0.014961
78.986,63.0192,0.014961
79.016,63.0131,0.014961
79.047,63.0068,0.014961
79.079,63.0006,0.014961
79.111,62.9941,0.014961
79.141,62.9880,0.015018
79.172,62.9818,0.015018
79.202,62.9759,0.015018
79.233,62.9696,0.015018
79.265,62.9632,0.015018
79.297,62.9569,0.015018
79.327,62.9508,0.015018
79.359,62.9445,0.015018
79.390,62.9382,0.015027
79.421,62.9320,0.015027
79.452,62.9260,0.015027
79.483,62.9198,0.015027
79.514,62.9135,0.015027
79.545,62.9072,0.015027
79.577,62.9010,0.015027
79.607,62.8948,0.015027
79.638,62.8887,0.014999
79.670,62.8822,0.014999
79.701,62.8762,0.014999
79.734,62.8696,0.014999
79.763,62.8636,0.014999
79.795,62.8573,0.014999
79.826,62.8510,0.014999
79.858,62.8445,0.014999
79.889,62.8385,0.014999
79.921,62.8321,0.015009
79.951,62.8259,0.015009
79.984,62.8195,0.015009
80.015,62.8134,0.015009
80.045,62.8072,0.015009
80.076,62.8011,0.015009
80.107,62.7948,0.015009
80.137,62.7890,0.015065
80.168,62.7826,0.015065
80.198,62.7767,0.015065
80.230,62.7701,0.015065
80.261,62.7640,0.015065
80.293,62.7575,0.015065
80.324,62.7514,0.015065
80.355,62.7452,0.015065
80.386,62.7391,0.015065
80.417,62.7329,0.015065
80.447,62.7268,0.015027
80.479,62.7205,0.015027
80.510,62.7143,0.015027
80.541,62.7080,0.015027
80.572,62.7018,0.015027
80.603,62.6957,0.015027
80.635,62.6893,0.015027
80.665,62.6832,0.014952
80.696,62.6772,0.014952
80.726,62.6710,0.014952
80.757,62.6650,0.014952
80.788,62.6587,0.014952
80.819,62.6525,0.014952
80.850,62.6463,0.014952
80.882,62.6400,0.014952
80.913,62.6337,0.014952
80.944,62.6275,0.014961
80.975,62.6212,0.014961
81.005,62.6152,0.014961
81.037,62.6089,0.014961
81.067,62.6027,0.014961
81.099,62.5966,0.014961
81.130,62.5903,0.014961
81.162,62.5840,0.015027
81.192,62.5779,0.015027
81.223,62.5716,0.015027
81.254,62.5655,0.015027
81.285,62.5592,0.015027
81.316,62.5531,0.015027
81.347,62.5468,0.015027
81.378,62.5408,0.015027
81.409,62.5344,0.015027
81.440,62.5283,0.015046
81.472,62.5218,0.015046
81.503,62.5156,0.015046
81.535,62.5092,0.015046
81.567,62.5027,0.015046
81.597,62.4968,0.015046
81.628,62.4908,0.015046
81.660,62.4842,0.015046
81.691,62.4780,0.015009
81.723,62.4716,0.015009
81.754,62.4654,0.015009
81.786,62.4591,0.015009
81.817,62.4530,0.015009
81.849,62.4464,0.015009
81.880,62.4401,0.015009
81.910,62.4343,0.014961
81.941,62.4281,0.014961
81.972,62.4219,0.014961
82.003,62.4158,0.014961
82.034,62.4095,0.014961
82.066,62.4031,0.014961
82.096,62.3969,0.014961
82.127,62.3910,0.014961
82.157,62.3848,0.014980
82.188,62.3787,0.014980
82.219,62.3725,0.014980
82.250,62.3662,0.014980
82.281,62.3601,0.014980
82.312,62.3539,0.014980
82.342,62.3477,0.014980
82.374,62.3415,0.014980
82.405,62.3353,0.014990
82.435,62.3292,0.014990
82.466,62.3231,0.014990
82.498,62.3166,0.014990
82.529,62.3106,0.014990
82.559,62.3045,0.014990
82.590,62.2981,0.014990
82.621,62.2920,0.014990
82.652,62.2859,0.014980
82.683,62.2797,0.014980
82.713,62.2738,0.014980
82.745,62.2673,0.014980
82.776,62.2611,0.014980
82.808,62.2548,0.014980
82.838,62.2486,0.014980
82.870,62.2424,0.014980
82.902,62.2358,0.014971
82.933,62.2296,0.014971
82.963,62.2237,0.014971
82.994,62.2175,0.014971
83.026,62.2111,0.014971
83.057,62.2047,0.014971
83.088,62.1986,0.014971
83.119,62.1925,0.014971
83.150,62.1863,0.014990
83.182,62.1799,0.014990
83.211,62.1741,0.014990
83.242,62.1679,0.014990
83.273,62.1615,0.014990
83.305,62.1552,0.014990
83.336,62.1491,0.014990
83.368,62.1428,0.014990
83.399,62.1365,0.014990
83.431,62.1302,0.015037
83.461,62.1241,0.015037
83.493,62.1178,0.015037
83.525,62.1112,0.015037
83.556,62.1051,0.015037
83.587,62.0989,0.015037
83.618,62.0928,0.015037
83.648,62.0868,0.015037
83.679,62.0806,0.015046
83.710,62.0742,0.015046
83.741,62.0680,0.015046
83.771,62.0619,0.015046
83.803,62.0556,0.015046
83.834,62.0495,0.015046
83.865,62.0432,0.015046
83.896,62.0370,0.015046
83.928,62.0307,0.015046
83.959,62.0245,0.015046
83.990,62.0183,0.015046
84.021,62.0121,0.015046
84.052,62.0059,0.015046
84.083,61.9997,0.015046
84.114,61.9935,0.015046
84.145,61.9873,0.015046
84.176,61.9811,0.015046
84.207,61.9748,0.015046
84.240,61.9683,0.015046
84.270,61.9622,0.015046
84.301,61.9560,0.015046
84.332,61.9498,0.015046
84.363,61.9438,0.015046
84.394,61.9377,0.015046
84.425,61.9314,0.015018
84.456,61.9250,0.015018
84.488,61.9187,0.015018
84.519,61.9125,0.015018
84.550,61.9064,0.015018
84.581,61.9000,0.015018
84.612,61.8940,0.015018
84.643,61.8877,0.015018
84.675,61.8814,0.015037
84.705,61.8752,0.015037
84.736,61.8691,0.015037
84.768,61.8628,0.015037
84.798,61.8566,0.015037
84.830,61.8504,0.015037
84.861,61.8440,0.015037
84.892,61.8380,0.015075
84.923,61.8316,0.015075
84.954,61.8254,0.015075
84.985,61.8192,0.015075
85.016,61.8130,0.015075
85.047,61.8070,0.015075
85.079,61.8005,0.015075
85.111,61.7942,0.015075
85.142,61.7880,0.015075
85.172,61.7819,0.014971
85.204,61.7755,0.014971
85.236,61.7690,0.014971
85.267,61.7628,0.014971
85.299,61.7566,0.014971
85.331,61.7502,0.014971
85.362,61.7438,0.014971
85.392,61.7379,0.014971
85.423,61.7315,0.014933
85.453,61.7256,0.014933
85.484,61.7196,0.014933
85.516,61.7132,0.014933
85.547,61.7070,0.014933
85.578,61.7007,0.014933
85.609,61.6943,0.014933
85.641,61.6881,0.015027
85.672,61.6819,0.015027
85.702,61.6759,0.015027
85.734,61.6695,0.015027
85.764,61.6633,0.015027
85.797,61.6570,0.015027
85.826,61.6509,0.015027
85.857,61.6449,0.015027
85.888,61.6385,0.015027
85.919,61.6325,0.015037
85.950,61.6261,0.015037
85.982,61.6201,0.015037
86.013,61.6136,0.015037
86.044,61.6074,0.015037
86.076,61.6010,0.015037
86.107,61.5948,0.015037
86.139,61.5884,0.014990
86.171,61.5819,0.014990
86.202,61.5760,0.014990
86.232,61.5699,0.014990
86.263,61.5636,0.014990
86.295,61.5573,0.014990
86.325,61.5512,0.014990
86.356,61.5450,0.014990
86.387,61.5389,0.015056
86.418,61.5327,0.015056
86.449,61.5264,0.015056
86.481,61.5201,0.015056
86.512,61.5140,0.015056
86.543,61.5078,0.015056
86.573,61.5017,0.015056
86.605,61.4953,0.015056
86.636,61.4892,0.015056
86.667,61.4830,0.015056
86.697,61.4768,0.015046
86.728,61.4709,0.015046
86.759,61.4645,0.015046
86.790,61.4582,0.015046
86.821,61.4520,0.015046
86.852,61.4458,0.015046
86.883,61.4397,0.015046
86.915,61.4333,0.014961
86.946,61.4272,0.014961
86.980,61.4204,0.014961
87.009,61.4145,0.014961
87.040,61.4081,0.014961
87.072,61.4020,0.014961
87.104,61.3954,0.014961
87.135,61.3892,0.014961
87.166,61.3830,0.014971
87.197,61.3770,0.014971
87.228,61.3706,0.014971
87.258,61.3647,0.014971
87.288,61.3586,0.014971
87.319,61.3525,0.014971
87.350,61.3463,0.014971
87.381,61.3400,0.014971
87.412,61.3338,0.014999
87.443,61.3276,0.014999
87.474,61.3213,0.014999
87.505,61.3153,0.014999
87.535,61.3094,0.014999
87.566,61.3030,0.014999
87.596,61.2971,0.014999
87.628,61.2908,0.014999
87.659,61.2846,0.015018
87.691,61.2782,0.015018
87.721,61.2720,0.015018
87.753,61.2657,0.015018
87.784,61.2594,0.015018
87.815,61.2533,0.015018
87.847,61.2471,0.015018
87.878,61.2408,0.015065
87.909,61.2346,0.015065
87.940,61.2281,0.015065
87.971,61.2222,0.015065
88.003,61.2159,0.015065
88.036,61.2090,0.015065
88.065,61.2031,0.015065
88.096,61.1969,0.015065
88.127,61.1909,0.015027
88.160,61.1844,0.015027
88.189,61.1787,0.015027
88.220,61.1723,0.015027
88.251,61.1663,0.015027
88.282,61.1598,0.015027
88.314,61.1536,0.015027
88.347,61.1470,0.015027
88.376,61.1411,0.015027
88.408,61.1346,0.014961
88.439,61.1284,0.014961
88.471,61.1221,0.014961
88.502,61.1159,0.014961
88.533,61.1097,0.014961
88.565,61.1034,0.014961
88.596,61.0973,0.014961
88.627,61.0910,0.014990
88.657,61.0849,0.014990
88.689,61.0784,0.014990
88.720,61.0725,0.014990
88.751,61.0660,0.014990
88.782,61.0598,0.014990
88.814,61.0535,0.014990
88.845,61.0472,0.014990
88.876,61.0411,0.014990
88.907,61.0349,0.015027
88.938,61.0287,0.015027
88.969,61.0225,0.015027
89.000,61.0163,0.015027
89.031,61.0102,0.015027
89.063,61.0038,0.015027
89.093,60.9977,0.015027
89.125,60.9914,0.015027
89.157,60.9849,0.015018
89.188,60.9787,0.015018
89.219,60.9725,0.015018
89.249,60.9664,0.015018
89.280,60.9604,0.015018
89.311,60.9542,0.015018
89.343,60.9477,0.015018
89.373,60.9418,0.015018
89.404,60.9356,0.014990
89.435,60.9292,0.014990
89.466,60.9232,0.014990
89.497,60.9168,0.014990
89.529,60.9104,0.014990
89.559,60.9046,0.014990
89.592,60.8980,0.014990
89.621,60.8920,0.014990
89.653,60.8856,0.014961
89.685,60.8794,0.014961
89.715,60.8732,0.014961
89.746,60.8670,0.014961
89.776,60.8614,0.014961
89.807,60.8561,0.014961
89.839,60.8516,0.014961
89.871,60.8478,0.014961
89.903,60.8448,0.014961
89.934,60.8425,0.014924
89.966,60.8411,0.014924
89.996,60.8403,0.014924
90.028,60.8402,0.014924
90.060,60.8402,0.014924
90.091,60.8402,0.014924
90.122,60.8402,0.014924
90.153,60.8402,0.014924
90.183,60.8402,0.014924
90.214,60.8406,0.014924
90.244,60.8416,0.014924
90.277,60.8435,0.014924
90.307,60.8459,0.014924
90.338,60.8492,0.014924
90.368,60.8531,0.014924
90.400,60.8581,0.014924
90.431,60.8634,0.014933
90.463,60.8698,0.014933
90.494,60.8757,0.014933
90.524,60.8820,0.014933
90.555,60.8881,0.014933
90.587,60.8945,0.014933
90.618,60.9006,0.014933
90.649,60.9069,0.014933
90.681,60.9132,0.014961
90.712,60.9194,0.014961
90.743,60.9256,0.014961
90.775,60.9320,0.014961
90.806,60.9382,0.014961
90.838,60.9446,0.014961
90.867,60.9505,0.014961
90.898,60.9567,0.014961
90.929,60.9629,0.014990
90.960,60.9692,0.014990
90.992,60.9754,0.014990
91.023,60.9816,0.014990
91.054,60.9879,0.014990
91.086,60.9941,0.014990
91.117,61.0003,0.014990
91.147,61.0065,0.015009
91.179,61.0128,0.015009
91.211,61.0193,0.015009
91.242,61.0255,0.015009
91.273,61.0318,0.015009
91.305,61.0380,0.015009
91.335,61.0441,0.015009
91.366,61.0504,0.015009
91.397,61.0565,0.015027
91.427,61.0626,0.015027
91.459,61.0689,0.015027
91.490,61.0751,0.015027
91.521,61.0812,0.015027
91.552,61.0875,0.015027
91.583,61.0937,0.015027
91.615,61.1001,0.015027
91.647,61.1063,0.015027
91.677,61.1127,0.014980
91.709,61.1187,0.014980
91.740,61.1251,0.014980
91.771,61.1313,0.014980
91.803,61.1377,0.014980
91.832,61.1434,0.014980
91.865,61.1500,0.014980
91.895,61.1561,0.014980
91.927,61.1624,0.014971
91.957,61.1685,0.014971
91.989,61.1748,0.014971
92.019,61.1808,0.014971
92.051,61.1872,0.014971
92.082,61.1934,0.014971
92.113,61.1996,0.014971
92.144,61.2059,0.015027
92.175,61.2120,0.015027
92.207,61.2183,0.015027
92.238,61.2247,0.015027
92.269,61.2309,0.015027
92.300,61.2372,0.015027
92.331,61.2431,0.015027
92.362,61.2495,0.015027
92.393,61.2557,0.015027
92.424,61.2619,0.015009
92.455,61.2682,0.015009
92.487,61.2745,0.015009
92.518,61.2805,0.015009
92.548,61.2868,0.015009
92.579,61.2929,0.015009
92.610,61.2990,0.015009
92.641,61.3052,0.014990
92.671,61.3114,0.014990
92.702,61.3174,0.014990
92.733,61.3236,0.014990
92.765,61.3301,0.014990
92.795,61.3362,0.014990
92.827,61.3424,0.014990
92.857,61.3486,0.014990
92.888,61.3546,0.014999
92.920,61.3610,0.014999
92.951,61.3672,0.014999
92.982,61.3735,0.014999
93.013,61.3796,0.014999
93.044,61.3859,0.014999
93.076,61.3921,0.014999
93.106,61.3983,0.014999
93.137,61.4045,0.014980
93.168,61.4107,0.014980
93.201,61.4172,0.014980
93.232,61.4235,0.014980
93.263,61.4297,0.014980
93.294,61.4360,0.014980
93.324,61.4418,0.014980
93.356,61.4482,0.014980
93.387,61.4544,0.015009
93.418,61.4607,0.015009
93.449,61.4669,0.015009
93.479,61.4730,0.015009
93.510,61.4792,0.015009
93.541,61.4852,0.015009
93.573,61.4917,0.015009
93.604,61.4976,0.015009
93.635,61.5041,0.015009
93.667,61.5103,0.014990
93.698,61.5167,0.014990
93.730,61.5229,0.014990
93.761,61.5293,0.014990
93.792,61.5353,0.014990
93.822,61.5414,0.014990
93.853,61.5475,0.014990
93.885,61.5539,0.014990
93.916,61.5603,0.014980
93.947,61.5665,0.014980
93.978,61.5727,0.014980
94.009,61.5789,0.014980
94.040,61.5851,0.014980
94.072,61.5915,0.014980
94.103,61.5975,0.014980
94.134,61.6039,0.014980
94.164,61.6098,0.014980
94.195,61.6161,0.014980
94.228,61.6225,0.014980
94.257,61.6286,0.014980
94.289,61.6349,0.014980
94.319,61.6410,0.014980
94.351,61.6472,0.014980
94.382,61.6537,0.014980
94.414,61.6597,0.014980
94.444,61.6658,0.014980
94.474,61.6719,0.014980
94.505,61.6781,0.014980
94.536,61.6843,0.014980
94.567,61.6905,0.014980
94.599,61.6967,0.014980
94.631,61.7033,0.015027
94.660,61.7091,0.015027
94.690,61.7149,0.015027
94.721,61.7213,0.015027
94.752,61.7273,0.015027
94.784,61.7339,0.015027
94.816,61.7401,0.015027
94.848,61.7466,0.015027
94.879,61.7526,0.015027
94.911,61.7593,0.015009
94.942,61.7653,0.015009
94.973,61.7716,0.015009
95.003,61.7777,0.015009
95.035,61.7840,0.015009
95.066,61.7902,0.015009
95.097,61.7964,0.015009
95.128,61.8026,0.015009
95.159,61.8088,0.015018
95.190,61.8150,0.015018
95.220,61.8211,0.015018
95.252,61.8273,0.015018
95.283,61.8335,0.015018
95.314,61.8398,0.015018
95.346,61.8461,0.015018
95.376,61.8523,0.015018
95.407,61.8584,0.015018
95.439,61.8648,0.014971
95.470,61.8712,0.014971
95.501,61.8772,0.014971
95.532,61.8836,0.014971
95.564,61.8898,0.014971
95.595,61.8960,0.014971
95.628,61.9026,0.014971
95.658,61.9085,0.014971
95.688,61.9146,0.014971
95.718,61.9207,0.014971
95.749,61.9266,0.014971
95.779,61.9328,0.014971
95.811,61.9392,0.014971
95.842,61.9454,0.014971
95.873,61.9516,0.014971
95.904,61.9579,0.014971
95.935,61.9641,0.014980
95.966,61.9702,0.014980
95.998,61.9765,0.014980
96.029,61.9827,0.014980
96.059,61.9888,0.014980
96.091,61.9952,0.014980
96.123,62.0017,0.014980
96.152,62.0075,0.014990
96.184,62.0137,0.014990
96.215,62.0199,0.014990
96.246,62.0262,0.014990
96.277,62.0323,0.014990
96.307,62.0385,0.014990
96.338,62.0446,0.014990
96.370,62.0510,0.014990
96.401,62.0571,0.014999
96.432,62.0636,0.014999
96.463,62.0695,0.014999
96.494,62.0758,0.014999
96.525,62.0819,0.014999
96.555,62.0882,0.014999
96.586,62.0943,0.014999
96.617,62.1005,0.014999
96.649,62.1067,0.014990
96.679,62.1129,0.014990
96.711,62.1192,0.014990
96.741,62.1252,0.014990
96.772,62.1314,0.014990
96.804,62.1379,0.014990
96.834,62.1438,0.014990
96.866,62.1501,0.014990
96.896,62.1563,0.015018
96.926,62.1623,0.015018
96.957,62.1684,0.015018
96.988,62.1746,0.015018
97.019,62.1808,0.015018
97.050,62.1870,0.015018
97.081,62.1932,0.015018
97.112,62.1996,0.015018
97.144,62.2057,0.015018
97.175,62.2121,0.015018
97.207,62.2183,0.015018
97.238,62.2247,0.015018
97.269,62.2309,0.015018
97.299,62.2368,0.015018
97.330,62.2433,0.015018
97.361,62.2491,0.015018
97.393,62.2555,0.015018
97.424,62.2616,0.015046
97.454,62.2680,0.015046
97.485,62.2740,0.015046
97.517,62.2805,0.015046
97.548,62.2866,0.015046
97.578,62.2928,0.015046
97.610,62.2990,0.015046
97.640,62.3052,0.015046
97.672,62.3114,0.014999
97.703,62.3177,0.014999
97.735,62.3240,0.014999
97.766,62.3302,0.014999
97.797,62.3364,0.014999
97.828,62.3425,0.014999
97.859,62.3488,0.014999
97.891,62.3551,0.014999
97.922,62.3615,0.014990
97.952,62.3673,0.014990
97.983,62.3736,0.014990
98.013,62.3797,0.014990
98.045,62.3860,0.014990
98.076,62.3921,0.014990
98.108,62.3988,0.014990
98.138,62.4047,0.014990
98.170,62.4110,0.014971
98.200,62.4172,0.014971
98.230,62.4230,0.014971
98.261,62.4292,0.014971
98.293,62.4355,0.014971
98.323,62.4417,0.014971
98.354,62.4479,0.014971
98.386,62.4541,0.014971
98.418,62.4606,0.014933
98.450,62.4670,0.014933
98.479,62.4728,0.014933
98.510,62.4789,0.014933
98.540,62.4851,0.014933
98.571,62.4911,0.014933
98.603,62.4975,0.014933
98.634,62.5037,0.015009
98.665,62.5099,0.015009
98.695,62.5159,0.015009
98.726,62.5221,0.015009
98.757,62.5285,0.015009
98.788,62.5345,0.015009
98.818,62.5407,0.015009
98.849,62.5469,0.015009
98.880,62.5530,0.015009
98.911,62.5593,0.015009
98.943,62.5656,0.015056
98.973,62.5717,0.015056
99.004,62.5779,0.015056
99.035,62.5840,0.015056
99.068,62.5905,0.015056
99.098,62.5965,0.015056
99.129,62.6029,0.015056
99.161,62.6091,0.015065
99.193,62.6156,0.015065
99.223,62.6218,0.015065
99.255,62.6280,0.015065
99.287,62.6342,0.015065
99.317,62.6404,0.015065
99.348,62.6465,0.015065
99.380,62.6529,0.015065
99.410,62.6590,0.015075
99.442,62.6654,0.015075
99.472,62.6714,0.015075
99.503,62.6776,0.015075
99.536,62.6842,0.015075
99.565,62.6901,0.015075
99.597,62.6963,0.015075
99.628,62.7028,0.015075
99.659,62.7087,0.015075
99.690,62.7149,0.015075
99.721,62.7213,0.015075
99.752,62.7273,0.015075
99.782,62.7333,0.015075
99.813,62.7395,0.015075
99.844,62.7458,0.015075
99.874,62.7518,0.015075
99.905,62.7580,0.014999
99.937,62.7643,0.014999
99.968,62.7705,0.014999
100.000,62.7769,0.014999
100.030,62.7830,0.014999
100.063,62.7895,0.014999
100.093,62.7957,0.014999
100.124,62.8019,0.014999
100.155,62.8079,0.014961
100.186,62.8143,0.014961
100.217,62.8204,0.014961
100.248,62.8267,0.014961
100.279,62.8328,0.014961
100.310,62.8391,0.014961
100.341,62.8452,0.014961
100.373,62.8519,0.014961
100.403,62.8578,0.014980
100.434,62.8638,0.014980
100.465,62.8700,0.014980
100.497,62.8763,0.014980
100.528,62.8826,0.014980
100.558,62.8887,0.014980
100.589,62.8950,0.014980
100.620,62.9010,0.014980
100.652,62.9073,0.014980
100.682,62.9134,0.014990
100.713,62.9196,0.014990
100.745,62.9259,0.014990
100.775,62.9321,0.014990
100.806,62.9382,0.014990
100.838,62.9445,0.014990
100.869,62.9507,0.014990
100.900,62.9570,0.014990
100.932,62.9635,0.015018
100.963,62.9697,0.015018
100.994,62.9759,0.015018
101.025,62.9820,0.015018
101.056,62.9882,0.015018
101.087,62.9944,0.015018
101.118,63.0006,0.015018
101.149,63.0068,0.015027
101.179,63.0128,0.015027
101.210,63.0192,0.015027
101.241,63.0254,0.015027
101.272,63.0316,0.015027
101.303,63.0376,0.015027
101.335,63.0441,0.015027
101.366,63.0502,0.015027
101.398,63.0567,0.014999
101.429,63.0629,0.014999
101.461,63.0693,0.014999
101.492,63.0755,0.014999
101.522,63.0812,0.014999
101.553,63.0875,0.014999
101.584,63.0937,0.014999
101.615,63.1001,0.014999
101.646,63.1062,0.014980
101.677,63.1124,0.014980
101.708,63.1185,0.014980
101.739,63.1248,0.014980
101.769,63.1309,0.014980
101.800,63.1369,0.014980
101.831,63.1431,0.014980
101.863,63.1495,0.014980
101.894,63.1557,0.014952
101.926,63.1622,0.014952
101.956,63.1681,0.014952
101.987,63.1744,0.014952
102.018,63.1806,0.014952
102.049,63.1868,0.014952
102.080,63.1929,0.014952
102.111,63.1992,0.014952
102.141,63.2052,0.014933
102.172,63.2115,0.014933
102.203,63.2176,0.014933
102.236,63.2242,0.014933
102.265,63.2299,0.014933
102.296,63.2363,0.014933
102.328,63.2427,0.014933
102.358,63.2487,0.014933
102.390,63.2549,0.014933
102.422,63.2614,0.014961
102.453,63.2677,0.014961
102.484,63.2739,0.014961
102.515,63.2800,0.014961
102.546,63.2861,0.014961
102.577,63.2923,0.014961
102.608,63.2985,0.014961
102.639,63.3048,0.014961
102.670,63.3109,0.015009
102.701,63.3171,0.015009
102.732,63.3233,0.015009
102.764,63.3296,0.015009
102.795,63.3360,0.015009
102.826,63.3422,0.015009
102.857,63.3482,0.015009
102.887,63.3544,0.015009
102.918,63.3606,0.014999
102.950,63.3669,0.014999
102.981,63.3732,0.014999
103.013,63.3796,0.014999
103.044,63.3857,0.014999
103.077,63.3922,0.014999
103.106,63.3982,0.014999
103.138,63.4046,0.014980
103.169,63.4107,0.014980
103.200,63.4169,0.014980
103.232,63.4234,0.014980
103.263,63.4296,0.014980
103.294,63.4358,0.014980
103.324,63.4420,0.014980
103.356,63.4480,0.014980
103.387,63.4544,0.014999
103.418,63.4604,0.014999
103.449,63.4668,0.014999
103.481,63.4731,0.014999
103.512,63.4794,0.014999
103.543,63.4856,0.014999
103.574,63.4918,0.014999
103.605,63.4980,0.014999
103.637,63.5042,0.014999
103.668,63.5105,0.015046
103.699,63.5167,0.015046
103.730,63.5228,0.015046
103.761,63.5291,0.015046
103.794,63.5357,0.015046
103.823,63.5414,0.015046
103.854,63.5477,0.015046
103.885,63.5540,0.015009
103.917,63.5604,0.015009
103.947,63.5665,0.015009
103.978,63.5726,0.015009
104.009,63.5789,0.015009
104.040,63.5848,0.015009
104.072,63.5914,0.015009
104.103,63.5976,0.015009
104.135,63.6041,0.015009
104.166,63.6101,0.014999
104.197,63.6163,0.014999
104.227,63.6223,0.014999
104.258,63.6287,0.014999
104.290,63.6351,0.014999
104.321,63.6413,0.014999
104.353,63.6475,0.014999
104.385,63.6540,0.014999
104.416,63.6602,0.014999
104.448,63.6667,0.014999
104.480,63.6729,0.014999
104.511,63.6792,0.014999
104.540,63.6850,0.014999
104.572,63.6912,0.014999
104.602,63.6976,0.014999
104.633,63.7035,0.014999
104.664,63.7098,0.014933
104.695,63.7159,0.014933
104.725,63.7220,0.014933
104.754,63.7278,0.014933
104.786,63.7342,0.014933
104.817,63.7402,0.014933
104.849,63.7468,0.014933
104.880,63.7529,0.014933
104.912,63.7592,0.014980
104.942,63.7653,0.014980
104.972,63.7712,0.014980
105.003,63.7777,0.014980
105.034,63.7839,0.014980
105.065,63.7898,0.014980
105.096,63.7962,0.014980
105.128,63.8025,0.014980
105.158,63.8086,0.014980
105.190,63.8149,0.014999
105.221,63.8205,0.014999
105.252,63.8256,0.014999
105.282,63.8298,0.014999
105.314,63.8334,0.014999
105.345,63.8361,0.014999
105.377,63.8382,0.014999
105.407,63.8396,0.014999
105.439,63.8402,0.015018
105.471,63.8402,0.015018
105.500,63.8402,0.015018
105.532,63.8402,0.015018
105.566,63.8402,0.015018
105.595,63.8402,0.015018
105.625,63.8402,0.015018
105.656,63.8402,0.015037
105.687,63.8402,0.015037
105.718,63.8402,0.015037
105.748,63.8402,0.015037
105.778,63.8402,0.015037
105.809,63.8402,0.015037
105.841,63.8402,0.015037
105.872,63.8402,0.015037
105.903,63.8402,0.015037
105.935,63.8402,0.015009
105.966,63.8402,0.015009
105.997,63.8402,0.015009
106.028,63.8402,0.015009
106.059,63.8402,0.015009
106.090,63.8402,0.015009
106.122,63.8402,0.015009
106.152,63.8402,0.015009
106.184,63.8402,0.015009
106.215,63.8402,0.015009
106.246,63.8402,0.015009
106.276,63.8402,0.015009
106.307,63.8402,0.015009
106.338,63.8402,0.015009
106.370,63.8402,0.015009
106.401,63.8402,0.015009
106.432,63.8402,0.014971
106.464,63.8402,0.014971
106.494,63.8402,0.014971
106.526,63.8402,0.014971
106.558,63.8402,0.014971
106.589,63.8402,0.014971
106.620,63.8402,0.014971
106.651,63.8402,0.014943
106.683,63.8402,0.014943
106.713,63.8402,0.014943
106.744,63.8402,0.014943
106.775,63.8402,0.014943
106.806,63.8402,0.014943
106.837,63.8402,0.014943
106.869,63.8402,0.014943
106.899,63.8402,0.014943
106.930,63.8402,0.014990
106.960,63.8402,0.014990
106.992,63.8402,0.014990
107.022,63.8402,0.014990
107.054,63.8402,0.014990
107.086,63.8402,0.014990
107.117,63.8402,0.014990
107.149,63.8402,0.015009
107.180,63.8402,0.015009
107.211,63.8402,0.015009
107.242,63.8402,0.015009
107.273,63.8402,0.015009
107.304,63.8402,0.015009
107.335,63.8402,0.015009
107.365,63.8402,0.015009
107.396,63.8402,0.015009
107.428,63.8402,0.014971
107.459,63.8402,0.014971
107.491,63.8402,0.014971
107.520,63.8402,0.014971
107.552,63.8402,0.014971
107.584,63.8402,0.014971
107.616,63.8402,0.014971
107.647,63.8402,0.014971
107.678,63.8402,0.014980
107.709,63.8402,0.014980
107.740,63.8402,0.014980
107.770,63.8402,0.014980
107.801,63.8402,0.014980
107.833,63.8402,0.014980
107.864,63.8402,0.014980
107.895,63.8402,0.014980
107.928,63.8402,0.014980
107.958,63.8402,0.014980
107.989,63.8402,0.014980
108.021,63.8402,0.014980
108.051,63.8402,0.014980
108.082,63.8402,0.014980
108.114,63.8402,0.014980
108.145,63.8402,0.014980
108.175,63.8402,0.014961
108.207,63.8402,0.014961
108.238,63.8402,0.014961
108.268,63.8402,0.014961
108.299,63.8402,0.014961
108.329,63.8402,0.014961
108.360,63.8402,0.014961
108.392,63.8402,0.014961
108.423,63.8402,0.014961
108.453,63.8402,0.014961
108.484,63.8402,0.014961
108.516,63.8402,0.014961
108.547,63.8402,0.014961
108.577,63.8402,0.014961
108.609,63.8402,0.014961
108.639,63.8402,0.014961
108.671,63.8402,0.014961
108.702,63.8402,0.014961
108.734,63.8402,0.014961
108.765,63.8402,0.014961
108.795,63.8402,0.014961
108.827,63.8402,0.014961
108.857,63.8402,0.014961
108.888,63.8402,0.014980
108.919,63.8402,0.014980
108.950,63.8402,0.014980
108.981,63.8402,0.014980
109.013,63.8402,0.014980
109.045,63.8402,0.014980
109.076,63.8402,0.014980
109.108,63.8402,0.014980
109.139,63.8402,0.015018
109.170,63.8402,0.015018
109.201,63.8402,0.015018
109.233,63.8402,0.015018
109.264,63.8402,0.015018
109.294,63.8402,0.015018
109.325,63.8402,0.015018
109.356,63.8402,0.015018
109.387,63.8402,0.014990
109.418,63.8402,0.014990
109.449,63.8402,0.014990
109.480,63.8402,0.014990
109.511,63.8402,0.014990
109.542,63.8402,0.014990
109.573,63.8402,0.014990
109.605,63.8402,0.014990
109.637,63.8402,0.014971
109.667,63.8402,0.014971
109.698,63.8402,0.014971
109.729,63.8402,0.014971
109.760,63.8402,0.014971
109.790,63.8402,0.014971
109.822,63.8402,0.014971
109.851,63.8402,0.014971
109.881,63.8402,0.014971
109.911,63.8402,0.014961
109.942,63.8402,0.014961
109.974,63.8402,0.014961
110.006,63.8402,0.014961
110.037,63.8402,0.014961
110.068,63.8402,0.014961
110.100,63.8401,0.014961
110.130,63.8395,0.014971
110.161,63.8381,0.014971
110.191,63.8360,0.014971
110.222,63.8333,0.014971
110.254,63.8295,0.014971
110.284,63.8253,0.014971
110.315,63.8202,0.014971
110.345,63.8148,0.014971
110.377,63.8084,0.014971
110.408,63.8022,0.015075
110.439,63.7960,0.015075
110.470,63.7900,0.015075
110.500,63.7838,0.015075
110.532,63.7776,0.015075
110.563,63.7711,0.015075
110.594,63.7652,0.015075
110.625,63.7588,0.015075
110.656,63.7525,0.015065
110.687,63.7464,0.015065
110.718,63.7404,0.015065
110.749,63.7342,0.015065
110.780,63.7280,0.015065
110.810,63.7218,0.015065
110.842,63.7156,0.015065
110.873,63.7092,0.015065
110.905,63.7029,0.015009
110.935,63.6967,0.015009
110.968,63.6901,0.015009
110.997,63.6843,0.015009
111.029,63.6781,0.015009
111.060,63.6719,0.015009
111.091,63.6657,0.015009
111.123,63.6594,0.015009
111.154,63.6530,0.015027
111.185,63.6468,0.015027
111.215,63.6409,0.015027
111.246,63.6347,0.015027
111.277,63.6284,0.015027
111.308,63.6223,0.015027
111.339,63.6161,0.015027
111.369,63.6101,0.015027
111.399,63.6038,0.015027
111.430,63.5977,0.015027
111.462,63.5914,0.015009
111.493,63.5852,0.015009
111.525,63.5788,0.015009
111.556,63.5727,0.015009
111.587,63.5664,0.015009
111.618,63.5603,0.015009
111.649,63.5541,0.015009
111.680,63.5480,0.015046
111.711,63.5415,0.015046
111.743,63.5353,0.015046
111.773,63.5291,0.015046
111.805,63.5229,0.015046
111.836,63.5165,0.015046
111.867,63.5104,0.015046
111.898,63.5042,0.015046
111.929,63.4979,0.015056
111.960,63.4919,0.015056
111.990,63.4859,0.015056
112.022,63.4794,0.015056
112.053,63.4735,0.015056
112.084,63.4670,0.015056
112.116,63.4608,0.015056
112.146,63.4546,0.015056
112.178,63.4484,0.015018
112.209,63.4421,0.015018
112.240,63.4359,0.015018
112.271,63.4297,0.015018
112.303,63.4232,0.015018
112.333,63.4173,0.015018
112.365,63.4110,0.015018
112.396,63.4046,0.015056
112.427,63.3983,0.015056
112.457,63.3925,0.015056
112.487,63.3864,0.015056
112.518,63.3802,0.015056
112.550,63.3739,0.015056
112.582,63.3674,0.015056
112.610,63.3617,0.015056
112.641,63.3558,0.015027
112.673,63.3492,0.015027
112.704,63.3431,0.015027
112.735,63.3368,0.015027
112.767,63.3306,0.015027
112.798,63.3241,0.015027
112.829,63.3181,0.015027
112.861,63.3115,0.015027
112.892,63.3054,0.014971
112.923,63.2990,0.014971
112.955,63.2930,0.014971
112.986,63.2867,0.014971
113.017,63.2805,0.014971
113.048,63.2743,0.014971
113.079,63.2680,0.014971
113.110,63.2619,0.014971
113.142,63.2554,0.014961
113.172,63.2495,0.014961
113.203,63.2431,0.014961
113.235,63.2368,0.014961
113.266,63.2305,0.014961
113.298,63.2242,0.014961
113.328,63.2181,0.014961
113.360,63.2118,0.014961
113.391,63.2056,0.015018
113.422,63.1994,0.015018
113.453,63.1932,0.015018
113.484,63.1871,0.015018
113.515,63.1809,0.015018
113.547,63.1746,0.015018
113.577,63.1685,0.015018
113.608,63.1622,0.015018
113.639,63.1558,0.015018
113.670,63.1500,0.015046
113.701,63.1436,0.015046
113.732,63.1374,0.015046
113.762,63.1314,0.015046
113.794,63.1250,0.015046
113.825,63.1189,0.015046
113.857,63.1124,0.015046
113.888,63.1063,0.015027
113.920,63.0997,0.015027
113.950,63.0938,0.015027
113.982,63.0875,0.015027
114.013,63.0813,0.015027
114.045,63.0750,0.015027
114.076,63.0685,0.015027
114.107,63.0626,0.015027
114.137,63.0564,0.015027
114.168,63.0502,0.015027
114.201,63.0437,0.015027
114.233,63.0371,0.015027
114.262,63.0313,0.015027
114.293,63.0254,0.015027
114.323,63.0193,0.015027
114.355,63.0130,0.015027
114.386,63.0066,0.015027
114.417,63.0006,0.015009
114.447,62.9945,0.015009
114.478,62.9882,0.015009
114.509,62.9820,0.015009
114.539,62.9760,0.015009
114.570,62.9698,0.015009
114.601,62.9636,0.015009
114.632,62.9573,0.015009
114.663,62.9512,0.014961
114.695,62.9449,0.014961
114.725,62.9388,0.014961
114.757,62.9325,0.014961
114.787,62.9264,0.014961
114.819,62.9199,0.014961
114.850,62.9139,0.014961
114.881,62.9075,0.014961
114.912,62.9016,0.014971
114.943,62.8951,0.014971
114.974,62.8892,0.014971
115.005,62.8827,0.014971
115.037,62.8765,0.014971
115.067,62.8702,0.014971
115.098,62.8643,0.014971
115.129,62.8581,0.014971
115.161,62.8517,0.014971
115.193,62.8453,0.014971
115.224,62.8390,0.014971
115.256,62.8329,0.014971
115.287,62.8266,0.014971
115.318,62.8201,0.014971
115.349,62.8142,0.014971
115.380,62.8078,0.014971
115.411,62.8016,0.015018
115.442,62.7954,0.015018
115.474,62.7892,0.015018
115.505,62.7829,0.015018
115.536,62.7768,0.015018
115.566,62.7706,0.015018
115.598,62.7644,0.015018
115.628,62.7582,0.015018
115.660,62.7519,0.015027
115.691,62.7458,0.015027
115.722,62.7396,0.015027
115.753,62.7332,0.015027
115.784,62.7270,0.015027
115.816,62.7209,0.015027
115.846,62.7146,0.015027
115.878,62.7082,0.015027
115.908,62.7022,0.014980
115.939,62.6961,0.014980
115.970,62.6896,0.014980
116.003,62.6834,0.014980
116.033,62.6771,0.014980
116.064,62.6709,0.014980
116.095,62.6648,0.014980
116.126,62.6586,0.014980
116.157,62.6523,0.015027
116.189,62.6461,0.015027
116.220,62.6398,0.015027
116.251,62.6334,0.015027
116.283,62.6272,0.015027
116.314,62.6209,0.015027
116.344,62.6151,0.015027
116.375,62.6088,0.015027
116.408,62.6022,0.015065
116.436,62.5966,0.015065
116.468,62.5904,0.015065
116.499,62.5841,0.015065
116.530,62.5779,0.015065
116.561,62.5717,0.015065
116.592,62.5655,0.015065
116.624,62.5590,0.015065
116.654,62.5531,0.015018
116.685,62.5468,0.015018
116.717,62.5406,0.015018
116.748,62.5342,0.015018
116.779,62.5280,0.015018
116.811,62.5218,0.015018
116.841,62.5155,0.015018
116.873,62.5093,0.015018
116.904,62.5030,0.014980
116.934,62.4969,0.014980
116.965,62.4907,0.014980
116.996,62.4847,0.014980
117.027,62.4783,0.014980
117.059,62.4721,0.014980
117.090,62.4658,0.014980
117.122,62.4596,0.014980
117.153,62.4531,0.014980
117.184,62.4472,0.014980
117.216,62.4406,0.014980
117.248,62.4344,0.014980
117.279,62.4279,0.014980
117.311,62.4219,0.014980
117.340,62.4159,0.014980
117.371,62.4097,0.014980
117.402,62.4034,0.014980
117.433,62.3971,0.014980
117.464,62.3910,0.015009
117.495,62.3848,0.015009
117.525,62.3790,0.015009
117.557,62.3724,0.015009
117.588,62.3661,0.015009
117.619,62.3599,0.015009
117.650,62.3539,0.015009
117.681,62.3476,0.015027
117.712,62.3414,0.015027
117.743,62.3352,0.015027
117.774,62.3290,0.015027
117.804,62.3230,0.015027
117.837,62.3166,0.015027
117.867,62.3106,0.015027
117.898,62.3042,0.015027
117.930,62.2980,0.015027
117.961,62.2918,0.015027
117.991,62.2857,0.015027
118.022,62.2794,0.015027
118.054,62.2730,0.015027
118.084,62.2670,0.015027
118.117,62.2605,0.015027
118.147,62.2546,0.015027
118.177,62.2484,0.014999
118.208,62.2423,0.014999
118.239,62.2360,0.014999
118.271,62.2298,0.014999
118.302,62.2234,0.014999
118.333,62.2172,0.014999
118.365,62.2110,0.014999
118.395,62.2049,0.014961
118.426,62.1987,0.014961
118.457,62.1924,0.014961
118.488,62.1862,0.014961
118.520,62.1800,0.014961
118.554,62.1732,0.014961
118.583,62.1672,0.014961
118.613,62.1610,0.014961
118.644,62.1551,0.014961
118.675,62.1488,0.014999
118.706,62.1427,0.014999
118.738,62.1362,0.014999
118.769,62.1302,0.014999
118.799,62.1240,0.014999
118.831,62.1176,0.014999
118.862,62.1113,0.014999
118.893,62.1054,0.014999
118.925,62.0988,0.015037
118.957,62.0925,0.015037
118.988,62.0863,0.015037
119.019,62.0802,0.015037
119.051,62.0737,0.015037
119.082,62.0675,0.015037
119.113,62.0613,0.015037
119.144,62.0551,0.015046
119.174,62.0492,0.015046
119.205,62.0427,0.015046
119.237,62.0366,0.015046
119.267,62.0304,0.015046
119.297,62.0246,0.015046
119.328,62.0182,0.015046
119.359,62.0121,0.015046
119.390,62.0059,0.015046
119.422,61.9996,0.015027
119.454,61.9931,0.015027
119.485,61.9870,0.015027
119.516,61.9806,0.015027
119.548,61.9743,0.015027
119.580,61.9678,0.015027
119.612,61.9615,0.015027
119.642,61.9554,0.015009
119.673,61.9492,0.015009
119.704,61.9431,0.015009
119.735,61.9371,0.015009
119.766,61.9307,0.015009
119.797,61.9244,0.015009
119.828,61.9183,0.015009
119.860,61.9118,0.015009
119.890,61.9059,0.015009
119.922,61.8996,0.014961
119.953,61.8934,0.014961
119.986,61.8867,0.014961
120.016,61.8809,0.014961
120.047,61.8745,0.014961
120.078,61.8685,0.014961
120.111,61.8618,0.014961
120.141,61.8558,0.014961
120.172,61.8495,0.014971
120.204,61.8430,0.014971
120.237,61.8366,0.014971
120.266,61.8306,0.014971
120.296,61.8247,0.014971
120.327,61.8186,0.014971
120.358,61.8123,0.014971
120.389,61.8060,0.015046
120.421,61.7998,0.015046
120.451,61.7936,0.015046
120.482,61.7876,0.015046
120.514,61.7810,0.015046
120.545,61.7750,0.015046
120.575,61.7689,0.015046
120.606,61.7626,0.015046
120.638,61.7562,0.014980
120.669,61.7500,0.014980
120.702,61.7436,0.014980
120.733,61.7374,0.014980
120.763,61.7313,0.014980
120.795,61.7249,0.014980
120.826,61.7187,0.014980
120.857,61.7123,0.014980
120.888,61.7065,0.014943
120.919,61.6999,0.014943
120.950,61.6938,0.014943
120.982,61.6874,0.014943
121.014,61.6812,0.014943
121.046,61.6747,0.014943
121.077,61.6685,0.014943
121.109,61.6620,0.014943
121.140,61.6559,0.014943
121.172,61.6494,0.014943
121.203,61.6435,0.014943
121.234,61.6372,0.014943
121.265,61.6308,0.014943
121.297,61.6246,0.014943
121.329,61.6181,0.014943
121.359,61.6121,0.014943
121.390,61.6059,0.014971
121.421,61.5997,0.014971
121.451,61.5939,0.014971
121.482,61.5874,0.014971
121.512,61.5816,0.014971
121.543,61.5754,0.014971
121.575,61.5691,0.014971
121.606,61.5626,0.014971
121.637,61.5567,0.014990
121.668,61.5502,0.014990
121.699,61.5442,0.014990
121.728,61.5382,0.014990
121.759,61.5321,0.014990
121.790,61.5259,0.014990
121.825,61.5190,0.014990
121.852,61.5135,0.014990
121.882,61.5073,0.014990
121.914,61.5012,0.014990
121.945,61.4947,0.014999
121.977,61.4886,0.014999
122.008,61.4824,0.014999
122.038,61.4763,0.014999
122.070,61.4699,0.014999
122.102,61.4635,0.014999
122.133,61.4571,0.014999
122.164,61.4511,0.014999
122.196,61.4447,0.015018
122.227,61.4384,0.015018
122.260,61.4319,0.015018
122.290,61.4260,0.015018
122.320,61.4200,0.015018
122.351,61.4138,0.015018
122.383,61.4075,0.015018
122.414,61.4010,0.014971
122.445,61.3948,0.014971
122.476,61.3887,0.014971
122.507,61.3825,0.014971
122.538,61.3765,0.014971
122.569,61.3701,0.014971
122.600,61.3639,0.014971
122.631,61.3579,0.014971
122.663,61.3514,0.014971
122.694,61.3453,0.014999
122.725,61.3390,0.014999
122.758,61.3323,0.014999
122.788,61.3264,0.014999
122.818,61.3203,0.014999
122.849,61.3141,0.014999
122.880,61.3079,0.014999
122.911,61.3017,0.014999
122.942,61.2955,0.015027
122.973,61.2893,0.015027
123.004,61.2832,0.015027
123.035,61.2768,0.015027
123.067,61.2704,0.015027
123.098,61.2642,0.015027
123.130,61.2579,0.015027
123.160,61.2520,0.015027
123.191,61.2457,0.015046
123.222,61.2394,0.015046
123.253,61.2332,0.015046
123.284,61.2270,0.015046
123.316,61.2208,0.015046
123.347,61.2145,0.015046
123.378,61.2084,0.015046
123.409,61.2020,0.015046
123.440,61.1958,0.015018
123.470,61.1901,0.015018
123.501,61.1839,0.015018
123.532,61.1775,0.015018
123.563,61.1713,0.015018
123.594,61.1653,0.015018
123.624,61.1591,0.015018
123.655,61.1529,0.015018
123.687,61.1465,0.014933
123.718,61.1403,0.014933
123.749,61.1341,0.014933
123.779,61.1281,0.014933
123.810,61.1217,0.014933
123.842,61.1154,0.014933
123.875,61.1088,0.014933
123.906,61.1028,0.014933
123.938,61.0963,0.014990
123.968,61.0903,0.014990
124.000,61.0837,0.014990
124.030,61.0779,0.014990
124.061,61.0719,0.014990
124.092,61.0657,0.014990
124.123,61.0593,0.014990
124.154,61.0530,0.015037
124.185,61.0469,0.015037
124.217,61.0405,0.015037
124.248,61.0344,0.015037
124.279,61.0281,0.015037
124.310,61.0220,0.015037
124.341,61.0156,0.015037
124.372,61.0096,0.015037
124.402,61.0035,0.015037
124.433,60.9973,0.015027
124.465,60.9908,0.015027
124.497,60.9847,0.015027
124.528,60.9782,0.015027
124.559,60.9722,0.015027
124.592,60.9656,0.015027
124.622,60.9596,0.015027
124.652,60.9536,0.015018
124.683,60.9473,0.015018
124.714,60.9411,0.015018
124.746,60.9346,0.015018
124.777,60.9286,0.015018
124.807,60.9225,0.015018
124.838,60.9165,0.015018
124.869,60.9100,0.015018
124.899,60.9041,0.015018
124.930,60.8980,0.015018
124.961,60.8917,0.015018
124.993,60.8853,0.015018
125.024,60.8791,0.015018
125.055,60.8728,0.015018
125.087,60.8666,0.015018
125.119,60.8602,0.015018
125.149,60.8540,0.015018
125.181,60.8479,0.015103
125.211,60.8417,0.015103
125.242,60.8355,0.015103
125.273,60.8293,0.015103
125.304,60.8231,0.015103
125.335,60.8170,0.015103
125.368,60.8108,0.015103
125.397,60.8060,0.015103
125.427,60.8015,0.015075
125.459,60.7979,0.015075
125.490,60.7948,0.015075
125.521,60.7927,0.015075
125.553,60.7911,0.015075
125.585,60.7903,0.015075
125.616,60.7902,0.015075
125.647,60.7902,0.015075
125.679,60.7902,0.014952
125.710,60.7902,0.014952
125.742,60.7902,0.014952
125.772,60.7905,0.014952
125.803,60.7913,0.014952
125.833,60.7931,0.014952
125.865,60.7954,0.014952
125.896,60.7986,0.014952
125.928,60.8026,0.014952
125.960,60.8075,0.014952
125.991,60.8125,0.014952
126.022,60.8186,0.014952
126.053,60.8251,0.014952
126.083,60.8310,0.014952
126.113,60.8371,0.014952
126.143,60.8430,0.014952
126.174,60.8492,0.014952
126.204,60.8552,0.014952
126.236,60.8615,0.014952
126.266,60.8676,0.014952
126.298,60.8739,0.014952
126.329,60.8800,0.014952
126.361,60.8866,0.014952
126.391,60.8925,0.014990
126.422,60.8987,0.014990
126.453,60.9048,0.014990
126.484,60.9111,0.014990
126.515,60.9175,0.014990
126.546,60.9235,0.014990
126.577,60.9296,0.014990
126.608,60.9359,0.014990
126.638,60.9420,0.015009
126.670,60.9483,0.015009
126.700,60.9543,0.015009
126.731,60.9604,0.015009
126.761,60.9667,0.015009
126.792,60.9727,0.015009
126.823,60.9790,0.015009
126.854,60.9852,0.015009
126.884,60.9910,0.014952
126.915,60.9973,0.014952
126.946,61.0034,0.014952
126.976,61.0097,0.014952
127.007,61.0157,0.014952
127.038,61.0219,0.014952
127.069,61.0282,0.014952
127.101,61.0345,0.014952
127.132,61.0409,0.014952
127.163,61.0469,0.015009
127.194,61.0530,0.015009
127.224,61.0591,0.015009
127.255,61.0653,0.015009
127.286,61.0715,0.015009
127.317,61.0777,0.015009
127.348,61.0839,0.015009
127.379,61.0900,0.015009
127.410,61.0962,0.015009
127.441,61.1025,0.015009
127.472,61.1087,0.015009
127.503,61.1149,0.015009
127.534,61.1212,0.015009
127.566,61.1274,0.015009
127.597,61.1336,0.015009
127.628,61.1398,0.015009
127.659,61.1460,0.014961
127.689,61.1522,0.014961
127.720,61.1582,0.014961
127.751,61.1646,0.014961
127.782,61.1707,0.014961
127.814,61.1772,0.014961
127.844,61.1832,0.014961
127.876,61.1896,0.014961
127.907,61.1958,0.014971
127.937,61.2018,0.014971
127.968,61.2079,0.014971
127.998,61.2141,0.014971
128.029,61.2201,0.014971
128.060,61.2263,0.014971
128.091,61.2325,0.014971
128.122,61.2387,0.014971
128.154,61.2450,0.014933
128.185,61.2513,0.014933
128.217,61.2577,0.014933
128.248,61.2640,0.014933
128.279,61.2701,0.014933
128.310,61.2763,0.014933
128.341,61.2825,0.014933
128.372,61.2888,0.014933
128.403,61.2950,0.014971
128.434,61.3011,0.014971
128.465,61.3073,0.014971
128.495,61.3135,0.014971
128.527,61.3195,0.014971
128.559,61.3261,0.014971
128.590,61.3322,0.014971
128.620,61.3384,0.014971
128.651,61.3445,0.014980
128.683,61.3509,0.014980
128.714,61.3570,0.014980
128.744,61.3631,0.014980
128.776,61.3694,0.014980
128.807,61.3757,0.014980
128.839,61.3822,0.014980
128.870,61.3884,0.014980
128.901,61.3946,0.014943
128.933,61.4008,0.014943
128.963,61.4070,0.014943
128.995,61.4134,0.014943
129.027,61.4198,0.014943
129.057,61.4257,0.014943
129.088,61.4318,0.014943
129.119,61.4381,0.014943
129.150,61.4443,0.014961
129.181,61.4505,0.014961
129.212,61.4566,0.014961
129.243,61.4630,0.014961
129.274,61.4690,0.014961
129.306,61.4756,0.014961
129.338,61.4818,0.014961
129.368,61.4880,0.014961
129.399,61.4942,0.014961
129.430,61.5004,0.015009
129.461,61.5066,0.015009
129.492,61.5126,0.015009
129.523,61.5190,0.015009
129.554,61.5252,0.015009
129.585,61.5313,0.015009
129.616,61.5375,0.015009
129.647,61.5437,0.015009
129.679,61.5501,0.015037
129.710,61.5563,0.015037
129.741,61.5625,0.015037
129.773,61.5688,0.015037
129.804,61.5750,0.015037
129.836,61.5814,0.015037
129.867,61.5877,0.015037
129.898,61.5939,0.015037
129.930,61.6003,0.015009
129.962,61.6067,0.015009
129.992,61.6127,0.015009
130.024,61.6191,0.015009
130.055,61.6253,0.015009
130.086,61.6315,0.015009
130.118,61.6378,0.015009
130.148,61.6437,0.014990
130.178,61.6499,0.014990
130.209,61.6561,0.014990
130.240,61.6623,0.014990
130.272,61.6688,0.014990
130.303,61.6749,0.014990
130.335,61.6812,0.014990
130.364,61.6871,0.014990
130.395,61.6935,0.014990
130.426,61.6996,0.014980
130.457,61.7058,0.014980
130.489,61.7120,0.014980
130.520,61.7183,0.014980
130.550,61.7242,0.014980
130.581,61.7303,0.014980
130.612,61.7365,0.014980
130.642,61.7428,0.014980
130.673,61.7490,0.014980
130.704,61.7550,0.014980
130.735,61.7614,0.014980
130.767,61.7676,0.014980
130.799,61.7740,0.014980
130.829,61.7800,0.014980
130.861,61.7865,0.014980
130.892,61.7926,0.014980
130.924,61.7991,0.014961
130.954,61.8052,0.014961
130.985,61.8114,0.014961
131.016,61.8174,0.014961
131.046,61.8235,0.014961
131.077,61.8297,0.014961
131.109,61.8361,0.014961
131.139,61.8422,0.014961
131.171,61.8485,0.014952
131.202,61.8546,0.014952
131.233,61.8610,0.014952
131.265,61.8674,0.014952
131.296,61.8736,0.014952
131.327,61.8796,0.014952
131.358,61.8858,0.014952
131.389,61.8922,0.014961
131.420,61.8982,0.014961
131.450,61.9044,0.014961
131.481,61.9105,0.014961
131.512,61.9168,0.014961
131.543,61.9229,0.014961
131.574,61.9292,0.014961
131.605,61.9353,0.014961
131.636,61.9418,0.014961
131.666,61.9475,0.014971
131.698,61.9538,0.014971
131.729,61.9600,0.014971
131.760,61.9662,0.014971
131.790,61.9723,0.014971
131.821,61.9785,0.014971
131.852,61.9847,0.014971
131.883,61.9910,0.014971
131.914,61.9971,0.014971
131.945,62.0033,0.014971
131.975,62.0092,0.014971
132.007,62.0156,0.014971
132.040,62.0223,0.014971
132.070,62.0282,0.014971
132.102,62.0348,0.014971
132.132,62.0407,0.014961
132.163,62.0471,0.014961
132.194,62.0531,0.014961
132.226,62.0595,0.014961
132.258,62.0658,0.014961
132.290,62.0722,0.014961
132.321,62.0786,0.014961
132.354,62.0853,0.014961
132.384,62.0911,0.014961
132.416,62.0977,0.014961
132.447,62.1036,0.014961
132.478,62.1099,0.014961
132.509,62.1160,0.014961
132.539,62.1222,0.014961
132.570,62.1283,0.014961
132.601,62.1345,0.014961
132.632,62.1406,0.014961
132.663,62.1469,0.014933
132.694,62.1531,0.014933
132.725,62.1593,0.014933
132.756,62.1654,0.014933
132.788,62.1718,0.014933
132.819,62.1780,0.014933
132.850,62.1842,0.014933
132.881,62.1904,0.014980
132.912,62.1965,0.014980
132.943,62.2030,0.014980
132.974,62.2090,0.014980
133.005,62.2152,0.014980
133.036,62.2214,0.014980
133.067,62.2276,0.014980
133.097,62.2337,0.014980
133.129,62.2400,0.014980
133.160,62.2461,0.014999
133.191,62.2524,0.014999
133.222,62.2585,0.014999
133.253,62.2649,0.014999
133.284,62.2711,0.014999
133.316,62.2775,0.014999
133.347,62.2837,0.014999
133.378,62.2899,0.014999
133.408,62.2960,0.014961
133.439,62.3021,0.014961
133.471,62.3085,0.014961
133.502,62.3147,0.014961
133.534,62.3212,0.014961
133.566,62.3275,0.014961
133.596,62.3334,0.014961
133.627,62.3396,0.014971
133.658,62.3458,0.014971
133.689,62.3522,0.014971
133.721,62.3584,0.014971
133.751,62.3646,0.014971
133.782,62.3706,0.014971
133.813,62.3767,0.014971
133.843,62.3829,0.014971
133.874,62.3891,0.014971
133.904,62.3952,0.014961
133.935,62.4013,0.014961
133.966,62.4075,0.014961
133.998,62.4138,0.014961
134.028,62.4199,0.014961
134.060,62.4263,0.014961
134.091,62.4325,0.014961
134.122,62.4386,0.014961
134.153,62.4449,0.014961
134.185,62.4511,0.015009
134.215,62.4572,0.015009
134.246,62.4635,0.015009
134.278,62.4699,0.015009
134.309,62.4762,0.015009
134.339,62.4820,0.015009
134.371,62.4886,0.015009
134.402,62.4947,0.015009
134.433,62.5010,0.015009
134.464,62.5071,0.014999
134.495,62.5134,0.014999
134.526,62.5195,0.014999
134.557,62.5257,0.014999
134.588,62.5319,0.014999
134.619,62.5380,0.014999
134.650,62.5443,0.014999
134.681,62.5504,0.014933
134.712,62.5566,0.014933
134.743,62.5628,0.014933
134.775,62.5693,0.014933
134.805,62.5753,0.014933
134.837,62.5816,0.014933
134.868,62.5878,0.014933
134.900,62.5943,0.014933
134.931,62.6006,0.014971
134.963,62.6069,0.014971
134.995,62.6131,0.014971
135.025,62.6193,0.014971
135.057,62.6256,0.014971
135.089,62.6321,0.014971
135.119,62.6380,0.014971
135.151,62.6445,0.014971
135.182,62.6507,0.014961
135.213,62.6570,0.014961
135.244,62.6630,0.014961
135.276,62.6695,0.014961
135.306,62.6755,0.014961
135.338,62.6819,0.014961
135.370,62.6881,0.014961
135.401,62.6946,0.014961
135.433,62.7007,0.014990
135.463,62.7070,0.014990
135.494,62.7131,0.014990
135.525,62.7191,0.014990
135.556,62.7253,0.014990
135.587,62.7316,0.014990
135.618,62.7379,0.014990
135.649,62.7440,0.014980
135.680,62.7502,0.014980
135.710,62.7564,0.014980
135.742,62.7626,0.014980
135.771,62.7685,0.014980
135.803,62.7747,0.014980
135.833,62.7809,0.014980
135.864,62.7870,0.014980
135.895,62.7932,0.014980
135.926,62.7995,0.014971
135.957,62.8058,0.014971
135.989,62.8119,0.014971
136.020,62.8181,0.014971
136.052,62.8246,0.014971
136.083,62.8309,0.014971
136.115,62.8372,0.014971
136.146,62.8434,0.015027
136.177,62.8496,0.015027
136.208,62.8558,0.015027
136.238,62.8619,0.015027
136.269,62.8682,0.015027
136.301,62.8744,0.015027
136.332,62.8809,0.015027
136.363,62.8868,0.015027
136.394,62.8932,0.015027
136.425,62.8992,0.015018
136.456,62.9054,0.015018
136.487,62.9118,0.015018
136.519,62.9181,0.015018
136.550,62.9242,0.015018
136.582,62.9307,0.015018
136.613,62.9369,0.015018
136.643,62.9428,0.015009
136.675,62.9491,0.015009
136.705,62.9553,0.015009
136.736,62.9615,0.015009
136.767,62.9674,0.015009
136.797,62.9736,0.015009
136.828,62.9797,0.015009
136.859,62.9860,0.015009
136.891,62.9924,0.015009
136.921,62.9986,0.014980
136.953,63.0048,0.014980
136.984,63.0110,0.014980
137.015,63.0173,0.014980
137.047,63.0235,0.014980
137.078,63.0300,0.014980
137.109,63.0360,0.014980
137.141,63.0424,0.014980
137.170,63.0482,0.014961
137.201,63.0544,0.014961
137.234,63.0610,0.014961
137.264,63.0670,0.014961
137.295,63.0732,0.014961
137.326,63.0794,0.014961
137.357,63.0856,0.014961
137.388,63.0918,0.014961
137.419,63.0980,0.014971
137.450,63.1042,0.014971
137.482,63.1107,0.014971
137.511,63.1166,0.014971
137.544,63.1231,0.014971
137.574,63.1292,0.014971
137.605,63.1352,0.014971
137.636,63.1414,0.014971
137.668,63.1478,0.014961
137.699,63.1540,0.014961
137.731,63.1603,0.014961
137.762,63.1669,0.014961
137.792,63.1726,0.014961
137.825,63.1792,0.014961
137.857,63.1857,0.014961
137.887,63.1917,0.014971
137.919,63.1980,0.014971
137.950,63.2043,0.014971
137.981,63.2103,0.014971
138.010,63.2164,0.014971
138.042,63.2226,0.014971
138.071,63.2286,0.014971
138.101,63.2345,0.014971
138.133,63.2409,0.014971
138.165,63.2472,0.014990
138.195,63.2533,0.014990
138.227,63.2595,0.014990
138.257,63.2658,0.014990
138.287,63.2717,0.014990
138.318,63.2779,0.014990
138.349,63.2842,0.014990
138.380,63.2902,0.015009
138.411,63.2966,0.015009
138.442,63.3027,0.015009
138.473,63.3090,0.015009
138.505,63.3151,0.015009
138.535,63.3213,0.015009
138.567,63.3275,0.015009
138.598,63.3338,0.015009
138.630,63.3401,0.015009
138.661,63.3463,0.014980
138.692,63.3525,0.014980
138.723,63.3589,0.014980
138.754,63.3649,0.014980
138.784,63.3710,0.014980
138.816,63.3773,0.014980
138.848,63.3837,0.014980
138.879,63.3901,0.014980
138.910,63.3962,0.014990
138.943,63.4029,0.014990
138.972,63.4087,0.014990
139.003,63.4149,0.014990
139.035,63.4211,0.014990
139.066,63.4273,0.014990
139.096,63.4336,0.014990
139.127,63.4397,0.014971
139.158,63.4459,0.014971
139.189,63.4519,0.014971
139.221,63.4585,0.014971
139.252,63.4647,0.014971
139.283,63.4709,0.014971
139.314,63.4771,0.014971
139.345,63.4833,0.014971
139.376,63.4895,0.014971
139.407,63.4958,0.014961
139.439,63.5021,0.014961
139.470,63.5083,0.014961
139.500,63.5143,0.014961
139.531,63.5203,0.014961
139.562,63.5265,0.014961
139.594,63.5330,0.014961
139.625,63.5391,0.014961
139.657,63.5455,0.015018
139.688,63.5518,0.015018
139.719,63.5579,0.015018
139.750,63.5642,0.015018
139.780,63.5702,0.015018
139.812,63.5765,0.015018
139.843,63.5828,0.015018
139.873,63.5889,0.015018
139.904,63.5951,0.015018
139.935,63.6012,0.015018
139.967,63.6075,0.015018
139.997,63.6137,0.015018
140.029,63.6202,0.015018
140.061,63.6263,0.015018
140.092,63.6327,0.015018
140.123,63.6388,0.015018
140.155,63.6452,0.015018
140.185,63.6512,0.015009
140.217,63.6576,0.015009
140.248,63.6638,0.015009
140.280,63.6703,0.015009
140.311,63.6764,0.015009
140.343,63.6828,0.015009
140.374,63.6890,0.015009
140.405,63.6953,0.015009
140.437,63.7015,0.014961
140.467,63.7076,0.014961
140.499,63.7139,0.014961
140.529,63.7200,0.014961
140.560,63.7262,0.014961
140.590,63.7323,0.014961
140.621,63.7385,0.014961
140.652,63.7446,0.014961
140.683,63.7509,0.014980
140.714,63.7570,0.014980
140.745,63.7633,0.014980
140.775,63.7690,0.014980
140.807,63.7743,0.014980
140.838,63.7788,0.014980
140.869,63.7825,0.014980
140.900,63.7855,0.014980
140.932,63.7877,0.015027
140.963,63.7893,0.015027
140.994,63.7901,0.015027
141.025,63.7902,0.015027
141.056,63.7902,0.015027
141.087,63.7902,0.015027
141.117,63.7902,0.015027
141.148,63.7902,0.015027
141.179,63.7902,0.015046
141.210,63.7902,0.015046
141.242,63.7902,0.015046
141.273,63.7902,0.015046
141.305,63.7902,0.015046
141.336,63.7902,0.015046
141.367,63.7902,0.015046
141.397,63.7902,0.015027
141.429,63.7902,0.015027
141.460,63.7902,0.015027
141.491,63.7902,0.015027
141.521,63.7902,0.015027
141.553,63.7902,0.015027
141.584,63.7902,0.015027
141.615,63.7902,0.015027
141.646,63.7902,0.014952
141.677,63.7902,0.014952
141.708,63.7902,0.014952
141.739,63.7902,0.014952
141.770,63.7902,0.014952
141.802,63.7902,0.014952
141.833,63.7902,0.014952
141.866,63.7902,0.014952
141.895,63.7902,0.014961
141.926,63.7902,0.014961
141.957,63.7902,0.014961
141.987,63.7902,0.014961
142.018,63.7902,0.014961
142.049,63.7902,0.014961
142.081,63.7902,0.014961
142.112,63.7902,0.014961
142.143,63.7902,0.014990
142.173,63.7902,0.014990
142.204,63.7902,0.014990
142.235,63.7902,0.014990
142.267,63.7902,0.014990
142.298,63.7902,0.014990
142.328,63.7902,0.014990
142.360,63.7902,0.014990
142.391,63.7902,0.014990
142.422,63.7902,0.014990
142.454,63.7902,0.014990
142.485,63.7902,0.014990
142.516,63.7902,0.014990
142.546,63.7902,0.014990
142.579,63.7902,0.014990
142.609,63.7902,0.014990
142.640,63.7902,0.014999
142.672,63.7902,0.014999
142.705,63.7902,0.014999
142.734,63.7902,0.014999
142.765,63.7902,0.014999
142.796,63.7902,0.014999
142.827,63.7902,0.014999
142.858,63.7902,0.014999
142.889,63.7902,0.014999
142.920,63.7902,0.014999
142.951,63.7902,0.015027
142.981,63.7902,0.015027
143.012,63.7902,0.015027
143.043,63.7902,0.015027
143.074,63.7902,0.015027
143.106,63.7902,0.015027
143.138,63.7902,0.015027
143.170,63.7902,0.015037
143.201,63.7902,0.015037
143.232,63.7902,0.015037
143.263,63.7902,0.015037
143.294,63.7902,0.015037
143.324,63.7902,0.015037
143.355,63.7902,0.015037
143.386,63.7902,0.015037
143.417,63.7902,0.015037
143.447,63.7902,0.014999
143.479,63.7902,0.014999
143.509,63.7902,0.014999
143.541,63.7902,0.014999
143.572,63.7902,0.014999
143.604,63.7902,0.014999
143.636,63.7902,0.014999
143.666,63.7902,0.014999
143.698,63.7902,0.014971
143.730,63.7902,0.014971
143.762,63.7902,0.014971
143.793,63.7902,0.014971
143.825,63.7902,0.014971
143.855,63.7902,0.014971
143.887,63.7902,0.014971
143.917,63.7902,0.014933
143.948,63.7902,0.014933
143.979,63.7902,0.014933
144.010,63.7902,0.014933
144.040,63.7902,0.014933
144.072,63.7902,0.014933
144.103,63.7902,0.014933
144.134,63.7902,0.014933
144.165,63.7902,0.014933
144.196,63.7902,0.014990
144.227,63.7902,0.014990
144.257,63.7902,0.014990
144.288,63.7902,0.014990
144.320,63.7902,0.014990
144.351,63.7902,0.014990
144.383,63.7902,0.014990
144.414,63.7902,0.014990
144.445,63.7902,0.015037
144.476,63.7902,0.015037
144.506,63.7902,0.015037
144.536,63.7902,0.015037
144.568,63.7902,0.015037
144.598,63.7902,0.015037
144.630,63.7902,0.015037
144.660,63.7902,0.015037
144.691,63.7902,0.015037
144.722,63.7902,0.015037
144.753,63.7902,0.015037
144.784,63.7902,0.015037
144.815,63.7902,0.015037
144.847,63.7902,0.015037
144.878,63.7902,0.015037
144.909,63.7902,0.015037
144.940,63.7902,0.015037
144.971,63.7902,0.015037
145.001,63.7902,0.015037
145.032,63.7902,0.015037
145.064,63.7902,0.015037
145.095,63.7902,0.015037
145.126,63.7902,0.015037
145.157,63.7902,0.015037
145.187,63.7902,0.015018
145.219,63.7902,0.015018
145.250,63.7902,0.015018
145.281,63.7902,0.015018
145.312,63.7902,0.015018
145.343,63.7902,0.015018
145.374,63.7902,0.015018
145.404,63.7902,0.015037
145.435,63.7902,0.015037
145.467,63.7902,0.015037
145.498,63.7902,0.015037
145.528,63.7902,0.015037
145.560,63.7902,0.015037
145.592,63.7902,0.015037
145.622,63.7901,0.015037
145.653,63.7893,0.014990
145.684,63.7879,0.014990
145.716,63.7856,0.014990
145.746,63.7826,0.014990
145.777,63.7791,0.014990
145.808,63.7745,0.014990
145.840,63.7694,0.014990
145.871,63.7633,0.014990
145.903,63.7571,0.015056
145.935,63.7508,0.015056
145.966,63.7445,0.015056
145.998,63.7380,0.015056
146.030,63.7317,0.015056
146.061,63.7254,0.015056
146.092,63.7193,0.015056
146.123,63.7131,0.015056
146.153,63.7071,0.015093
146.184,63.7009,0.015093
146.215,63.6948,0.015093
146.246,63.6885,0.015093
146.276,63.6826,0.015093
146.307,63.6762,0.015093
146.338,63.6702,0.015093
146.369,63.6638,0.015093
146.400,63.6578,0.014999
146.431,63.6516,0.014999
146.461,63.6454,0.014999
146.492,63.6393,0.014999
146.523,63.6330,0.014999
146.554,63.6269,0.014999
146.585,63.6207,0.014999
146.617,63.6143,0.014999
146.648,63.6081,0.014999
146.678,63.6021,0.014999
146.709,63.5960,0.014999
146.740,63.5898,0.014999
146.771,63.5836,0.014999
146.803,63.5771,0.014999
146.834,63.5709,0.014999
146.866,63.5646,0.014999
146.898,63.5582,0.015018
146.929,63.5521,0.015018
146.960,63.5458,0.015018
146.993,63.5392,0.015018
147.023,63.5331,0.015018
147.055,63.5267,0.015018
147.086,63.5206,0.015018
147.117,63.5143,0.015018
147.147,63.5081,0.014980
147.178,63.5020,0.014980
147.210,63.4958,0.014980
147.239,63.4898,0.014980
147.270,63.4835,0.014980
147.302,63.4773,0.014980
147.333,63.4710,0.014980
147.365,63.4648,0.014980
147.395,63.4586,0.015018
147.426,63.4524,0.015018
147.458,63.4460,0.015018
147.489,63.4400,0.015018
147.520,63.4335,0.015018
147.552,63.4274,0.015018
147.583,63.4211,0.015018
147.615,63.4147,0.015018
147.647,63.4083,0.015027
147.678,63.4020,0.015027
147.709,63.3959,0.015027
147.740,63.3897,0.015027
147.769,63.3838,0.015027
147.800,63.3777,0.015027
147.831,63.3715,0.015027
147.864,63.3651,0.015027
147.894,63.3590,0.015018
147.925,63.3527,0.015018
147.957,63.3462,0.015018
147.988,63.3403,0.015018
148.019,63.3338,0.015018
148.051,63.3276,0.015018
148.083,63.3213,0.015018
148.114,63.3148,0.015018
148.144,63.3089,0.015009
148.175,63.3028,0.015009
148.206,63.2965,0.015009
148.238,63.2903,0.015009
148.268,63.2841,0.015009
148.298,63.2780,0.015009
148.330,63.2718,0.015009
148.361,63.2655,0.015009
148.392,63.2594,0.014999
148.423,63.2529,0.014999
148.454,63.2469,0.014999
148.486,63.2405,0.014999
148.518,63.2341,0.014999
148.549,63.2279,0.014999
148.581,63.2216,0.014999
148.612,63.2152,0.014999
148.643,63.2092,0.015027
148.674,63.2030,0.015027
148.704,63.1968,0.015027
148.736,63.1906,0.015027
148.767,63.1844,0.015027
148.799,63.1780,0.015027
148.829,63.1720,0.015027
148.861,63.1656,0.015027
148.891,63.1597,0.014999
148.923,63.1531,0.014999
148.953,63.1470,0.014999
148.984,63.1408,0.014999
149.014,63.1349,0.014999
149.046,63.1285,0.014999
149.076,63.1226,0.014999
149.106,63.1163,0.014999
149.136,63.1106,0.014971
149.168,63.1040,0.014971
149.200,63.0978,0.014971
149.231,63.0916,0.014971
149.262,63.0853,0.014971
149.294,63.0791,0.014971
149.325,63.0726,0.014971
149.355,63.0668,0.014971
149.386,63.0606,0.014971
149.418,63.0539,0.014999
149.448,63.0481,0.014999
149.480,63.0419,0.014999
149.510,63.0358,0.014999
149.541,63.0297,0.014999
149.573,63.0231,0.014999
149.603,63.0171,0.014999
149.635,63.0107,0.014999
149.666,63.0047,0.015046
149.697,62.9983,0.015046
149.729,62.9919,0.015046
149.759,62.9859,0.015046
149.789,62.9800,0.015046
149.820,62.9738,0.015046
149.851,62.9676,0.015046
149.883,62.9610,0.015046
149.913,62.9552,0.015037
149.945,62.9487,0.015037
149.978,62.9420,0.015037
150.008,62.9362,0.015037
150.038,62.9301,0.015037
150.069,62.9238,0.015037
150.100,62.9178,0.015037
150.130,62.9116,0.015037
150.161,62.9056,0.015018
150.193,62.8990,0.015018
150.224,62.8929,0.015018
150.255,62.8867,0.015018
150.286,62.8805,0.015018
150.317,62.8744,0.015018
150.348,62.8681,0.015018
150.379,62.8620,0.015018
150.410,62.8558,0.015027
150.441,62.8495,0.015027
150.472,62.8433,0.015027
150.503,62.8371,0.015027
150.535,62.8306,0.015027
150.565,62.8248,0.015027
150.595,62.8187,0.015027
150.625,62.8128,0.015027
150.656,62.8066,0.015027
150.687,62.8001,0.015027
150.719,62.7941,0.015027
150.750,62.7877,0.015027
150.780,62.7818,0.015027
150.812,62.7755,0.015027
150.842,62.7693,0.015027
150.873,62.7632,0.014990
150.904,62.7570,0.014990
150.935,62.7508,0.014990
150.965,62.7447,0.014990
150.996,62.7385,0.014990
151.027,62.7323,0.014990
151.058,62.7262,0.014990
151.088,62.7200,0.014990
151.120,62.7138,0.014990
151.151,62.7075,0.014990
151.182,62.7012,0.015027
151.214,62.6951,0.015027
151.245,62.6889,0.015027
151.276,62.6824,0.015027
151.307,62.6762,0.015027
151.338,62.6699,0.015027
151.369,62.6640,0.015027
151.400,62.6576,0.015027
151.431,62.6516,0.014999
151.462,62.6454,0.014999
151.493,62.6393,0.014999
151.523,62.6331,0.014999
151.554,62.6269,0.014999
151.585,62.6205,0.014999
151.617,62.6143,0.014999
151.648,62.6081,0.014999
151.679,62.6021,0.014905
151.709,62.5959,0.014905
151.741,62.5895,0.014905
151.773,62.5832,0.014905
151.804,62.5770,0.014905
151.835,62.5707,0.014905
151.867,62.5645,0.014905
151.899,62.5580,0.014905
151.929,62.5518,0.014933
151.960,62.5458,0.014933
151.991,62.5396,0.014933
152.022,62.5334,0.014933
152.053,62.5273,0.014933
152.084,62.5208,0.014933
152.115,62.5148,0.014933
152.146,62.5084,0.015027
152.176,62.5026,0.015027
152.208,62.4962,0.015027
152.238,62.4901,0.015027
152.270,62.4836,0.015027
152.302,62.4774,0.015027
152.334,62.4710,0.015027
152.365,62.4649,0.015027
152.396,62.4585,0.015027
152.428,62.4521,0.015065
152.460,62.4458,0.015065
152.492,62.4392,0.015065
152.523,62.4332,0.015065
152.553,62.4272,0.015065
152.585,62.4207,0.015065
152.615,62.4149,0.015065
152.646,62.4085,0.015065
152.677,62.4023,0.015018
152.708,62.3962,0.015018
152.738,62.3901,0.015018
152.769,62.3840,0.015018
152.801,62.3775,0.015018
152.831,62.3715,0.015018
152.862,62.3653,0.015018
152.892,62.3594,0.015018
152.923,62.3532,0.015009
152.954,62.3471,0.015009
152.985,62.3408,0.015009
153.017,62.3344,0.015009
153.049,62.3279,0.015009
153.079,62.3218,0.015009
153.109,62.3159,0.015009
153.141,62.3096,0.015046
153.172,62.3034,0.015046
153.203,62.2972,0.015046
153.235,62.2908,0.015046
153.265,62.2848,0.015046
153.296,62.2785,0.015046
153.326,62.2727,0.015046
153.357,62.2662,0.015046
153.389,62.2600,0.015027
153.420,62.2538,0.015027
153.450,62.2477,0.015027
153.482,62.2413,0.015027
153.513,62.2351,0.015027
153.545,62.2286,0.015027
153.578,62.2222,0.015027
153.607,62.2162,0.015027
153.639,62.2099,0.015027
153.670,62.2038,0.015027
153.703,62.1970,0.014980
153.733,62.1912,0.014980
153.764,62.1851,0.014980
153.795,62.1788,0.014980
153.826,62.1726,0.014980
153.857,62.1663,0.014980
153.889,62.1601,0.014980
153.919,62.1538,0.014980
153.950,62.1478,0.014980
153.982,62.1413,0.014980
154.012,62.1355,0.014980
154.042,62.1292,0.014980
154.073,62.1232,0.014980
154.105,62.1166,0.014980
154.136,62.1106,0.014980
154.168,62.1040,0.014980
154.199,62.0980,0.015009
154.231,62.0917,0.015009
154.261,62.0856,0.015009
154.291,62.0796,0.015009
154.322,62.0732,0.015009
154.354,62.0670,0.015009
154.385,62.0608,0.015009
154.416,62.0545,0.015037
154.447,62.0484,0.015037
154.478,62.0422,0.015037
154.510,62.0357,0.015037
154.540,62.0297,0.015037
154.571,62.0236,0.015037
154.602,62.0174,0.015037
154.633,62.0112,0.015037
154.664,62.0049,0.015037
154.696,61.9987,0.015027
154.726,61.9925,0.015027
154.758,61.9862,0.015027
154.789,61.9798,0.015027
154.820,61.9738,0.015027
154.851,61.9676,0.015027
154.882,61.9614,0.015027
154.913,61.9549,0.015056
154.944,61.9487,0.015056
154.976,61.9425,0.015056
155.007,61.9362,0.015056
155.039,61.9300,0.015056
155.069,61.9238,0.015056
155.100,61.9176,0.015056
155.131,61.9114,0.015056
155.163,61.9053,0.015056
155.194,61.8989,0.015027
155.226,61.8925,0.015027
155.258,61.8861,0.015027
155.288,61.8801,0.015027
155.320,61.8738,0.015027
155.350,61.8679,0.015027
155.381,61.8617,0.015027
155.412,61.8554,0.014980
155.443,61.8492,0.014980
155.474,61.8429,0.014980
155.505,61.8368,0.014980
155.535,61.8308,0.014980
155.566,61.8246,0.014980
155.597,61.8184,0.014980
155.628,61.8122,0.014980
155.659,61.8060,0.014980
155.691,61.7996,0.015037
155.723,61.7932,0.015037
155.753,61.7871,0.015037
155.785,61.7807,0.015037
155.817,61.7745,0.015037
155.848,61.7681,0.015037
155.880,61.7617,0.015037
155.910,61.7557,0.015037
155.943,61.7492,0.015075
155.972,61.7433,0.015075
156.003,61.7371,0.015075
156.034,61.7309,0.015075
156.065,61.7249,0.015075
156.096,61.7185,0.015075
156.128,61.7122,0.015075
156.158,61.7061,0.015027
156.189,61.7000,0.015027
156.220,61.6937,0.015027
156.251,61.6876,0.015027
156.282,61.6813,0.015027
156.314,61.6749,0.015027
156.345,61.6688,0.015027
156.375,61.6628,0.015027
156.405,61.6566,0.015027
156.436,61.6506,0.014933
156.467,61.6444,0.014933
156.498,61.6382,0.014933
156.529,61.6320,0.014933
156.560,61.6256,0.014933
156.591,61.6196,0.014933
156.622,61.6134,0.014933
156.654,61.6072,0.014914
156.684,61.6010,0.014914
156.715,61.5949,0.014914
156.746,61.5887,0.014914
156.777,61.5823,0.014914
156.808,61.5763,0.014914
156.839,61.5699,0.014914
156.871,61.5637,0.014914
156.902,61.5574,0.014914
156.932,61.5513,0.014980
156.963,61.5450,0.014980
156.994,61.5389,0.014980
157.026,61.5326,0.014980
157.058,61.5262,0.014980
157.088,61.5202,0.014980
157.119,61.5139,0.014980
157.150,61.5078,0.015046
157.180,61.5019,0.015046
157.211,61.4957,0.015046
157.242,61.4893,0.015046
157.273,61.4833,0.015046
157.303,61.4772,0.015046
157.335,61.4709,0.015046
157.366,61.4647,0.015046
157.397,61.4583,0.015046
157.428,61.4521,0.015046
157.460,61.4458,0.015046
157.491,61.4396,0.015046
157.521,61.4334,0.015046
157.553,61.4273,0.015046
157.583,61.4211,0.015046
157.614,61.4150,0.015046
157.645,61.4088,0.014990
157.675,61.4026,0.014990
157.708,61.3962,0.014990
157.738,61.3901,0.014990
157.769,61.3840,0.014990
157.800,61.3777,0.014990
157.831,61.3716,0.014990
157.862,61.3653,0.014990
157.893,61.3592,0.015027
157.926,61.3527,0.015027
157.956,61.3466,0.015027
157.988,61.3401,0.015027
158.019,61.3341,0.015027
158.050,61.3277,0.015027
158.081,61.3217,0.015027
158.112,61.3155,0.015027
158.143,61.3092,0.015037
158.173,61.3032,0.015037
158.204,61.2966,0.015037
158.235,61.2906,0.015037
158.267,61.2843,0.015037
158.297,61.2784,0.015037
158.327,61.2723,0.015037
158.359,61.2661,0.015037
158.389,61.2600,0.015027
158.420,61.2537,0.015027
158.451,61.2477,0.015027
158.482,61.2414,0.015027
158.513,61.2352,0.015027
158.544,61.2289,0.015027
158.575,61.2227,0.015027
158.606,61.2165,0.015027
158.638,61.2103,0.015075
158.669,61.2041,0.015075
158.700,61.1976,0.015075
158.731,61.1917,0.015075
158.762,61.1854,0.015075
158.793,61.1791,0.015075
158.824,61.1729,0.015075
158.856,61.1667,0.015075
158.887,61.1603,0.015075
158.919,61.1541,0.015046
158.949,61.1478,0.015046
158.980,61.1418,0.015046
159.011,61.1355,0.015046
159.042,61.1294,0.015046
159.073,61.1230,0.015046
159.104,61.1169,0.015046
159.136,61.1106,0.015046
159.166,61.1045,0.015056
159.197,61.0983,0.015056
159.228,61.0920,0.015056
159.260,61.0859,0.015056
159.291,61.0797,0.015056
159.322,61.0734,0.015056
159.352,61.0675,0.015056
159.383,61.0612,0.015056
159.414,61.0551,0.015027
159.444,61.0489,0.015027
159.475,61.0428,0.015027
159.506,61.0365,0.015027
159.538,61.0302,0.015027
159.570,61.0239,0.015027
159.601,61.0175,0.015027
159.632,61.0113,0.015027
159.664,61.0051,0.015009
159.695,60.9987,0.015009
159.726,60.9927,0.015009
159.757,60.9865,0.015009
159.788,60.9802,0.015009
159.819,60.9740,0.015009
159.849,60.9678,0.015009
159.881,60.9616,0.015009
159.912,60.9554,0.014961
159.942,60.9493,0.014961
159.973,60.9430,0.014961
160.005,60.9368,0.014961
160.036,60.9305,0.014961
160.067,60.9244,0.014961
160.099,60.9180,0.014961
160.129,60.9119,0.014961
160.160,60.9056,0.014971
160.191,60.8996,0.014971
160.222,60.8935,0.014971
160.253,60.8872,0.014971
160.284,60.8810,0.014971
160.315,60.8747,0.014971
160.345,60.8687,0.014971
160.376,60.8625,0.014971
160.409,60.8561,0.015037
160.439,60.8501,0.015037
160.469,60.8438,0.015037
160.501,60.8377,0.015037
160.532,60.8314,0.015037
160.563,60.8253,0.015037
160.594,60.8190,0.015037
160.625,60.8129,0.015037
160.655,60.8068,0.015037
160.686,60.8006,0.015037
160.717,60.7943,0.015037
160.748,60.7881,0.015037
160.779,60.7819,0.015037
160.811,60.7757,0.015037
160.842,60.7695,0.015037
160.873,60.7632,0.015037
160.904,60.7580,0.015037
160.935,60.7531,0.015037
160.966,60.7492,0.014990
160.996,60.7461,0.014990
161.027,60.7435,0.014990
161.058,60.7417,0.014990
161.090,60.7406,0.014990
161.120,60.7402,0.014990
161.151,60.7402,0.014990
161.183,60.7402,0.014914
161.214,60.7402,0.014914
161.246,60.7402,0.014914
161.276,60.7402,0.014914
161.307,60.7402,0.014914
161.339,60.7405,0.014914
161.370,60.7416,0.014914
161.401,60.7433,0.014914
161.432,60.7458,0.014924
161.462,60.7490,0.014924
161.493,60.7529,0.014924
161.524,60.7575,0.014924
161.555,60.7628,0.014924
161.586,60.7689,0.014924
161.616,60.7750,0.014924
161.648,60.7813,0.014924
161.679,60.7875,0.014867
161.710,60.7937,0.014867
161.742,60.8000,0.014867
161.772,60.8062,0.014867
161.804,60.8125,0.014867
161.835,60.8187,0.014867
161.866,60.8249,0.014867
161.897,60.8311,0.014952
161.928,60.8372,0.014952
161.959,60.8437,0.014952
161.990,60.8496,0.014952
162.021,60.8558,0.014952
162.052,60.8621,0.014952
162.082,60.8681,0.014952
162.113,60.8743,0.014952
162.144,60.8805,0.015075
162.175,60.8868,0.015075
162.205,60.8928,0.015075
162.237,60.8992,0.015075
162.269,60.9056,0.015075
162.300,60.9118,0.015075
162.332,60.9181,0.015075
162.363,60.9245,0.015075
162.395,60.9307,0.015018
162.427,60.9372,0.015018
162.458,60.9434,0.015018
162.489,60.9495,0.015018
162.521,60.9559,0.015018
162.552,60.9621,0.015018
162.584,60.9684,0.015018
162.615,60.9746,0.015018
162.646,60.9810,0.015009
162.676,60.9869,0.015009
162.708,60.9932,0.015009
162.738,60.9994,0.015009
162.770,61.0056,0.015009
162.801,61.0118,0.015009
162.831,61.0179,0.015009
162.862,61.0240,0.015009
162.892,61.0301,0.015018
162.923,61.0363,0.015018
162.954,61.0426,0.015018
162.986,61.0489,0.015018
163.018,61.0552,0.015018
163.049,61.0616,0.015018
163.080,61.0677,0.015018
163.111,61.0739,0.015018
163.141,61.0799,0.015018
163.172,61.0863,0.015056
163.204,61.0925,0.015056
163.235,61.0987,0.015056
163.266,61.1051,0.015056
163.298,61.1112,0.015056
163.329,61.1176,0.015056
163.360,61.1237,0.015056
163.391,61.1300,0.015027
163.422,61.1362,0.015027
163.454,61.1427,0.015027
163.485,61.1486,0.015027
163.516,61.1551,0.015027
163.548,61.1614,0.015027
163.580,61.1679,0.015027
163.611,61.1741,0.015027
163.643,61.1804,0.014999
163.674,61.1865,0.014999
163.705,61.1927,0.014999
163.735,61.1987,0.014999
163.767,61.2051,0.014999
163.798,61.2113,0.014999
163.828,61.2173,0.014999
163.859,61.2235,0.014999
163.891,61.2300,0.014999
163.922,61.2361,0.014999
163.954,61.2424,0.014999
163.985,61.2489,0.014999
164.016,61.2549,0.014999
164.047,61.2613,0.014999
164.078,61.2672,0.014999
164.109,61.2735,0.014999
164.140,61.2796,0.015009
164.171,61.2859,0.015009
164.202,61.2923,0.015009
164.234,61.2985,0.015009
164.265,61.3047,0.015009
164.296,61.3111,0.015009
164.328,61.3172,0.015009
164.358,61.3234,0.015009
164.389,61.3296,0.015009
164.420,61.3358,0.015009
164.451,61.3419,0.015056
164.482,61.3483,0.015056
164.514,61.3544,0.015056
164.545,61.3607,0.015056
164.576,61.3668,0.015056
164.606,61.3731,0.015056
164.636,61.3790,0.015056
164.667,61.3852,0.015056
164.699,61.3915,0.015056
164.730,61.3977,0.015056
164.761,61.4040,0.015056
164.793,61.4102,0.015056
164.824,61.4167,0.015056
164.855,61.4227,0.015056
164.887,61.4292,0.015056
164.918,61.4353,0.014980
164.950,61.4418,0.014980
164.981,61.4478,0.014980
165.013,61.4544,0.014980
165.044,61.4604,0.014980
165.075,61.4669,0.014980
165.105,61.4727,0.014980
165.136,61.4789,0.014980
165.167,61.4851,0.014933
165.198,61.4914,0.014933
165.230,61.4976,0.014933
165.261,61.5040,0.014933
165.292,61.5100,0.014933
165.322,61.5162,0.014933
165.354,61.5226,0.014933
165.385,61.5286,0.014933
165.416,61.5351,0.014896
165.448,61.5413,0.014896
165.479,61.5476,0.014896
165.510,61.5537,0.014896
165.542,61.5601,0.014896
165.572,61.5661,0.014896
165.603,61.5724,0.014896
165.635,61.5788,0.014896
165.666,61.5850,0.014924
165.696,61.5909,0.014924
165.727,61.5972,0.014924
165.759,61.6036,0.014924
165.789,61.6094,0.014924
165.819,61.6155,0.014924
165.850,61.6217,0.014924
165.881,61.6280,0.014924
165.912,61.6341,0.014990
165.943,61.6403,0.014990
165.974,61.6466,0.014990
166.004,61.6527,0.014990
166.035,61.6587,0.014990
166.066,61.6649,0.014990
166.097,61.6712,0.014990
166.129,61.6775,0.014990
166.160,61.6837,0.014990
166.192,61.6901,0.014990
166.224,61.6965,0.014990
166.254,61.7025,0.014990
166.286,61.7087,0.014990
166.317,61.7151,0.014990
166.348,61.7214,0.014990
166.378,61.7272,0.014990
166.409,61.7335,0.015046
166.440,61.7399,0.015046
166.471,61.7458,0.015046
166.502,61.7521,0.015046
166.535,61.7587,0.015046
166.564,61.7645,0.015046
166.595,61.7706,0.015046
166.626,61.7769,0.015046
166.657,61.7831,0.015075
166.688,61.7895,0.015075
166.719,61.7954,0.015075
166.751,61.8019,0.015075
166.781,61.8079,0.015075
166.812,61.8140,0.015075
166.843,61.8202,0.015075
166.874,61.8266,0.015075
166.905,61.8328,0.015056
166.937,61.8390,0.015056
166.968,61.8452,0.015056
166.998,61.8514,0.015056
167.029,61.8578,0.015056
167.061,61.8640,0.015056
167.093,61.8702,0.015056
167.123,61.8765,0.015056
167.155,61.8827,0.015046
167.186,61.8889,0.015046
167.217,61.8950,0.015046
167.247,61.9012,0.015046
167.278,61.9073,0.015046
167.310,61.9137,0.015046
167.341,61.9198,0.015046
167.372,61.9260,0.015046
167.402,61.9321,0.015046
167.433,61.9383,0.015037
167.464,61.9446,0.015037
167.496,61.9507,0.015037
167.527,61.9571,0.015037
167.558,61.9636,0.015037
167.589,61.9696,0.015037
167.621,61.9759,0.015037
167.651,61.9818,0.015037
167.682,61.9882,0.014980
167.713,61.9942,0.014980
167.744,62.0006,0.014980
167.774,62.0065,0.014980
167.804,62.0127,0.014980
167.836,62.0189,0.014980
167.867,62.0252,0.014980
167.899,62.0316,0.014980
167.931,62.0378,0.015009
167.961,62.0440,0.015009
167.992,62.0500,0.015009
168.023,62.0562,0.015009
168.054,62.0624,0.015009
168.086,62.0690,0.015009
168.116,62.0752,0.015009
168.148,62.0813,0.015009
168.179,62.0874,0.015037
168.210,62.0936,0.015037
168.240,62.0997,0.015037
168.272,62.1060,0.015037
168.303,62.1122,0.015037
168.333,62.1183,0.015037
168.364,62.1245,0.015037
168.395,62.1307,0.015037
168.425,62.1366,0.015018
168.456,62.1428,0.015018
168.487,62.1493,0.015018
168.519,62.1555,0.015018
168.550,62.1617,0.015018
168.581,62.1680,0.015018
168.612,62.1739,0.015018
168.643,62.1804,0.015018
168.673,62.1862,0.015018
168.705,62.1928,0.015018
168.735,62.1986,0.015018
168.766,62.2049,0.015018
168.797,62.2110,0.015018
168.829,62.2175,0.015018
168.860,62.2237,0.015018
168.892,62.2301,0.015018
168.923,62.2362,0.014971
168.955,62.2428,0.014971
168.986,62.2487,0.014971
169.017,62.2552,0.014971
169.048,62.2613,0.014971
169.079,62.2675,0.014971
169.111,62.2738,0.014971
169.142,62.2801,0.014971
169.173,62.2864,0.014943
169.205,62.2926,0.014943
169.235,62.2988,0.014943
169.267,62.3052,0.014943
169.297,62.3111,0.014943
169.329,62.3174,0.014943
169.361,62.3238,0.014943
169.391,62.3298,0.014943
169.423,62.3362,0.014961
169.453,62.3422,0.014961
169.484,62.3484,0.014961
169.515,62.3546,0.014961
169.547,62.3610,0.014961
169.578,62.3672,0.014961
169.609,62.3734,0.014961
169.640,62.3797,0.015009
169.671,62.3858,0.015009
169.702,62.3922,0.015009
169.735,62.3987,0.015009
169.765,62.4047,0.015009
169.795,62.4107,0.015009
169.827,62.4170,0.015009
169.857,62.4231,0.015009
169.888,62.4292,0.015009
169.919,62.4356,0.015027
169.950,62.4416,0.015027
169.980,62.4478,0.015027
170.011,62.4540,0.015027
170.042,62.4602,0.015027
170.073,62.4663,0.015027
170.105,62.4727,0.015027
170.136,62.4789,0.015018
170.167,62.4852,0.015018
170.198,62.4912,0.015018
170.228,62.4973,0.015018
170.260,62.5036,0.015018
170.290,62.5097,0.015018
170.322,62.5161,0.015018
170.352,62.5220,0.015018
170.383,62.5284,0.015018
170.414,62.5345,0.014971
170.444,62.5407,0.014971
170.475,62.5466,0.014971
170.505,62.5530,0.014971
170.536,62.5589,0.014971
170.568,62.5655,0.014971
170.599,62.5716,0.014971
170.630,62.5778,0.014971
170.661,62.5838,0.014971
170.693,62.5902,0.014971
170.725,62.5966,0.014971
170.755,62.6027,0.014971
170.786,62.6089,0.014971
170.817,62.6151,0.014971
170.848,62.6213,0.014971
170.879,62.6276,0.014971
170.910,62.6337,0.014999
170.941,62.6399,0.014999
170.972,62.6461,0.014999
171.002,62.6522,0.014999
171.034,62.6584,0.014999
171.064,62.6647,0.014999
171.095,62.6708,0.014999
171.127,62.6772,0.014999
171.159,62.6836,0.014980
171.191,62.6898,0.014980
171.221,62.6960,0.014980
171.252,62.7019,0.014980
171.283,62.7084,0.014980
171.314,62.7143,0.014980
171.345,62.7206,0.014980
171.377,62.7271,0.014980
171.407,62.7330,0.014980
171.438,62.7391,0.014961
171.469,62.7456,0.014961
171.500,62.7518,0.014961
171.531,62.7578,0.014961
171.562,62.7640,0.014961
171.593,62.7701,0.014961
171.624,62.7764,0.014961
171.654,62.7824,0.015009
171.685,62.7887,0.015009
171.716,62.7948,0.015009
171.747,62.8011,0.015009
171.779,62.8075,0.015009
171.809,62.8135,0.015009
171.841,62.8200,0.015009
171.872,62.8261,0.015009
171.902,62.8321,0.015009
171.934,62.8385,0.015009
171.965,62.8447,0.015009
171.996,62.8509,0.015009
172.028,62.8573,0.015009
172.059,62.8635,0.015009
172.090,62.8696,0.015009
172.120,62.8757,0.015009
172.152,62.8820,0.015009
172.184,62.8884,0.015009
172.215,62.8948,0.015009
172.247,62.9010,0.015009
172.278,62.9073,0.015009
172.310,62.9136,0.015009
172.341,62.9197,0.015009
172.372,62.9260,0.015009
172.403,62.9322,0.015027
172.434,62.9385,0.015027
172.465,62.9446,0.015027
172.496,62.9508,0.015027
172.526,62.9571,0.015027
172.557,62.9630,0.015027
172.588,62.9693,0.015027
172.619,62.9755,0.015027
172.651,62.9818,0.014980
172.682,62.9880,0.014980
172.714,62.9945,0.014980
172.746,63.0008,0.014980
172.776,63.0070,0.014980
172.807,63.0132,0.014980
172.839,63.0195,0.014980
172.870,63.0256,0.014980
172.902,63.0322,0.014961
172.933,63.0383,0.014961
172.964,63.0447,0.014961
172.996,63.0508,0.014961
173.026,63.0569,0.014961
173.057,63.0631,0.014961
173.089,63.0694,0.014961
173.119,63.0755,0.014961
173.150,63.0818,0.015027
173.181,63.0877,0.015027
173.212,63.0939,0.015027
173.242,63.1001,0.015027
173.274,63.1063,0.015027
173.305,63.1127,0.015027
173.335,63.1186,0.015027
173.367,63.1250,0.015027
173.397,63.1310,0.015018
173.429,63.1375,0.015018
173.460,63.1437,0.015018
173.492,63.1500,0.015018
173.523,63.1562,0.015018
173.555,63.1627,0.015018
173.586,63.1690,0.015018
173.618,63.1752,0.015018
173.649,63.1813,0.015018
173.680,63.1876,0.014990
173.711,63.1939,0.014990
173.742,63.2000,0.014990
173.773,63.2062,0.014990
173.804,63.2124,0.014990
173.835,63.2187,0.014990
173.867,63.2249,0.014990
173.898,63.2314,0.015009
173.929,63.2373,0.015009
173.960,63.2436,0.015009
173.991,63.2498,0.015009
174.022,63.2560,0.015009
174.053,63.2624,0.015009
174.084,63.2683,0.015009
174.115,63.2748,0.015009
174.147,63.2811,0.015009
174.177,63.2872,0.015009
174.208,63.2931,0.015009
174.239,63.2995,0.015009
174.270,63.3057,0.015009
174.301,63.3119,0.015009
174.332,63.3181,0.015009
174.363,63.3243,0.015009
174.394,63.3305,0.015037
174.426,63.3368,0.015037
174.457,63.3429,0.015037
174.488,63.3492,0.015037
174.519,63.3555,0.015037
174.551,63.3618,0.015037
174.583,63.3682,0.015037
174.614,63.3744,0.015037
174.646,63.3807,0.015027
174.676,63.3870,0.015027
174.708,63.3932,0.015027
174.740,63.3997,0.015027
174.771,63.4057,0.015027
174.802,63.4119,0.015027
174.833,63.4183,0.015027
174.864,63.4245,0.015027
174.895,63.4308,0.014961
174.927,63.4370,0.014961
174.957,63.4432,0.014961
174.989,63.4494,0.014961
175.020,63.4557,0.014961
175.052,63.4619,0.014961
175.083,63.4682,0.014961
175.114,63.4743,0.014961
175.144,63.4807,0.014961
175.176,63.4870,0.014961
175.208,63.4933,0.014961
175.240,63.4996,0.014961
175.271,63.5060,0.014961
175.303,63.5122,0.014961
175.333,63.5182,0.014961
175.365,63.5247,0.014961
175.396,63.5308,0.014980
175.427,63.5370,0.014980
175.457,63.5430,0.014980
175.489,63.5494,0.014980
175.519,63.5553,0.014980
175.550,63.5616,0.014980
175.581,63.5678,0.014980
175.612,63.5742,0.014980
175.644,63.5804,0.015027
175.674,63.5866,0.015027
175.704,63.5925,0.015027
175.736,63.5987,0.015027
175.767,63.6049,0.015027
175.798,63.6111,0.015027
175.829,63.6175,0.015027
175.860,63.6237,0.015027
175.891,63.6302,0.015018
175.922,63.6361,0.015018
175.953,63.6421,0.015018
175.984,63.6485,0.015018
176.016,63.6548,0.015018
176.047,63.6611,0.015018
176.079,63.6673,0.015018
176.110,63.6735,0.015018
176.142,63.6800,0.015046
176.173,63.6862,0.015046
176.206,63.6929,0.015046
176.236,63.6988,0.015046
176.267,63.7049,0.015046
176.298,63.7113,0.015046
176.329,63.7173,0.015046
176.360,63.7227,0.015046
176.391,63.7275,0.015009
176.422,63.7313,0.015009
176.453,63.7347,0.015009
176.485,63.7371,0.015009
176.515,63.7389,0.015009
176.546,63.7399,0.015009
176.577,63.7402,0.015009
176.608,63.7402,0.015009
176.639,63.7402,0.015009
176.671,63.7402,0.015009
176.702,63.7402,0.015065
176.732,63.7402,0.015065
176.763,63.7402,0.015065
176.794,63.7402,0.015065
176.826,63.7402,0.015065
176.856,63.7402,0.015065
176.888,63.7402,0.015065
176.920,63.7402,0.015046
176.951,63.7402,0.015046
176.982,63.7402,0.015046
177.013,63.7402,0.015046
177.043,63.7402,0.015046
177.074,63.7402,0.015046
177.105,63.7402,0.015046
177.135,63.7402,0.015046
177.167,63.7402,0.015046
177.197,63.7402,0.014961
177.228,63.7402,0.014961
177.260,63.7402,0.014961
177.291,63.7402,0.014961
177.322,63.7402,0.014961
177.353,63.7402,0.014961
177.385,63.7402,0.014961
177.416,63.7402,0.015009
177.447,63.7402,0.015009
177.478,63.7402,0.015009
177.508,63.7402,0.015009
177.539,63.7402,0.015009
177.570,63.7402,0.015009
177.602,63.7402,0.015009
177.631,63.7402,0.015009
177.663,63.7402,0.014999
177.695,63.7402,0.014999
177.726,63.7402,0.014999
177.758,63.7402,0.014999
177.788,63.7402,0.014999
177.820,63.7402,0.014999
177.851,63.7402,0.014999
177.882,63.7402,0.014999
177.913,63.7402,0.015009
177.944,63.7402,0.015009
177.975,63.7402,0.015009
178.006,63.7402,0.015009
178.038,63.7402,0.015009
178.069,63.7402,0.015009
178.100,63.7402,0.015009
178.131,63.7402,0.015009
178.162,63.7402,0.015018
178.192,63.7402,0.015018
178.223,63.7402,0.015018
178.254,63.7402,0.015018
178.284,63.7402,0.015018
178.315,63.7402,0.015018
178.347,63.7402,0.015018
178.377,63.7402,0.015018
178.408,63.7402,0.014990
178.439,63.7402,0.014990
178.470,63.7402,0.014990
178.502,63.7402,0.014990
178.532,63.7402,0.014990
178.563,63.7402,0.014990
178.594,63.7402,0.014990
178.626,63.7402,0.014990
178.657,63.7402,0.015018
178.689,63.7402,0.015018
178.719,63.7402,0.015018
178.751,63.7402,0.015018
178.781,63.7402,0.015018
178.812,63.7402,0.015018
178.842,63.7402,0.015018
178.874,63.7402,0.015018
178.905,63.7402,0.015046
178.937,63.7402,0.015046
178.968,63.7402,0.015046
178.998,63.7402,0.015046
179.029,63.7402,0.015046
179.061,63.7402,0.015046
179.092,63.7402,0.015046
179.123,63.7402,0.015046
179.154,63.7402,0.015027
179.184,63.7402,0.015027
179.215,63.7402,0.015027
179.246,63.7402,0.015027
179.276,63.7402,0.015027
179.308,63.7402,0.015027
179.339,63.7402,0.015027
179.370,63.7402,0.015027
179.402,63.7402,0.015027
179.433,63.7402,0.014971
179.464,63.7402,0.014971
179.496,63.7402,0.014971
179.527,63.7402,0.014971
179.558,63.7402,0.014971
179.590,63.7402,0.014971
179.622,63.7402,0.014971
179.652,63.7402,0.014971
179.682,63.7402,0.014971
179.713,63.7402,0.014971
179.744,63.7402,0.014971
179.774,63.7402,0.014971
179.804,63.7402,0.014971
179.835,63.7402,0.014971
179.865,63.7402,0.014971
179.896,63.7402,0.014971
179.927,63.7402,0.015009
179.958,63.7402,0.015009
179.990,63.7402,0.015009
180.022,63.7402,0.015009
180.053,63.7402,0.015009
180.084,63.7402,0.015009
180.114,63.7402,0.015009
180.146,63.7402,0.015009
180.176,63.7402,0.014990
180.207,63.7402,0.014990
180.239,63.7402,0.014990
180.270,63.7402,0.014990
180.301,63.7402,0.014990
180.331,63.7402,0.014990
180.362,63.7402,0.014990
180.393,63.7402,0.014980
180.425,63.7402,0.014980
180.455,63.7402,0.014980
180.487,63.7402,0.014980
180.517,63.7402,0.014980
180.549,63.7402,0.014980
180.580,63.7402,0.014980
180.611,63.7402,0.014980
180.642,63.7402,0.014971
180.673,63.7402,0.014971
180.705,63.7402,0.014971
180.736,63.7402,0.014971
180.767,63.7402,0.014971
180.797,63.7402,0.014971
180.828,63.7402,0.014971
180.859,63.7402,0.014971
180.891,63.7402,0.014971
180.922,63.7402,0.014971
180.954,63.7402,0.014971
180.985,63.7402,0.014971
181.017,63.7402,0.014971
181.047,63.7402,0.014971
181.079,63.7402,0.014971
181.111,63.7402,0.014971
181.143,63.7402,0.014971
181.173,63.7402,0.014971
181.204,63.7402,0.014961
181.236,63.7396,0.014961
181.265,63.7385,0.014961
181.296,63.7365,0.014961
181.327,63.7338,0.014961
181.358,63.7301,0.014961
181.389,63.7261,0.014961
181.421,63.7213,0.015037
181.451,63.7159,0.015037
181.481,63.7097,0.015037
181.512,63.7035,0.015037
181.544,63.6971,0.015037
181.575,63.6907,0.015037
181.607,63.6845,0.015037
181.639,63.6782,0.015037
181.669,63.6720,0.015046
181.700,63.6659,0.015046
181.731,63.6596,0.015046
181.763,63.6534,0.015046
181.793,63.6473,0.015046
181.825,63.6410,0.015046
181.855,63.6349,0.015046
181.887,63.6286,0.015046
181.917,63.6223,0.015046
181.948,63.6162,0.014980
181.982,63.6096,0.014980
182.011,63.6038,0.014980
182.042,63.5976,0.014980
182.074,63.5913,0.014980
182.105,63.5850,0.014980
182.136,63.5788,0.014980
182.167,63.5726,0.014990
182.197,63.5665,0.014990
182.229,63.5603,0.014990
182.260,63.5540,0.014990
182.291,63.5477,0.014990
182.323,63.5414,0.014990
182.354,63.5351,0.014990
182.385,63.5289,0.014990
182.417,63.5227,0.014952
182.448,63.5164,0.014952
182.478,63.5104,0.014952
182.509,63.5041,0.014952
182.540,63.4981,0.014952
182.571,63.4917,0.014952
182.602,63.4856,0.014952
182.633,63.4794,0.014952
182.663,63.4733,0.014961
182.695,63.4669,0.014961
182.726,63.4608,0.014961
182.758,63.4544,0.014961
182.789,63.4483,0.014961
182.820,63.4420,0.014961
182.851,63.4358,0.014961
182.882,63.4294,0.014961
182.914,63.4234,0.014990
182.946,63.4169,0.014990
182.976,63.4108,0.014990
183.008,63.4045,0.014990
183.039,63.3983,0.014990
183.069,63.3921,0.014990
183.100,63.3859,0.014990
183.131,63.3798,0.014990
183.162,63.3735,0.014933
183.194,63.3672,0.014933
183.224,63.3611,0.014933
183.255,63.3550,0.014933
183.286,63.3487,0.014933
183.317,63.3426,0.014933
183.348,63.3363,0.014933
183.380,63.3300,0.014933
183.411,63.3236,0.014933
183.443,63.3173,0.014961
183.473,63.3114,0.014961
183.503,63.3054,0.014961
183.534,63.2991,0.014961
183.565,63.2929,0.014961
183.596,63.2868,0.014961
183.627,63.2807,0.014961
183.657,63.2746,0.014961
183.689,63.2683,0.015027
183.720,63.2620,0.015027
183.751,63.2559,0.015027
183.781,63.2498,0.015027
183.812,63.2436,0.015027
183.844,63.2373,0.015027
183.874,63.2312,0.015027
183.905,63.2250,0.015027
183.936,63.2188,0.015056
183.967,63.2125,0.015056
183.998,63.2064,0.015056
184.030,63.2000,0.015056
184.060,63.1940,0.015056
184.092,63.1876,0.015056
184.123,63.1814,0.015056
184.155,63.1751,0.015037
184.186,63.1689,0.015037
184.217,63.1628,0.015037
184.248,63.1562,0.015037
184.278,63.1504,0.015037
184.311,63.1437,0.015037
184.340,63.1380,0.015037
184.372,63.1315,0.015037
184.403,63.1253,0.015037
184.435,63.1189,0.014971
184.466,63.1128,0.014971
184.498,63.1063,0.014971
184.530,63.1001,0.014971
184.562,63.0936,0.014971
184.593,63.0874,0.014971
184.624,63.0812,0.014971
184.654,63.0752,0.014980
184.685,63.0691,0.014980
184.716,63.0627,0.014980
184.747,63.0566,0.014980
184.778,63.0503,0.014980
184.809,63.0443,0.014980
184.840,63.0379,0.014980
184.871,63.0318,0.014980
184.903,63.0254,0.014980
184.934,63.0193,0.014980
184.965,63.0130,0.014980
184.996,63.0068,0.014980
185.027,63.0004,0.014980
185.059,62.9944,0.014980
185.090,62.9879,0.014980
185.121,62.9820,0.014980
185.152,62.9755,0.014980
185.183,62.9696,0.014990
185.214,62.9632,0.014990
185.245,62.9570,0.014990
185.276,62.9507,0.014990
185.308,62.9444,0.014990
185.338,62.9383,0.014990
185.369,62.9322,0.014990
185.401,62.9259,0.015018
185.433,62.9193,0.015018
185.462,62.9136,0.015018
185.494,62.9073,0.015018
185.525,62.9011,0.015018
185.557,62.8948,0.015018
185.588,62.8886,0.015018
185.620,62.8821,0.015018
185.651,62.8759,0.015018
185.681,62.8698,0.015018
185.713,62.8634,0.015018
185.746,62.8568,0.015018
185.777,62.8507,0.015018
185.806,62.8447,0.015018
185.838,62.8385,0.015018
185.869,62.8320,0.015018
185.898,62.8263,0.015018
185.929,62.8204,0.014980
185.960,62.8140,0.014980
185.992,62.8077,0.014980
186.022,62.8015,0.014980
186.053,62.7953,0.014980
186.084,62.7892,0.014980
186.115,62.7829,0.014980
186.146,62.7769,0.014980
186.176,62.7707,0.014990
186.208,62.7645,0.014990
186.238,62.7583,0.014990
186.270,62.7520,0.014990
186.301,62.7458,0.014990
186.332,62.7395,0.014990
186.362,62.7337,0.014990
186.393,62.7276,0.014990
186.424,62.7214,0.015037
186.455,62.7149,0.015037
186.488,62.7084,0.015037
186.518,62.7025,0.015037
186.549,62.6963,0.015037
186.580,62.6900,0.015037
186.610,62.6838,0.015037
186.641,62.6778,0.015037
186.672,62.6715,0.015027
186.703,62.6653,0.015027
186.735,62.6589,0.015027
186.766,62.6528,0.015027
186.797,62.6466,0.015027
186.828,62.6405,0.015027
186.858,62.6344,0.015027
186.889,62.6281,0.015027
186.921,62.6218,0.014971
186.951,62.6158,0.014971
186.983,62.6095,0.014971
187.014,62.6031,0.014971
187.046,62.5969,0.014971
187.077,62.5907,0.014971
187.108,62.5845,0.014971
187.138,62.5783,0.014980
187.170,62.5722,0.014980
187.200,62.5660,0.014980
187.231,62.5598,0.014980
187.262,62.5537,0.014980
187.293,62.5474,0.014980
187.323,62.5413,0.014980
187.355,62.5350,0.014980
187.385,62.5290,0.014980
187.417,62.5226,0.015009
187.448,62.5164,0.015009
187.479,62.5102,0.015009
187.510,62.5041,0.015009
187.541,62.4976,0.015009
187.573,62.4914,0.015009
187.604,62.4851,0.015009
187.635,62.4790,0.014943
187.666,62.4728,0.014943
187.697,62.4666,0.014943
187.728,62.4604,0.014943
187.761,62.4539,0.014943
187.790,62.4480,0.014943
187.821,62.4420,0.014943
187.852,62.4356,0.014943
187.883,62.4293,0.014943
187.914,62.4231,0.014943
187.945,62.4170,0.014961
187.976,62.4108,0.014961
188.007,62.4046,0.014961
188.039,62.3983,0.014961
188.071,62.3920,0.014961
188.102,62.3856,0.014961
188.133,62.3793,0.014961
188.164,62.3732,0.014999
188.196,62.3668,0.014999
188.227,62.3607,0.014999
188.259,62.3543,0.014999
188.291,62.3478,0.014999
188.322,62.3416,0.014999
188.353,62.3355,0.014999
188.384,62.3292,0.014999
188.414,62.3233,0.014999
188.446,62.3168,0.014952
188.477,62.3105,0.014952
188.507,62.3047,0.014952
188.538,62.2985,0.014952
188.569,62.2921,0.014952
188.600,62.2861,0.014952
188.631,62.2797,0.014952
188.663,62.2735,0.014971
188.694,62.2672,0.014971
188.725,62.2611,0.014971
188.756,62.2548,0.014971
188.788,62.2486,0.014971
188.819,62.2423,0.014971
188.850,62.2358,0.014971
188.881,62.2298,0.014971
188.912,62.2237,0.015027
188.944,62.2173,0.015027
188.974,62.2113,0.015027
189.006,62.2048,0.015027
189.038,62.1984,0.015027
189.067,62.1927,0.015027
189.098,62.1865,0.015027
189.129,62.1803,0.015027
189.160,62.1741,0.015027
189.192,62.1677,0.015027
189.223,62.1615,0.015027
189.254,62.1552,0.015027
189.285,62.1491,0.015027
189.317,62.1427,0.015027
189.348,62.1365,0.015027
189.380,62.1300,0.015027
189.410,62.1241,0.015009
189.442,62.1176,0.015009
189.473,62.1114,0.015009
189.505,62.1050,0.015009
189.536,62.0989,0.015009
189.567,62.0927,0.015009
189.598,62.0864,0.015009
189.629,62.0803,0.015009
189.660,62.0741,0.014980
189.691,62.0679,0.014980
189.722,62.0617,0.014980
189.753,62.0553,0.014980
189.783,62.0494,0.014980
189.815,62.0431,0.014980
189.846,62.0370,0.014980
189.877,62.0307,0.014980
189.908,62.0245,0.014971
189.938,62.0183,0.014971
189.970,62.0122,0.014971
190.001,62.0059,0.014971
190.031,61.9998,0.014971
190.062,61.9935,0.014971
190.093,61.9875,0.014971
190.125,61.9810,0.014971
190.156,61.9748,0.014980
190.187,61.9686,0.014980
190.218,61.9626,0.014980
190.249,61.9563,0.014980
190.279,61.9502,0.014980
190.311,61.9439,0.014980
190.342,61.9376,0.014980
190.374,61.9312,0.014980
190.405,61.9252,0.015018
190.436,61.9188,0.015018
190.467,61.9127,0.015018
190.497,61.9065,0.015018
190.528,61.9003,0.015018
190.559,61.8941,0.015018
190.590,61.8882,0.015018
190.621,61.8819,0.015018
190.650,61.8760,0.015009
190.681,61.8698,0.015009
190.712,61.8638,0.015009
190.742,61.8577,0.015009
190.774,61.8514,0.015009
190.804,61.8453,0.015009
190.836,61.8390,0.015009
190.867,61.8326,0.015009
190.899,61.8264,0.014971
190.930,61.8200,0.014971
190.961,61.8139,0.014971
190.992,61.8077,0.014971
191.023,61.8015,0.014971
191.054,61.7953,0.014971
191.085,61.7890,0.014971
191.116,61.7829,0.014971
191.147,61.7766,0.015009
191.179,61.7702,0.015009
191.210,61.7637,0.015009
191.240,61.7580,0.015009
191.272,61.7518,0.015009
191.302,61.7456,0.015009
191.334,61.7394,0.015009
191.365,61.7332,0.015009
191.396,61.7268,0.014999
191.427,61.7206,0.014999
191.459,61.7143,0.014999
191.490,61.7081,0.014999
191.521,61.7019,0.014999
191.553,61.6953,0.014999
191.584,61.6893,0.014999
191.615,61.6831,0.014999
191.647,61.6767,0.014999
191.677,61.6705,0.014999
191.708,61.6643,0.014999
191.739,61.6583,0.014999
191.770,61.6522,0.014999
191.801,61.6460,0.014999
191.832,61.6398,0.014999
191.863,61.6334,0.014999
191.896,61.6269,0.015037
191.925,61.6209,0.015037
191.958,61.6143,0.015037
191.989,61.6084,0.015037
192.020,61.6021,0.015037
192.051,61.5959,0.015037
192.082,61.5897,0.015037
192.113,61.5835,0.015037
192.145,61.5771,0.015009
192.176,61.5707,0.015009
192.207,61.5646,0.015009
192.239,61.5583,0.015009
192.272,61.5517,0.015009
192.302,61.5458,0.015009
192.332,61.5396,0.015009
192.363,61.5335,0.015009
192.394,61.5273,0.014933
192.425,61.5211,0.014933
192.456,61.5149,0.014933
192.487,61.5087,0.014933
192.518,61.5025,0.014933
192.549,61.4962,0.014933
192.580,61.4901,0.014933
192.611,61.4840,0.014933
192.643,61.4774,0.014952
192.674,61.4712,0.014952
192.705,61.4650,0.014952
192.737,61.4587,0.014952
192.768,61.4524,0.014952
192.800,61.4459,0.014952
192.831,61.4398,0.014952
192.861,61.4339,0.014952
192.892,61.4277,0.015037
192.923,61.4215,0.015037
192.954,61.4152,0.015037
192.984,61.4092,0.015037
193.016,61.4029,0.015037
193.047,61.3968,0.015037
193.078,61.3905,0.015037
193.110,61.3840,0.015037
193.141,61.3778,0.015018
193.172,61.3718,0.015018
193.202,61.3654,0.015018
193.234,61.3592,0.015018
193.268,61.3525,0.015018
193.298,61.3465,0.015018
193.330,61.3400,0.015018
193.361,61.3338,0.015018
193.393,61.3275,0.014990
193.425,61.3212,0.014990
193.455,61.3150,0.014990
193.484,61.3091,0.014990
193.516,61.3029,0.014990
193.546,61.2967,0.014990
193.577,61.2906,0.014990
193.607,61.2846,0.014990
193.639,61.2784,0.014990
193.670,61.2720,0.014980
193.701,61.2660,0.014980
193.732,61.2596,0.014980
193.764,61.2532,0.014980
193.794,61.2472,0.014980
193.825,61.2410,0.014980
193.856,61.2350,0.014980
193.888,61.2284,0.014980
193.918,61.2224,0.014980
193.950,61.2161,0.014971
193.982,61.2098,0.014971
194.013,61.2035,0.014971
194.043,61.1975,0.014971
194.074,61.1911,0.014971
194.106,61.1850,0.014971
194.137,61.1785,0.014971
194.169,61.1723,0.014961
194.200,61.1660,0.014961
194.231,61.1599,0.014961
194.261,61.1538,0.014961
194.293,61.1475,0.014961
194.324,61.1413,0.014961
194.355,61.1349,0.014961
194.387,61.1287,0.014961
194.418,61.1225,0.015009
194.449,61.1161,0.015009
194.479,61.1103,0.015009
194.511,61.1039,0.015009
194.542,61.0978,0.015009
194.572,61.0916,0.015009
194.603,61.0856,0.015009
194.635,61.0791,0.015009
194.666,61.0730,0.015056
194.698,61.0665,0.015056
194.729,61.0603,0.015056
194.761,61.0538,0.015056
194.793,61.0476,0.015056
194.825,61.0410,0.015056
194.856,61.0350,0.015056
194.886,61.0288,0.015056
194.917,61.0226,0.015027
194.948,61.0164,0.015027
194.979,61.0101,0.015027
195.011,61.0039,0.015027
195.042,60.9978,0.015027
195.073,60.9915,0.015027
195.105,60.9853,0.015027
195.135,60.9790,0.015027
195.166,60.9728,0.015037
195.197,60.9666,0.015037
195.228,60.9605,0.015037
195.259,60.9542,0.015037
195.290,60.9482,0.015037
195.321,60.9416,0.015037
195.351,60.9358,0.015037
195.383,60.9294,0.015037
195.414,60.9233,0.015009
195.446,60.9166,0.015009
195.477,60.9106,0.015009
195.508,60.9043,0.015009
195.540,60.8981,0.015009
195.571,60.8918,0.015009
195.602,60.8856,0.015009
195.633,60.8795,0.015009
195.664,60.8733,0.015009
195.695,60.8670,0.015009
195.727,60.8608,0.015009
195.757,60.8547,0.015009
195.789,60.8484,0.015009
195.820,60.8421,0.015009
195.851,60.8360,0.015009
195.882,60.8297,0.015009
195.913,60.8236,0.015018
195.946,60.8170,0.015018
195.976,60.8109,0.015018
196.007,60.8047,0.015018
196.037,60.7986,0.015018
196.068,60.7924,0.015018
196.099,60.7862,0.015018
196.130,60.7802,0.015018
196.160,60.7740,0.014990
196.192,60.7678,0.014990
196.223,60.7616,0.014990
196.254,60.7554,0.014990
196.285,60.7492,0.014990
196.315,60.7431,0.014990
196.346,60.7370,0.014990
196.377,60.7307,0.014990
196.408,60.7244,0.014999
196.439,60.7182,0.014999
196.471,60.7122,0.014999
196.502,60.7069,0.014999
196.533,60.7024,0.014999
196.564,60.6984,0.014999
196.595,60.6955,0.014999
196.627,60.6930,0.014999
196.657,60.6914,0.014896
196.689,60.6904,0.014896
196.719,60.6902,0.014896
196.751,60.6902,0.014896
196.781,60.6902,0.014896
196.812,60.6902,0.014896
196.843,60.6902,0.014896
196.875,60.6906,0.014896
196.906,60.6917,0.014867
196.937,60.6936,0.014867
196.968,60.6962,0.014867
196.999,60.6996,0.014867
197.030,60.7035,0.014867
197.061,60.7082,0.014867
197.092,60.7138,0.014867
197.124,60.7201,0.014867
197.154,60.7263,0.014839
197.185,60.7324,0.014839
197.217,60.7386,0.014839
197.247,60.7448,0.014839
197.279,60.7510,0.014839
197.310,60.7573,0.014839
197.341,60.7634,0.014839
197.372,60.7697,0.014839
197.403,60.7759,0.014830
197.435,60.7823,0.014830
197.465,60.7885,0.014830
197.496,60.7946,0.014830
197.528,60.8010,0.014830
197.559,60.8071,0.014830
197.590,60.8134,0.014830
197.621,60.8196,0.014830
197.652,60.8257,0.014830
197.683,60.8320,0.014980
197.715,60.8383,0.014980
197.745,60.8443,0.014980
197.776,60.8507,0.014980
197.810,60.8572,0.014980
197.839,60.8631,0.014980
197.870,60.8692,0.014980
197.901,60.8758,0.014980
197.933,60.8819,0.014990
197.964,60.8883,0.014990
197.995,60.8944,0.014990
198.026,60.9007,0.014990
198.057,60.9068,0.014990
198.089,60.9132,0.014990
198.120,60.9193,0.014990
198.152,60.9259,0.014990
198.183,60.9320,0.014971
198.214,60.9384,0.014971
198.244,60.9441,0.014971
198.275,60.9503,0.014971
198.305,60.9563,0.014971
198.336,60.9626,0.014971
198.367,60.9689,0.014971
198.397,60.9746,0.014971
198.427,60.9810,0.014980
198.459,60.9870,0.014980
198.490,60.9935,0.014980
198.522,60.9997,0.014980
198.552,61.0059,0.014980
198.585,61.0123,0.014980
198.615,61.0184,0.014980
198.647,61.0247,0.014980
198.678,61.0309,0.014961
198.710,61.0373,0.014961
198.741,61.0435,0.014961
198.772,61.0498,0.014961
198.803,61.0559,0.014961
198.834,61.0622,0.014961
198.865,61.0683,0.014961
198.896,61.0747,0.014961
198.929,61.0810,0.015009
198.959,61.0871,0.015009
198.990,61.0932,0.015009
199.020,61.0995,0.015009
199.051,61.1055,0.015009
199.082,61.1117,0.015009
199.112,61.1178,0.015009
199.144,61.1241,0.015009
199.175,61.1303,0.015027
199.205,61.1365,0.015027
199.236,61.1427,0.015027
199.267,61.1486,0.015027
199.298,61.1550,0.015027
199.329,61.1610,0.015027
199.359,61.1671,0.015027
199.390,61.1734,0.015027
199.420,61.1795,0.014990
199.451,61.1857,0.014990
199.483,61.1918,0.014990
199.513,61.1981,0.014990
199.544,61.2041,0.014990
199.575,61.2104,0.014990
199.607,61.2167,0.014990
199.639,61.2232,0.014990
199.670,61.2295,0.014914
199.700,61.2353,0.014914
199.731,61.2414,0.014914
199.763,61.2479,0.014914
199.794,61.2542,0.014914
199.824,61.2601,0.014914
199.856,61.2665,0.014914
199.887,61.2727,0.014943
199.918,61.2787,0.014943
199.949,61.2853,0.014943
199.981,61.2915,0.014943
200.012,61.2976,0.014943
200.043,61.3039,0.014943
200.073,61.3101,0.014943
200.104,61.3162,0.014943
200.135,61.3224,0.014971
200.166,61.3286,0.014971
200.198,61.3349,0.014971
200.228,61.3409,0.014971
200.258,61.3470,0.014971
200.289,61.3532,0.014971
200.320,61.3594,0.014971
200.352,61.3657,0.014971
200.382,61.3718,0.014971
200.413,61.3778,0.014961
200.443,61.3839,0.014961
200.474,61.3902,0.014961
200.506,61.3964,0.014961
200.536,61.4025,0.014961
200.567,61.4087,0.014961
200.598,61.4149,0.014961
200.630,61.4212,0.014961
200.661,61.4274,0.015018
200.692,61.4338,0.015018
200.722,61.4397,0.015018
200.754,61.4462,0.015018
200.785,61.4522,0.015018
200.816,61.4586,0.015018
200.848,61.4649,0.015018
200.879,61.4712,0.015018
200.910,61.4775,0.015037
200.942,61.4836,0.015037
200.973,61.4900,0.015037
201.005,61.4962,0.015037
201.036,61.5024,0.015037
201.068,61.5089,0.015037
201.097,61.5149,0.015037
201.129,61.5211,0.015037
201.160,61.5273,0.015009
201.191,61.5334,0.015009
201.222,61.5397,0.015009
201.253,61.5459,0.015009
201.284,61.5521,0.015009
201.315,61.5583,0.015009
201.346,61.5644,0.015009
201.377,61.5707,0.014999
201.409,61.5771,0.014999
201.438,61.5830,0.014999
201.470,61.5892,0.014999
201.501,61.5954,0.014999
201.532,61.6018,0.014999
201.563,61.6079,0.014999
201.594,61.6142,0.014999
201.625,61.6204,0.014999
201.656,61.6266,0.014999
201.688,61.6328,0.015046
201.720,61.6394,0.015046
201.750,61.6454,0.015046
201.780,61.6516,0.015046
201.812,61.6576,0.015046
201.843,61.6641,0.015046
201.874,61.6700,0.015046
201.905,61.6764,0.015046
201.936,61.6824,0.015018
201.967,61.6888,0.015018
201.998,61.6951,0.015018
202.030,61.7013,0.015018
202.061,61.7075,0.015018
202.092,61.7137,0.015018
202.123,61.7201,0.015018
202.154,61.7262,0.014971
202.185,61.7323,0.014971
202.216,61.7386,0.014971
202.247,61.7446,0.014971
202.278,61.7509,0.014971
202.309,61.7570,0.014971
202.340,61.7633,0.014971
202.371,61.7694,0.014971
202.403,61.7760,0.014971
202.434,61.7820,0.015018
202.466,61.7886,0.015018
202.496,61.7946,0.015018
202.528,61.8009,0.015018
202.559,61.8071,0.015018
202.590,61.8134,0.015018
202.621,61.8195,0.015018
202.651,61.8256,0.015018
202.683,61.8319,0.014999
202.714,61.8382,0.014999
202.745,61.8444,0.014999
202.776,61.8505,0.014999
202.807,61.8567,0.014999
202.838,61.8629,0.014999
202.869,61.8692,0.014999
202.901,61.8754,0.014999
202.932,61.8817,0.014961
202.964,61.8879,0.014961
202.994,61.8940,0.014961
203.026,61.9005,0.014961
203.057,61.9065,0.014961
203.087,61.9129,0.014961
203.120,61.9193,0.014961
203.149,61.9250,0.014990
203.181,61.9315,0.014990
203.211,61.9374,0.014990
203.242,61.9439,0.014990
203.273,61.9500,0.014990
203.304,61.9562,0.014990
203.334,61.9621,0.014990
203.366,61.9686,0.014990
203.396,61.9745,0.014980
203.427,61.9808,0.014980
203.458,61.9869,0.014980
203.490,61.9934,0.014980
203.521,61.9994,0.014980
203.553,62.0060,0.014980
203.585,62.0122,0.014980
203.615,62.0183,0.014980
203.646,62.0244,0.014961
203.677,62.0307,0.014961
203.707,62.0366,0.014961
203.738,62.0430,0.014961
203.770,62.0493,0.014961
203.800,62.0554,0.014961
203.832,62.0617,0.014961
203.862,62.0677,0.014961
203.893,62.0739,0.014933
203.924,62.0801,0.014933
203.956,62.0864,0.014933
203.986,62.0926,0.014933
204.019,62.0990,0.014933
204.050,62.1052,0.014933
204.081,62.1116,0.014933
204.113,62.1178,0.014933
204.144,62.1240,0.014943
204.174,62.1302,0.014943
204.205,62.1362,0.014943
204.236,62.1424,0.014943
204.266,62.1485,0.014943
204.297,62.1547,0.014943
204.328,62.1610,0.014943
204.359,62.1671,0.014943
204.391,62.1734,0.014971
204.421,62.1795,0.014971
204.453,62.1860,0.014971
204.484,62.1922,0.014971
204.515,62.1985,0.014971
204.547,62.2047,0.014971
204.578,62.2110,0.014971
204.610,62.2172,0.014971
204.640,62.2234,0.015009
204.671,62.2295,0.015009
204.702,62.2357,0.015009
204.732,62.2418,0.015009
204.764,62.2480,0.015009
204.795,62.2543,0.015009
204.826,62.2604,0.015009
204.857,62.2667,0.015009
204.887,62.2728,0.015037
204.918,62.2790,0.015037
204.950,62.2853,0.015037
204.981,62.2915,0.015037
205.012,62.2977,0.015037
205.043,62.3039,0.015037
205.075,62.3102,0.015037
205.105,62.3163,0.015037
205.135,62.3224,0.015037
205.167,62.3287,0.015037
205.198,62.3349,0.014980
205.230,62.3414,0.014980
205.261,62.3475,0.014980
205.293,62.3538,0.014980
205.324,62.3602,0.014980
205.355,62.3663,0.014980
205.387,62.3728,0.014980
205.417,62.3787,0.014980
205.449,62.3849,0.014961
205.480,62.3914,0.014961
205.511,62.3974,0.014961
205.541,62.4034,0.014961
205.572,62.4096,0.014961
205.602,62.4158,0.014961
205.634,62.4220,0.014961
205.664,62.4282,0.014961
205.695,62.4343,0.014980
205.727,62.4407,0.014980
205.757,62.4468,0.014980
205.789,62.4530,0.014980
205.820,62.4593,0.014980
205.850,62.4653,0.014980
205.881,62.4715,0.014980
205.912,62.4777,0.015018
205.943,62.4840,0.015018
205.974,62.4902,0.015018
206.005,62.4963,0.015018
206.036,62.5026,0.015018
206.067,62.5087,0.015018
206.098,62.5150,0.015018
206.129,62.5211,0.015018
206.161,62.5277,0.015018
206.192,62.5336,0.015009
206.224,62.5402,0.015009
206.256,62.5464,0.015009
206.286,62.5527,0.015009
206.317,62.5587,0.015009
206.347,62.5646,0.015009
206.377,62.5707,0.015009
206.408,62.5768,0.014999
206.440,62.5833,0.014999
206.471,62.5895,0.014999
206.502,62.5957,0.014999
206.533,62.6018,0.014999
206.564,62.6083,0.014999
206.595,62.6142,0.014999
206.626,62.6204,0.014999
206.657,62.6266,0.014999
206.689,62.6331,0.014999
206.719,62.6390,0.014999
206.749,62.6451,0.014999
206.780,62.6513,0.014999
206.812,62.6576,0.014999
206.843,62.6638,0.014999
206.875,62.6703,0.014999
206.907,62.6767,0.015009
206.938,62.6829,0.015009
206.969,62.6890,0.015009
206.999,62.6952,0.015009
207.031,62.7014,0.015009
207.063,62.7080,0.015009
207.093,62.7139,0.015009
207.124,62.7203,0.015046
207.155,62.7263,0.015046
207.186,62.7324,0.015046
207.217,62.7386,0.015046
207.249,62.7452,0.015046
207.280,62.7511,0.015046
207.311,62.7575,0.015046
207.342,62.7637,0.015046
207.373,62.7699,0.015046
207.405,62.7763,0.014990
207.437,62.7826,0.014990
207.469,62.7890,0.014990
207.500,62.7953,0.014990
207.532,62.8016,0.014990
207.562,62.8076,0.014990
207.594,62.8143,0.014990
207.626,62.8205,0.014990
207.656,62.8266,0.014961
207.687,62.8328,0.014961
207.718,62.8387,0.014961
207.748,62.8449,0.014961
207.778,62.8509,0.014961
207.809,62.8572,0.014961
207.841,62.8635,0.014961
207.873,62.8700,0.014961
207.904,62.8762,0.014933
207.936,62.8825,0.014933
207.966,62.8884,0.014933
207.996,62.8946,0.014933
208.028,62.9008,0.014933
208.059,62.9072,0.014933
208.090,62.9134,0.014933
208.122,62.9198,0.014933
208.154,62.9260,0.014933
208.185,62.9327,0.014952
208.217,62.9387,0.014952
208.247,62.9446,0.014952
208.277,62.9508,0.014952
208.309,62.9570,0.014952
208.340,62.9632,0.014952
208.371,62.9694,0.014952
208.401,62.9756,0.014952
208.433,62.9818,0.015027
208.464,62.9882,0.015027
208.495,62.9942,0.015027
208.526,63.0006,0.015027
208.558,63.0069,0.015027
208.589,63.0132,0.015027
208.620,63.0193,0.015027
208.651,63.0255,0.015027
208.681,63.0316,0.014961
208.712,63.0376,0.014961
208.743,63.0438,0.014961
208.775,63.0503,0.014961
208.806,63.0564,0.014961
208.837,63.0627,0.014961
208.869,63.0690,0.014961
208.900,63.0753,0.014961
208.930,63.0813,0.014914
208.961,63.0874,0.014914
208.992,63.0937,0.014914
209.023,63.0998,0.014914
209.054,63.1060,0.014914
209.085,63.1123,0.014914
209.116,63.1185,0.014914
209.147,63.1247,0.014914
209.179,63.1310,0.014943
209.209,63.1371,0.014943
209.240,63.1434,0.014943
209.272,63.1496,0.014943
209.303,63.1558,0.014943
209.334,63.1620,0.014943
209.364,63.1682,0.014943
209.396,63.1744,0.014943
209.426,63.1805,0.015018
209.457,63.1867,0.015018
209.489,63.1930,0.015018
209.520,63.1992,0.015018
209.552,63.2056,0.015018
209.583,63.2118,0.015018
209.615,63.2182,0.015018
209.646,63.2244,0.015018
209.675,63.2304,0.015018
209.707,63.2367,0.015018
209.738,63.2429,0.015018
209.769,63.2491,0.015018
209.800,63.2552,0.015018
209.831,63.2614,0.015018
209.862,63.2677,0.015018
209.893,63.2739,0.015018
209.923,63.2799,0.015018
209.954,63.2861,0.014914
209.985,63.2923,0.014914
210.016,63.2985,0.014914
210.046,63.3045,0.014914
210.078,63.3110,0.014914
210.110,63.3173,0.014914
210.141,63.3234,0.014914
210.171,63.3295,0.014943
210.203,63.3359,0.014943
210.233,63.3419,0.014943
210.264,63.3481,0.014943
210.295,63.3541,0.014943
210.325,63.3603,0.014943
210.356,63.3666,0.014943
210.387,63.3726,0.014943
210.418,63.3792,0.014943
210.450,63.3853,0.015037
210.481,63.3915,0.015037
210.512,63.3977,0.015037
210.544,63.4039,0.015037
210.575,63.4103,0.015037
210.606,63.4164,0.015037
210.636,63.4225,0.015037
210.667,63.4287,0.015075
210.698,63.4349,0.015075
210.730,63.4412,0.015075
210.761,63.4475,0.015075
210.793,63.4539,0.015075
210.824,63.4602,0.015075
210.856,63.4664,0.015075
210.886,63.4723,0.015075
210.917,63.4787,0.015027
210.949,63.4850,0.015027
210.980,63.4913,0.015027
211.012,63.4976,0.015027
211.042,63.5038,0.015027
211.073,63.5098,0.015027
211.104,63.5162,0.015027
211.136,63.5223,0.015027
211.165,63.5284,0.014990
211.197,63.5346,0.014990
211.228,63.5411,0.014990
211.259,63.5471,0.014990
211.290,63.5533,0.014990
211.321,63.5595,0.014990
211.353,63.5657,0.014990
211.384,63.5719,0.014990
211.415,63.5781,0.014980
211.446,63.5843,0.014980
211.477,63.5907,0.014980
211.509,63.5971,0.014980
211.540,63.6034,0.014980
211.571,63.6094,0.014980
211.602,63.6158,0.014980
211.632,63.6217,0.014980
211.664,63.6280,0.014961
211.694,63.6341,0.014961
211.725,63.6401,0.014961
211.756,63.6463,0.014961
211.787,63.6525,0.014961
211.819,63.6590,0.014961
211.850,63.6651,0.014961
211.881,63.6710,0.014961
211.913,63.6759,0.014924
211.944,63.6802,0.014924
211.975,63.6837,0.014924
212.006,63.6864,0.014924
212.037,63.6884,0.014924
212.069,63.6898,0.014924
212.100,63.6903,0.014924
212.131,63.6903,0.014924
212.162,63.6903,0.014961
212.193,63.6903,0.014961
212.224,63.6903,0.014961
212.255,63.6903,0.014961
212.286,63.6903,0.014961
212.318,63.6903,0.014961
212.349,63.6903,0.014961
212.381,63.6903,0.014961
212.412,63.6903,0.014933
212.443,63.6903,0.014933
212.473,63.6903,0.014933
212.505,63.6903,0.014933
