Elapsed Time (s),Position (mm),Force (N)
-0.009,64.9015,-0.437537
0.101,64.9015,-0.426471
0.211,64.9015,-0.426471
0.319,64.9015,-0.426471
0.428,64.9015,-0.418177
0.537,64.9015,-0.418177
0.646,64.9015,-0.411824
0.756,64.9015,-0.411824
0.867,64.9015,-0.406602
0.978,64.9015,-0.406602
1.087,64.9015,-0.402116
1.199,64.9015,-0.402116
1.309,64.9015,-0.402116
1.419,64.9015,-0.398176
1.527,64.9015,-0.398176
1.637,64.9015,-0.394802
1.747,64.9015,-0.394802
1.857,64.9015,-0.394802
1.967,64.9015,-0.391682
2.076,64.9015,-0.391682
2.186,64.9015,-0.388826
2.296,64.9015,-0.388826
2.405,64.9015,-0.386310
2.514,64.9015,-0.386310
2.620,64.9015,-0.383981
2.729,64.9015,-0.383981
2.839,64.9015,-0.383981
2.947,64.9015,-0.381785
3.057,64.9015,-0.381785
3.165,64.9015,-0.379693
3.275,64.9015,-0.379693
3.385,64.9015,-0.377101
3.497,64.9015,-0.377101
3.607,64.9015,-0.377101
3.716,64.9015,-0.367440
3.827,64.9015,-0.367440
3.937,64.9015,-0.353377
4.047,64.8991,-0.353377
4.155,64.8881,-0.347024
4.264,64.8685,-0.347024
4.374,64.8465,-0.327495
4.483,64.8247,-0.327495
4.593,64.8025,-0.272724
4.700,64.7812,-0.272724
4.811,64.7591,-0.272724
4.922,64.7369,-0.209649
5.028,64.7156,-0.209649
5.138,64.6937,-0.160863
5.247,64.6718,-0.160863
5.357,64.6498,-0.122106
5.465,64.6284,-0.122106
5.575,64.6062,-0.122106
5.682,64.5850,-0.090050
5.790,64.5631,-0.090050
5.899,64.5415,-0.063282
6.009,64.5195,-0.063282
6.118,64.4978,-0.041057
6.226,64.4759,-0.041057
6.335,64.4544,-0.041057
6.444,64.4325,-0.022244
6.552,64.4107,-0.022244
6.662,64.3890,-0.005995
6.773,64.3667,-0.005995
6.882,64.3448,0.007993
6.990,64.3233,0.007993
7.099,64.3014,0.020302
7.209,64.2794,0.020302
7.318,64.2578,0.020302
7.426,64.2361,0.031688
7.534,64.2144,0.031688
7.642,64.1928,0.042311
7.751,64.1711,0.042311
7.860,64.1494,0.042311
7.969,64.1273,0.052302
8.077,64.1057,0.052302
8.187,64.0839,0.062123
8.297,64.0618,0.062123
8.406,64.0400,0.071982
8.516,64.0178,0.071982
8.629,63.9956,0.082010
8.737,63.9739,0.082010
8.846,63.9519,0.092491
8.955,63.9304,0.092491
9.064,63.9084,0.092491
9.173,63.8866,0.103821
9.284,63.8644,0.103821
9.393,63.8428,0.116479
9.500,63.8212,0.116479
9.609,63.7993,0.131117
9.719,63.7776,0.131117
9.828,63.7556,0.148243
9.936,63.7340,0.148243
10.047,63.7120,0.148243
10.156,63.6900,0.168121
10.266,63.6682,0.168121
10.375,63.6461,0.191468
10.485,63.6244,0.191468
10.593,63.6026,0.218933
10.700,63.5814,0.218933
10.809,63.5594,0.218933
10.919,63.5375,0.250697
11.029,63.5155,0.250697
11.139,63.4934,0.287333
11.249,63.4716,0.287333
11.357,63.4496,0.329003
11.467,63.4278,0.329003
11.575,63.4064,0.329003
11.685,63.3844,0.376856
11.795,63.3622,0.376856
11.905,63.3403,0.431429
12.015,63.3183,0.431429
12.124,63.2965,0.492402
12.234,63.2744,0.492402
12.343,63.2528,0.560962
12.452,63.2309,0.560962
12.563,63.2085,0.560962
12.674,63.1866,0.637713
12.780,63.1651,0.637713
12.889,63.1436,0.722730
12.997,63.1220,0.722730
13.106,63.1000,0.811932
13.215,63.0783,0.811932
13.323,63.0567,0.811932
13.433,63.0347,0.880719
13.542,63.0130,0.880719
13.651,62.9910,0.912662
13.759,62.9694,0.912662
13.869,62.9476,0.936517
13.980,62.9253,0.936517
14.089,62.9034,0.972249
14.198,62.8817,0.972249
14.308,62.8597,0.972249
14.417,62.8380,1.011204
14.527,62.8159,1.011204
14.638,62.7938,1.049198
14.747,62.7720,1.049198
14.857,62.7498,1.083601
14.964,62.7285,1.083601
15.072,62.7069,1.083601
15.179,62.6854,1.107145
15.289,62.6635,1.107145
15.399,62.6414,1.091829
15.508,62.6197,1.091829
15.619,62.5975,1.046022
15.729,62.5757,1.046022
15.837,62.5539,0.920824
15.946,62.5322,0.920824
16.054,62.5104,0.920824
16.163,62.4886,0.637063
16.271,62.4671,0.637063
16.381,62.4453,0.264580
16.490,62.4234,0.264580
16.599,62.4013,0.054262
16.708,62.3796,0.054262
16.817,62.3579,0.054262
16.926,62.3360,0.029775
17.037,62.3140,0.029775
17.145,62.2921,0.022913
17.254,62.2706,0.022913
17.363,62.2486,0.021047
17.472,62.2270,0.021047
17.581,62.2052,0.021047
17.688,62.1836,0.020274
17.796,62.1620,0.020274
17.905,62.1402,0.019624
18.014,62.1185,0.019624
18.123,62.0967,0.019030
18.232,62.0747,0.019030
18.340,62.0531,0.019030
18.449,62.0316,0.018464
18.560,62.0095,0.018464
18.668,61.9878,0.017984
18.777,61.9661,0.017984
18.885,61.9442,0.017626
18.994,61.9224,0.017626
19.103,61.9007,0.017305
19.211,61.8791,0.017305
19.320,61.8613,0.017305
19.429,61.8525,0.016928
19.539,61.8515,0.016928
19.649,61.8515,0.016325
19.759,61.8515,0.016325
19.867,61.8515,0.015976
19.976,61.8547,0.015976
20.088,61.8671,0.015976
20.194,61.8870,0.015816
20.303,61.9089,0.015816
20.412,61.9306,0.015533
20.521,61.9524,0.015533
20.631,61.9744,0.015354
20.740,61.9963,0.015354
20.849,62.0180,0.015316
20.957,62.0396,0.015316
21.066,62.0616,0.015316
21.177,62.0835,0.015288
21.285,62.1052,0.015288
21.395,62.1272,0.015184
21.503,62.1488,0.015184
21.612,62.1708,0.015034
21.720,62.1922,0.015034
21.830,62.2140,0.014873
21.938,62.2358,0.014873
22.047,62.2575,0.014873
22.156,62.2795,0.014619
22.264,62.3011,0.014619
22.375,62.3230,0.014289
22.484,62.3450,0.014289
22.594,62.3669,0.013950
22.702,62.3885,0.013950
22.812,62.4106,0.013950
22.921,62.4324,0.013516
23.031,62.4544,0.013516
23.141,62.4763,0.013073
23.251,62.4984,0.013073
23.361,62.5205,0.013073
23.469,62.5420,0.012621
23.579,62.5639,0.012621
23.688,62.5859,0.012093
23.797,62.6077,0.012093
23.908,62.6299,0.011659
24.016,62.6513,0.011659
24.123,62.6728,0.011273
24.231,62.6946,0.011273
24.342,62.7164,0.010811
24.450,62.7381,0.010811
24.559,62.7598,0.010811
24.669,62.7819,0.010274
24.777,62.8034,0.010274
24.886,62.8252,0.009567
24.996,62.8473,0.009567
25.108,62.8697,0.009567
25.215,62.8913,0.008832
25.324,62.9129,0.008832
25.432,62.9346,0.008106
25.540,62.9562,0.008106
25.651,62.9785,0.007342
25.761,63.0002,0.007342
25.871,63.0223,0.006447
25.978,63.0436,0.006447
26.085,63.0653,0.006447
26.194,63.0870,0.005372
26.303,63.1087,0.005372
26.410,63.1302,0.004326
26.518,63.1517,0.004326
26.627,63.1737,0.003063
26.736,63.1953,0.003063
26.845,63.2172,0.001574
26.954,63.2389,0.001574
27.063,63.2610,0.001574
27.173,63.2826,-0.000085
27.284,63.3048,-0.000085
27.394,63.3270,-0.001998
27.504,63.3491,-0.001998
27.610,63.3701,-0.004175
27.719,63.3919,-0.004175
27.827,63.4136,-0.004175
27.937,63.4354,-0.006730
28.046,63.4573,-0.006730
28.154,63.4790,-0.009595
28.262,63.5006,-0.009595
28.372,63.5224,-0.012800
28.481,63.5444,-0.012800
28.591,63.5664,-0.016297
28.699,63.5881,-0.016297
28.810,63.6100,-0.016297
28.917,63.6316,-0.019963
29.028,63.6538,-0.019963
29.137,63.6756,-0.023903
29.247,63.6976,-0.023903
29.356,63.7195,-0.028012
29.466,63.7413,-0.028012
29.575,63.7632,-0.028012
29.684,63.7849,-0.032207
29.794,63.8068,-0.032207
29.902,63.8287,-0.036571
30.011,63.8502,-0.036571
30.121,63.8724,-0.036571
30.232,63.8944,-0.040935
30.340,63.9161,-0.045374
30.448,63.9378,-0.045374
30.560,63.9600,-0.045374
30.669,63.9820,-0.050030
30.776,64.0032,-0.050030
30.885,64.0251,-0.054799
30.994,64.0468,-0.054799
31.103,64.0686,-0.059889
31.214,64.0907,-0.059889
31.323,64.1127,-0.059889
31.433,64.1348,-0.065469
31.543,64.1567,-0.065469
31.652,64.1784,-0.071567
31.760,64.2001,-0.071567
31.870,64.2222,-0.078391
31.980,64.2443,-0.078391
32.087,64.2655,-0.086101
32.196,64.2872,-0.086101
32.305,64.3091,-0.086101
32.415,64.3310,-0.094980
32.525,64.3530,-0.094980
32.632,64.3745,-0.105470
32.739,64.3961,-0.105470
32.848,64.4180,-0.105470
32.958,64.4398,-0.117723
33.066,64.4613,-0.117723
33.176,64.4833,-0.132238
33.285,64.5051,-0.132238
33.395,64.5269,-0.149477
33.504,64.5490,-0.149477
33.613,64.5706,-0.149477
33.720,64.5922,-0.169997
33.830,64.6142,-0.169997
33.938,64.6357,-0.194748
34.045,64.6573,-0.194748
34.154,64.6787,-0.224504
34.264,64.7008,-0.224504
34.373,64.7226,-0.260085
34.480,64.7440,-0.260085
34.589,64.7662,-0.302508
34.700,64.7880,-0.302508
34.810,64.8099,-0.302508
34.918,64.8313,-0.353669
35.028,64.8460,-0.353669
35.137,64.8515,-0.411277
35.246,64.8515,-0.411277
35.356,64.8515,-0.441759
35.464,64.8515,-0.441759
35.571,64.8515,-0.441759
35.681,64.8515,-0.436773
35.791,64.8515,-0.436773
35.900,64.8515,-0.426848
36.009,64.8515,-0.426848
36.117,64.8515,-0.426848
36.227,64.8515,-0.419713
36.337,64.8515,-0.414011
36.447,64.8515,-0.414011
36.557,64.8515,-0.414011
36.667,64.8515,-0.409270
36.777,64.8515,-0.409270
36.888,64.8515,-0.405123
36.998,64.8515,-0.405123
37.107,64.8515,-0.401428
37.217,64.8515,-0.401428
37.327,64.8515,-0.401428
37.437,64.8515,-0.398138
37.547,64.8515,-0.398138
37.657,64.8515,-0.395188
37.768,64.8515,-0.395188
37.875,64.8515,-0.392445
37.985,64.8515,-0.392445
38.096,64.8515,-0.389985
38.207,64.8515,-0.389985
38.316,64.8515,-0.389985
38.426,64.8515,-0.387686
38.535,64.8515,-0.387686
38.643,64.8515,-0.385537
38.751,64.8515,-0.385537
38.859,64.8515,-0.383510
38.968,64.8515,-0.383510
39.078,64.8515,-0.383510
39.191,64.8515,-0.378241
39.299,64.8515,-0.378241
39.409,64.8515,-0.365036
39.519,64.8515,-0.365036
39.629,64.8510,-0.353698
39.738,64.8437,-0.353698
39.848,64.8273,-0.347684
39.959,64.8051,-0.347684
40.067,64.7835,-0.347684
40.177,64.7613,-0.310077
40.286,64.7399,-0.310077
40.395,64.7179,-0.244052
40.504,64.6962,-0.244052
40.615,64.6739,-0.187443
40.725,64.6519,-0.187443
40.835,64.6300,-0.187443
40.944,64.6081,-0.143577
41.054,64.5862,-0.143577
41.162,64.5645,-0.107798
41.271,64.5427,-0.107798
41.381,64.5210,-0.077750
41.490,64.4990,-0.077750
41.600,64.4769,-0.053008
41.709,64.4551,-0.053008
41.819,64.4333,-0.053008
41.928,64.4114,-0.032207
42.036,64.3899,-0.032207
42.145,64.3680,-0.014468
42.255,64.3461,-0.014468
42.365,64.3241,0.000575
42.474,64.3023,0.000575
42.581,64.2807,0.000575
42.690,64.2588,0.013884
42.798,64.2373,0.013884
42.907,64.2155,0.025958
43.017,64.1937,0.025958
43.125,64.1718,0.037089
43.233,64.1505,0.037089
43.343,64.1283,0.047457
43.453,64.1065,0.047457
43.563,64.0844,0.047457
43.672,64.0626,0.057344
43.781,64.0409,0.057344
43.888,64.0193,0.067147
43.999,63.9973,0.067147
44.108,63.9754,0.067147
44.218,63.9532,0.077053
44.326,63.9317,0.077053
44.436,63.9100,0.087232
44.543,63.8882,0.087232
44.653,63.8665,0.097911
44.759,63.8453,0.097911
44.867,63.8235,0.109815
44.977,63.8016,0.109815
45.087,63.7795,0.123379
45.195,63.7581,0.123379
45.305,63.7360,0.123379
45.415,63.7142,0.139091
45.523,63.6925,0.139091
45.632,63.6705,0.157555
45.741,63.6490,0.157555
45.850,63.6269,0.179177
45.960,63.6052,0.179177
46.068,63.5833,0.179177
46.178,63.5615,0.204531
46.287,63.5396,0.204531
46.397,63.5176,0.234033
46.508,63.4955,0.234033
46.617,63.4735,0.268181
46.725,63.4520,0.268181
46.836,63.4299,0.268181
46.944,63.4082,0.307447
47.051,63.3869,0.307447
47.162,63.3646,0.352265
47.270,63.3430,0.352265
47.379,63.3213,0.402964
47.488,63.2993,0.402964
47.596,63.2777,0.402964
47.707,63.2555,0.460346
47.817,63.2336,0.460346
47.926,63.2118,0.524231
48.035,63.1899,0.524231
48.144,63.1684,0.594507
48.253,63.1464,0.594507
48.362,63.1247,0.671550
48.472,63.1026,0.671550
48.580,63.0812,0.671550
48.689,63.0592,0.755587
48.799,63.0371,0.755587
48.909,63.0153,0.848286
49.019,62.9932,0.848286
49.128,62.9715,0.848286
49.237,62.9495,0.949242
49.345,62.9280,0.949242
49.452,62.9065,1.056493
49.562,62.8847,1.056493
49.671,62.8630,1.154876
49.780,62.8409,1.154876
49.889,62.8192,1.214604
49.999,62.7972,1.214604
50.110,62.7752,1.229779
50.219,62.7531,1.229779
50.328,62.7314,1.229779
50.437,62.7096,1.236877
50.545,62.6880,1.236877
50.654,62.6662,1.260902
50.763,62.6445,1.260902
50.872,62.6227,1.291619
50.981,62.6010,1.291619
51.091,62.5790,1.284597
51.200,62.5572,1.284597
51.310,62.5352,1.284597
51.417,62.5136,1.057568
51.525,62.4921,1.057568
51.635,62.4699,0.710647
51.745,62.4482,0.710647
51.853,62.4265,0.364650
51.963,62.4045,0.364650
52.072,62.3828,0.364650
52.181,62.3608,0.103642
52.291,62.3390,0.103642
52.400,62.3172,0.037739
52.508,62.2955,0.037739
52.618,62.2734,0.025882
52.729,62.2512,0.025882
52.837,62.2298,0.022131
52.946,62.2079,0.022131
53.055,62.1860,0.022131
53.166,62.1640,0.020792
53.274,62.1421,0.020792
53.383,62.1204,0.019916
53.491,62.0989,0.019916
53.600,62.0772,0.019200
53.710,62.0551,0.019200
53.819,62.0331,0.019200
53.929,62.0113,0.018625
54.039,61.9894,0.018625
54.148,61.9676,0.018116
54.256,61.9459,0.018116
54.366,61.9240,0.017691
54.476,61.9021,0.017691
54.585,61.8801,0.017691
54.694,61.8582,0.017296
54.803,61.8366,0.017296
54.912,61.8164,0.016975
55.021,61.8045,0.016975
55.129,61.8015,0.016532
55.239,61.8015,0.016532
55.347,61.8015,0.016089
55.457,61.8015,0.016089
55.568,61.8015,0.016089
55.674,61.8021,0.015891
55.785,61.8101,0.015891
55.893,61.8268,0.015731
56.004,61.8488,0.015731
56.113,61.8707,0.015467
56.221,61.8922,0.015467
56.331,61.9142,0.015326
56.439,61.9359,0.015326
56.549,61.9578,0.015326
56.658,61.9797,0.015373
56.768,62.0017,0.015373
56.880,62.0241,0.015354
56.989,62.0458,0.015354
57.099,62.0679,0.015260
57.209,62.0899,0.015260
57.319,62.1118,0.015260
57.427,62.1336,0.015194
57.536,62.1552,0.015194
57.646,62.1772,0.015081
57.755,62.1991,0.015081
57.864,62.2208,0.014826
57.974,62.2428,0.014826
58.082,62.2645,0.014826
58.191,62.2862,0.014543
58.301,62.3083,0.014543
58.411,62.3302,0.014270
58.521,62.3522,0.014270
58.632,62.3745,0.013855
58.742,62.3963,0.013855
58.850,62.4179,0.013365
58.958,62.4397,0.013365
59.067,62.4614,0.013365
59.177,62.4835,0.012903
59.285,62.5050,0.012903
59.396,62.5270,0.012432
59.507,62.5494,0.012432
59.617,62.5716,0.011904
59.727,62.5934,0.011904
59.836,62.6152,0.011904
59.946,62.6372,0.011452
60.054,62.6587,0.011452
60.163,62.6806,0.010990
60.272,62.7024,0.010990
60.380,62.7239,0.010424
60.489,62.7459,0.010424
60.597,62.7674,0.009765
60.707,62.7893,0.009765
60.816,62.8113,0.009765
60.925,62.8329,0.009058
61.034,62.8548,0.009058
61.144,62.8768,0.008313
61.254,62.8987,0.008313
61.364,62.9207,0.007437
61.473,62.9425,0.007437
61.582,62.9643,0.006588
61.693,62.9867,0.006588
61.802,63.0085,0.006588
61.911,63.0301,0.005533
62.019,63.0520,0.005533
62.128,63.0736,0.004251
62.239,63.0958,0.004251
62.347,63.1174,0.002988
62.456,63.1392,0.002988
62.565,63.1610,0.002988
62.673,63.1826,0.001536
62.783,63.2046,0.001536
62.892,63.2263,-0.000207
63.002,63.2484,-0.000207
63.111,63.2701,-0.002177
63.219,63.2916,-0.002177
63.328,63.3135,-0.002177
63.436,63.3353,-0.004402
63.544,63.3568,-0.004402
63.652,63.3783,-0.006975
63.761,63.4002,-0.006975
63.869,63.4219,-0.009868
63.979,63.4438,-0.009868
64.087,63.4654,-0.009868
64.197,63.4872,-0.013035
64.307,63.5094,-0.013035
64.417,63.5313,-0.016532
64.526,63.5532,-0.016532
64.635,63.5750,-0.020227
64.743,63.5965,-0.020227
64.852,63.6184,-0.024167
64.962,63.6403,-0.024167
65.069,63.6619,-0.024167
65.179,63.6837,-0.028342
65.289,63.7059,-0.028342
65.399,63.7277,-0.032565
65.509,63.7497,-0.032565
65.619,63.7716,-0.036900
65.727,63.7934,-0.036900
65.835,63.8150,-0.041368
65.945,63.8368,-0.041368
66.052,63.8584,-0.041368
66.161,63.8803,-0.045845
66.269,63.9018,-0.045845
66.380,63.9239,-0.050416
66.490,63.9460,-0.050416
66.601,63.9681,-0.055167
66.710,63.9899,-0.055167
66.819,64.0117,-0.055167
66.929,64.0338,-0.060238
67.036,64.0551,-0.060238
67.144,64.0767,-0.060238
67.254,64.0987,-0.065799
67.362,64.1202,-0.065799
67.472,64.1423,-0.071935
67.581,64.1640,-0.071935
67.689,64.1858,-0.078862
67.799,64.2077,-0.078862
67.909,64.2296,-0.086657
68.019,64.2518,-0.086657
68.129,64.2737,-0.095734
68.236,64.2951,-0.095734
68.347,64.3173,-0.106450
68.455,64.3390,-0.106450
68.563,64.3605,-0.106450
68.673,64.3824,-0.118892
68.782,64.4043,-0.118892
68.890,64.4258,-0.133539
68.998,64.4475,-0.133539
69.107,64.4694,-0.150957
69.216,64.4911,-0.150957
69.325,64.5131,-0.150957
69.437,64.5352,-0.171684
69.546,64.5571,-0.171684
69.656,64.5790,-0.196708
69.765,64.6010,-0.196708
69.875,64.6230,-0.226747
69.985,64.6449,-0.226747
70.094,64.6669,-0.262705
70.204,64.6886,-0.262705
70.313,64.7105,-0.262705
70.421,64.7320,-0.305864
70.530,64.7539,-0.305864
70.639,64.7756,-0.357458
70.749,64.7929,-0.357458
70.857,64.8008,-0.357458
70.966,64.8015,-0.415575
71.076,64.8015,-0.415575
71.185,64.8015,-0.446858
71.294,64.8015,-0.446858
71.403,64.8015,-0.441891
71.511,64.8015,-0.441891
71.619,64.8015,-0.431693
71.728,64.8015,-0.431693
71.839,64.8015,-0.424482
71.950,64.8015,-0.424482
72.059,64.8015,-0.424482
72.167,64.8015,-0.418629
72.276,64.8015,-0.418629
72.384,64.8015,-0.413540
72.493,64.8015,-0.413540
72.602,64.8015,-0.409336
72.713,64.8015,-0.409336
72.823,64.8015,-0.409336
72.932,64.8015,-0.405782
73.041,64.8015,-0.405782
73.151,64.8015,-0.402238
73.261,64.8015,-0.402238
73.370,64.8015,-0.399496
73.481,64.8015,-0.399496
73.589,64.8015,-0.396772
73.700,64.8015,-0.396772
73.809,64.8015,-0.396772
73.916,64.8015,-0.394180
74.027,64.8015,-0.394180
74.136,64.8015,-0.392021
74.244,64.8015,-0.392021
74.355,64.8015,-0.392021
74.461,64.8015,-0.389712
74.569,64.8015,-0.389712
74.679,64.8015,-0.387525
74.788,64.8015,-0.387525
74.897,64.8015,-0.380928
75.007,64.8015,-0.380928
75.115,64.8015,-0.367204
75.225,64.8015,-0.367204
75.334,64.8011,-0.367204
75.445,64.7936,-0.357279
75.554,64.7772,-0.357279
75.662,64.7556,-0.347345
75.771,64.7338,-0.347345
75.880,64.7121,-0.302744
75.989,64.6901,-0.302744
76.098,64.6684,-0.235663
76.208,64.6463,-0.235663
76.317,64.6245,-0.235663
76.427,64.6026,-0.181053
76.536,64.5809,-0.181053
76.644,64.5593,-0.138308
76.754,64.5373,-0.138308
76.864,64.5150,-0.103538
76.971,64.4938,-0.103538
77.081,64.4718,-0.103538
77.191,64.4498,-0.074414
77.300,64.4279,-0.074414
77.411,64.4057,-0.050228
77.522,64.3837,-0.050228
77.631,64.3618,-0.029982
77.740,64.3400,-0.029982
77.849,64.3183,-0.012573
77.957,64.2966,-0.012573
78.066,64.2748,-0.012573
78.175,64.2531,0.002535
78.283,64.2315,0.002535
78.391,64.2098,0.015703
78.502,64.1876,0.015703
78.611,64.1659,0.027560
78.721,64.1439,0.027560
78.829,64.1222,0.027560
78.940,64.1001,0.038616
79.047,64.0786,0.038616
79.156,64.0569,0.048890
79.266,64.0349,0.048890
79.374,64.0133,0.058692
79.482,63.9918,0.058692
79.592,63.9697,0.068532
79.701,63.9478,0.068532
79.809,63.9263,0.068532
79.918,63.9043,0.078363
80.027,63.8826,0.078363
80.139,63.8603,0.078363
80.247,63.8387,0.088542
80.356,63.8168,0.099466
80.466,63.7949,0.099466
80.576,63.7729,0.099466
80.683,63.7516,0.111503
80.792,63.7297,0.111503
80.902,63.7075,0.125282
81.009,63.6863,0.125282
81.119,63.6642,0.141409
81.229,63.6423,0.141409
81.337,63.6207,0.160298
81.445,63.5988,0.160298
81.554,63.5774,0.160298
81.664,63.5554,0.182485
81.772,63.5335,0.182485
81.882,63.5117,0.208386
81.990,63.4901,0.208386
82.099,63.4682,0.238595
82.208,63.4464,0.238595
82.317,63.4245,0.238595
82.426,63.4029,0.273638
82.536,63.3809,0.273638
82.644,63.3592,0.313894
82.752,63.3377,0.313894
82.861,63.3157,0.359551
82.970,63.2941,0.359551
83.077,63.2727,0.359551
83.186,63.2508,0.411145
83.296,63.2288,0.411145
83.405,63.2069,0.469998
83.514,63.1852,0.469998
83.624,63.1634,0.536079
83.732,63.1417,0.536079
83.843,63.1194,0.610050
83.951,63.0979,0.610050
84.060,63.0762,0.610050
84.169,63.0544,0.692579
84.279,63.0324,0.692579
84.390,63.0101,0.784146
84.497,62.9887,0.784146
84.606,62.9669,0.884433
84.715,62.9452,0.884433
84.823,62.9235,0.884433
84.932,62.9017,0.984351
85.040,62.8801,0.984351
85.150,62.8582,1.035786
85.259,62.8364,1.035786
85.367,62.8145,1.037397
85.477,62.7928,1.037397
85.586,62.7709,1.037397
85.696,62.7488,1.046304
85.804,62.7273,1.046304
85.913,62.7056,1.071838
86.022,62.6837,1.071838
86.131,62.6617,1.100670
86.239,62.6403,1.100670
86.348,62.6184,1.127005
86.458,62.5964,1.127005
86.567,62.5747,1.127005
86.675,62.5528,1.135045
86.785,62.5311,1.135045
86.893,62.5094,1.092885
87.003,62.4876,1.092885
87.113,62.4656,1.019989
87.222,62.4438,1.019989
87.331,62.4220,0.816617
87.441,62.3998,0.816617
87.548,62.3785,0.816617
87.656,62.3570,0.431844
87.764,62.3354,0.431844
87.874,62.3132,0.132455
87.983,62.2916,0.132455
88.093,62.2696,0.038870
88.202,62.2476,0.038870
88.311,62.2260,0.038870
88.419,62.2045,0.025373
88.527,62.1827,0.025373
88.636,62.1609,0.021518
88.746,62.1388,0.021518
88.854,62.1174,0.020331
88.963,62.0956,0.020331
89.073,62.0736,0.020331
89.184,62.0513,0.019661
89.294,62.0295,0.019661
89.403,62.0076,0.019049
89.512,61.9857,0.019049
89.620,61.9641,0.018549
89.729,61.9423,0.018549
89.839,61.9204,0.018078
89.948,61.8984,0.018078
90.059,61.8763,0.018078
90.167,61.8547,0.017390
90.276,61.8329,0.017390
90.385,61.8112,0.016928
90.495,61.7891,0.016928
90.602,61.7674,0.016711
90.710,61.7557,0.016711
90.821,61.7515,0.016711
90.930,61.7515,0.016183
91.040,61.7515,0.016183
91.149,61.7515,0.015731
91.257,61.7518,0.015731
91.366,61.7581,0.015618
91.476,61.7735,0.015618
91.585,61.7953,0.015618
91.695,61.8171,0.015363
91.803,61.8387,0.015363
91.912,61.8604,0.015118
92.021,61.8825,0.015118
92.130,61.9041,0.015118
92.238,61.9258,0.015062
92.347,61.9477,0.014986
92.457,61.9696,0.014986
92.564,61.9911,0.014986
92.673,62.0127,0.014939
92.783,62.0347,0.014939
92.891,62.0564,0.014864
92.999,62.0781,0.014864
93.109,62.0999,0.014864
93.216,62.1215,0.014675
93.326,62.1434,0.014675
93.433,62.1648,0.014487
93.543,62.1867,0.014487
93.652,62.2085,0.014270
93.762,62.2306,0.014270
93.871,62.2526,0.013931
93.981,62.2743,0.013931
94.088,62.2957,0.013582
94.197,62.3176,0.013582
94.307,62.3395,0.013582
94.415,62.3612,0.013205
94.524,62.3830,0.013205
94.634,62.4049,0.012734
94.743,62.4267,0.012734
94.851,62.4483,0.012272
94.961,62.4704,0.012272
95.071,62.4922,0.012272
95.179,62.5139,0.011735
95.286,62.5352,0.011735
95.394,62.5569,0.011301
95.503,62.5789,0.011301
95.612,62.6006,0.010896
95.721,62.6223,0.010896
95.830,62.6440,0.010896
95.938,62.6658,0.010415
96.047,62.6875,0.010415
96.159,62.7098,0.009765
96.267,62.7316,0.009765
96.376,62.7535,0.009086
96.486,62.7753,0.009086
96.595,62.7972,0.008398
96.704,62.8190,0.008398
96.813,62.8408,0.008398
96.921,62.8624,0.007587
97.030,62.8841,0.007587
97.140,62.9061,0.006692
97.249,62.9279,0.006692
97.360,62.9502,0.005665
97.470,62.9720,0.005665
97.577,62.9937,0.005665
97.688,63.0158,0.004571
97.796,63.0374,0.004571
97.904,63.0591,0.003346
98.015,63.0810,0.003346
98.122,63.1026,0.001951
98.230,63.1241,0.001951
98.338,63.1459,0.000330
98.447,63.1676,0.000330
98.557,63.1896,0.000330
98.667,63.2115,-0.001583
98.774,63.2330,-0.001583
98.884,63.2548,-0.003714
98.994,63.2770,-0.003714
99.104,63.2990,-0.006117
99.215,63.3212,-0.006117
99.327,63.3434,-0.006117
99.436,63.3653,-0.008907
99.544,63.3871,-0.008907
99.653,63.4087,-0.012008
99.763,63.4308,-0.012008
99.874,63.4531,-0.015486
99.984,63.4748,-0.015486
100.093,63.4969,-0.019162
100.202,63.5185,-0.019162
100.313,63.5406,-0.019162
100.423,63.5628,-0.022998
100.532,63.5845,-0.022998
100.640,63.6062,-0.027079
100.750,63.6280,-0.027079
100.859,63.6499,-0.031339
100.969,63.6718,-0.031339
101.078,63.6938,-0.031339
101.187,63.7154,-0.035600
101.295,63.7371,-0.035600
101.405,63.7591,-0.039926
101.515,63.7812,-0.039926
101.625,63.8031,-0.039926
101.734,63.8251,-0.044394
101.843,63.8466,-0.048946
101.951,63.8683,-0.048946
102.060,63.8901,-0.048946
102.170,63.9121,-0.053612
102.281,63.9342,-0.053612
102.389,63.9558,-0.058532
102.496,63.9774,-0.058532
102.606,63.9993,-0.063885
102.715,64.0211,-0.063885
102.824,64.0429,-0.063885
102.934,64.0649,-0.069776
103.044,64.0870,-0.069776
103.151,64.1082,-0.076383
103.261,64.1303,-0.076383
103.369,64.1520,-0.083914
103.480,64.1742,-0.083914
103.587,64.1955,-0.083914
103.696,64.2174,-0.092482
103.804,64.2389,-0.092482
103.915,64.2610,-0.102595
104.021,64.2823,-0.102595
104.131,64.3044,-0.114490
104.242,64.3264,-0.114490
104.349,64.3479,-0.128421
104.457,64.3697,-0.128421
104.566,64.3914,-0.128421
104.675,64.4131,-0.144850
104.784,64.4349,-0.144850
104.891,64.4563,-0.164379
105.001,64.4784,-0.164379
105.110,64.5000,-0.187867
105.218,64.5217,-0.187867
105.329,64.5439,-0.187867
105.436,64.5652,-0.216077
105.546,64.5873,-0.216077
105.654,64.6089,-0.249943
105.763,64.6307,-0.249943
105.871,64.6522,-0.290642
105.980,64.6741,-0.290642
106.089,64.6960,-0.339701
106.199,64.7179,-0.339701
106.308,64.7378,-0.339701
106.417,64.7489,-0.397846
106.528,64.7515,-0.397846
106.638,64.7515,-0.443522
106.746,64.7515,-0.443522
106.856,64.7515,-0.451401
106.964,64.7515,-0.451401
107.074,64.7515,-0.451401
107.182,64.7515,-0.440119
107.289,64.7515,-0.440119
107.399,64.7515,-0.431806
107.507,64.7515,-0.431806
107.617,64.7515,-0.425510
107.727,64.7515,-0.425510
107.837,64.7515,-0.420241
107.945,64.7515,-0.420241
108.054,64.7515,-0.420241
108.165,64.7515,-0.415792
108.273,64.7515,-0.415792
108.382,64.7515,-0.411937
108.490,64.7515,-0.411937
108.600,64.7515,-0.408487
108.709,64.7515,-0.408487
108.819,64.7515,-0.408487
108.927,64.7515,-0.405292
109.037,64.7515,-0.405292
109.147,64.7515,-0.402370
109.256,64.7515,-0.402370
109.366,64.7515,-0.399788
109.476,64.7515,-0.399788
109.585,64.7515,-0.399788
109.695,64.7515,-0.397384
109.806,64.7515,-0.397384
109.916,64.7515,-0.395188
110.025,64.7515,-0.395188
110.133,64.7515,-0.393181
110.242,64.7515,-0.393181
110.352,64.7515,-0.389222
110.463,64.7515,-0.389222
110.574,64.7515,-0.389222
110.685,64.7515,-0.376903
110.795,64.7515,-0.376903
110.905,64.7515,-0.363896
111.013,64.7490,-0.363896
111.122,64.7380,-0.360145
111.230,64.7184,-0.360145
111.337,64.6972,-0.360145
111.446,64.6755,-0.335233
111.556,64.6533,-0.335233
111.667,64.6313,-0.274703
111.776,64.6095,-0.274703
111.885,64.5876,-0.211440
111.996,64.5652,-0.211440
112.106,64.5433,-0.162202
112.215,64.5217,-0.162202
112.323,64.5000,-0.162202
112.433,64.4778,-0.122879
112.542,64.4561,-0.122879
112.651,64.4344,-0.090361
112.759,64.4126,-0.090361
112.868,64.3909,-0.063207
112.977,64.3692,-0.063207
113.087,64.3472,-0.040661
113.195,64.3254,-0.040661
113.304,64.3039,-0.040661
113.413,64.2820,-0.021528
113.522,64.2603,-0.021528
113.630,64.2387,-0.005014
113.739,64.2167,-0.005014
113.848,64.1952,0.009237
113.957,64.1733,0.009237
114.065,64.1516,0.009237
114.175,64.1298,0.021839
114.283,64.1076,0.021839
114.394,64.0858,0.033347
114.504,64.0639,0.033347
114.614,64.0417,0.044007
114.721,64.0203,0.044007
114.831,63.9985,0.044007
114.939,63.9767,0.054083
115.049,63.9549,0.054083
115.157,63.9332,0.063857
115.266,63.9114,0.063857
115.376,63.8894,0.073641
115.485,63.8676,0.073641
115.594,63.8459,0.083575
115.703,63.8241,0.083575
115.812,63.8021,0.083575
115.922,63.7803,0.093915
116.028,63.7590,0.093915
116.137,63.7373,0.105122
116.246,63.7154,0.105122
116.355,63.6935,0.117874
116.463,63.6720,0.117874
116.571,63.6504,0.117874
116.679,63.6290,0.132747
116.789,63.6068,0.132747
116.899,63.5850,0.150081
117.009,63.5626,0.150081
117.119,63.5408,0.150081
117.228,63.5190,0.170543
117.337,63.4973,0.194597
117.446,63.4756,0.194597
117.556,63.4534,0.194597
117.666,63.4313,0.222722
117.777,63.4093,0.222722
117.885,63.3875,0.255221
117.996,63.3654,0.255221
118.105,63.3437,0.292640
118.214,63.3217,0.292640
118.323,63.3002,0.292640
118.433,63.2779,0.335252
118.542,63.2563,0.335252
118.650,63.2345,0.383689
118.760,63.2128,0.383689
118.870,63.1907,0.438781
118.978,63.1690,0.438781
119.087,63.1472,0.438781
119.195,63.1258,0.500640
119.303,63.1039,0.500640
119.412,63.0823,0.570133
119.522,63.0602,0.570133
119.633,63.0381,0.648232
119.743,63.0161,0.648232
119.851,62.9945,0.735709
119.959,62.9729,0.735709
120.067,62.9512,0.735709
120.177,62.9290,0.829718
120.286,62.9075,0.829718
120.394,62.8858,0.922360
120.503,62.8639,0.922360
120.612,62.8424,1.018971
120.722,62.8204,1.018971
120.831,62.7985,1.018971
120.941,62.7763,1.126920
121.048,62.7550,1.126920
121.158,62.7332,1.238158
121.268,62.7112,1.238158
121.378,62.6889,1.309141
121.489,62.6669,1.309141
121.600,62.6447,1.314910
121.710,62.6228,1.314910
121.817,62.6012,1.314910
121.927,62.5791,1.293438
122.034,62.5579,1.293438
122.145,62.5357,1.144187
122.255,62.5136,1.144187
122.364,62.4917,0.859144
122.474,62.4699,0.859144
122.583,62.4482,0.859144
122.693,62.4262,0.615083
122.801,62.4045,0.615083
122.910,62.3827,0.419741
123.019,62.3608,0.419741
123.129,62.3389,0.193579
123.239,62.3167,0.193579
123.348,62.2950,0.050991
123.459,62.2728,0.050991
123.569,62.2510,0.050991
123.680,62.2286,0.030944
123.786,62.2074,0.030944
123.895,62.1857,0.024204
124.002,62.1643,0.024204
124.110,62.1424,0.021952
124.219,62.1209,0.021952
124.330,62.0988,0.021952
124.439,62.0770,0.020840
124.551,62.0544,0.020840
124.661,62.0326,0.019991
124.769,62.0109,0.019991
124.879,61.9889,0.019237
124.989,61.9668,0.019237
125.097,61.9452,0.018596
125.206,61.9233,0.018596
125.316,61.9015,0.018596
125.426,61.8795,0.018078
125.535,61.8577,0.018078
125.644,61.8359,0.018078
125.753,61.8140,0.017673
125.863,61.7922,0.017371
125.972,61.7701,0.017371
126.081,61.7485,0.017371
126.189,61.7268,0.017022
126.299,61.7100,0.017022
126.406,61.7022,0.016551
126.515,61.7015,0.016551
126.626,61.7015,0.016099
126.734,61.7015,0.016099
126.844,61.7015,0.015872
126.954,61.7015,0.015872
127.061,61.7024,0.015872
127.171,61.7110,0.015910
127.281,61.7288,0.015910
127.392,61.7510,0.015524
127.503,61.7731,0.015524
127.610,61.7946,0.015109
127.717,61.8160,0.015109
127.827,61.8381,0.015109
127.936,61.8598,0.015109
128.045,61.8815,0.015109
128.154,61.9034,0.015165
128.264,61.9253,0.015165
128.372,61.9470,0.015279
128.483,61.9691,0.015279
128.593,61.9911,0.015241
128.702,62.0131,0.015241
128.811,62.0348,0.015241
128.921,62.0566,0.015071
129.029,62.0784,0.015071
129.139,62.1004,0.014836
129.248,62.1222,0.014836
129.359,62.1443,0.014562
129.469,62.1664,0.014562
129.580,62.1885,0.014374
129.689,62.2104,0.014374
129.799,62.2324,0.014374
129.909,62.2543,0.014006
130.017,62.2760,0.014006
130.127,62.2980,0.013544
130.236,62.3199,0.013544
130.346,62.3416,0.013064
130.455,62.3634,0.013064
130.564,62.3854,0.013064
130.673,62.4071,0.012536
130.779,62.4283,0.012536
130.888,62.4501,0.012112
131.001,62.4728,0.012112
131.107,62.4938,0.011650
131.215,62.5155,0.011650
131.326,62.5377,0.011650
131.433,62.5590,0.011273
131.543,62.5811,0.011273
131.651,62.6028,0.010641
131.761,62.6249,0.010641
131.869,62.6465,0.009991
131.977,62.6681,0.009991
132.087,62.6899,0.009388
132.197,62.7120,0.009388
132.305,62.7335,0.009388
132.415,62.7556,0.008615
132.525,62.7774,0.008615
132.634,62.7994,0.007898
132.743,62.8211,0.007898
132.853,62.8430,0.006937
132.962,62.8651,0.006937
133.072,62.8870,0.006937
133.180,62.9085,0.005910
133.289,62.9304,0.005910
133.398,62.9522,0.004845
133.507,62.9739,0.004845
133.617,62.9960,0.003535
133.726,63.0178,0.003535
133.835,63.0395,0.003535
133.943,63.0611,0.002092
134.053,63.0829,0.002092
134.162,63.1049,0.000405
134.273,63.1271,0.000405
134.380,63.1485,-0.001470
134.489,63.1702,-0.001470
134.597,63.1920,-0.003516
134.706,63.2136,-0.003516
134.814,63.2353,-0.003516
134.924,63.2572,-0.005957
135.033,63.2791,-0.005957
135.141,63.3007,-0.008747
135.250,63.3225,-0.008747
135.360,63.3446,-0.011848
135.470,63.3664,-0.011848
135.579,63.3883,-0.011848
135.686,63.4098,-0.015165
135.797,63.4319,-0.015165
135.906,63.4537,-0.018841
136.015,63.4756,-0.018841
136.125,63.4975,-0.022857
136.233,63.5191,-0.022857
136.344,63.5413,-0.026910
136.453,63.5631,-0.026910
136.563,63.5850,-0.026910
136.670,63.6065,-0.031104
136.780,63.6284,-0.031104
136.889,63.6503,-0.035336
136.999,63.6723,-0.035336
137.107,63.6938,-0.039681
137.217,63.7160,-0.039681
137.327,63.7379,-0.039681
137.436,63.7597,-0.044139
137.544,63.7813,-0.044139
137.654,63.8032,-0.048673
137.762,63.8249,-0.048673
137.869,63.8463,-0.053357
137.978,63.8681,-0.053357
138.087,63.8898,-0.053357
138.196,63.9116,-0.058240
138.305,63.9336,-0.058240
138.414,63.9552,-0.063537
138.524,63.9772,-0.063537
138.633,63.9991,-0.069314
138.741,64.0208,-0.069314
138.850,64.0425,-0.075790
138.961,64.0647,-0.075790
139.067,64.0859,-0.075790
139.177,64.1081,-0.083151
139.286,64.1298,-0.083151
139.396,64.1517,-0.091671
139.506,64.1737,-0.091671
139.615,64.1954,-0.101672
139.725,64.2176,-0.101672
139.833,64.2391,-0.113435
139.943,64.2611,-0.113435
140.052,64.2827,-0.113435
140.160,64.3045,-0.127356
140.269,64.3262,-0.127356
140.378,64.3481,-0.143737
140.489,64.3701,-0.143737
140.599,64.3923,-0.163097
140.709,64.4143,-0.163097
140.819,64.4363,-0.163097
140.928,64.4581,-0.186387
141.037,64.4798,-0.186387
141.147,64.5017,-0.214371
141.256,64.5237,-0.214371
141.366,64.5456,-0.247897
141.476,64.5676,-0.247897
141.585,64.5894,-0.288219
141.694,64.6114,-0.288219
141.805,64.6335,-0.288219
141.915,64.6555,-0.336854
142.024,64.6772,-0.336854
142.135,64.6938,-0.394849
142.244,64.7012,-0.394849
142.353,64.7015,-0.444577
142.462,64.7015,-0.444577
142.570,64.7015,-0.444577
142.680,64.7015,-0.456755
142.788,64.7015,-0.456755
142.897,64.7015,-0.445463
143.007,64.7015,-0.445463
143.116,64.7015,-0.436820
143.226,64.7015,-0.436820
143.335,64.7015,-0.436820
143.443,64.7015,-0.430307
143.553,64.7015,-0.430307
143.662,64.7015,-0.424916
143.772,64.7015,-0.424916
143.882,64.7015,-0.420373
143.989,64.7015,-0.420373
144.100,64.7015,-0.416358
144.210,64.7015,-0.416358
144.319,64.7015,-0.416358
144.428,64.7015,-0.412767
144.539,64.7015,-0.412767
144.649,64.7015,-0.409581
144.759,64.7015,-0.409581
144.869,64.7015,-0.406697
144.976,64.7015,-0.406697
145.086,64.7015,-0.406697
145.196,64.7015,-0.404001
145.306,64.7015,-0.404001
145.416,64.7015,-0.401532
145.525,64.7015,-0.401532
145.635,64.7015,-0.399298
145.745,64.7015,-0.399298
145.855,64.7015,-0.397252
145.963,64.7015,-0.397252
146.073,64.7015,-0.397252
146.182,64.7015,-0.394462
146.292,64.7015,-0.394462
146.402,64.7015,-0.383991
146.512,64.7015,-0.383991
146.620,64.7015,-0.369938
146.729,64.7014,-0.369938
146.837,64.6957,-0.364216
146.944,64.6812,-0.364216
147.054,64.6596,-0.364216
147.162,64.6379,-0.343311
147.273,64.6156,-0.343311
147.381,64.5943,-0.285825
147.490,64.5723,-0.285825
147.599,64.5505,-0.285825
147.710,64.5283,-0.220347
147.820,64.5063,-0.220347
147.929,64.4845,-0.169290
148.039,64.4627,-0.169290
148.148,64.4407,-0.128742
148.255,64.4195,-0.128742
148.364,64.3977,-0.095319
148.474,64.3756,-0.095319
148.582,64.3540,-0.095319
148.690,64.3324,-0.067288
148.799,64.3106,-0.067288
148.908,64.2889,-0.044054
149.017,64.2670,-0.044054
149.127,64.2451,-0.024402
149.236,64.2231,-0.024402
149.347,64.2011,-0.007493
149.456,64.1792,-0.007493
149.564,64.1576,-0.007493
149.673,64.1360,0.007107
149.782,64.1140,0.007107
149.891,64.0923,0.019954
149.999,64.0706,0.019954
150.108,64.0487,0.031698
150.217,64.0270,0.031698
150.329,64.0047,0.031698
150.436,63.9832,0.042537
150.546,63.9612,0.042537
150.654,63.9398,0.052575
150.761,63.9180,0.052575
150.869,63.8966,0.062321
150.979,63.8747,0.062321
151.087,63.8531,0.071963
151.196,63.8311,0.071963
151.304,63.8094,0.071963
151.414,63.7876,0.081737
151.525,63.7655,0.081737
151.635,63.7433,0.091992
151.741,63.7224,0.091992
151.851,63.7003,0.091992
151.960,63.6783,0.103104
152.071,63.6564,0.103104
152.177,63.6348,0.115603
152.287,63.6131,0.115603
152.396,63.5913,0.130099
152.505,63.5695,0.130099
152.613,63.5477,0.147017
152.722,63.5260,0.147017
152.833,63.5038,0.147017
152.942,63.4821,0.166905
153.051,63.4603,0.166905
153.161,63.4384,0.190403
153.270,63.4165,0.190403
153.380,63.3946,0.217859
153.488,63.3728,0.217859
153.595,63.3515,0.249585
153.702,63.3300,0.249585
153.812,63.3080,0.249585
153.921,63.2864,0.286080
154.029,63.2647,0.286080
154.140,63.2425,0.328108
154.250,63.2203,0.328108
154.360,63.1984,0.375734
154.471,63.1762,0.375734
154.580,63.1546,0.375734
154.689,63.1326,0.429657
154.797,63.1109,0.429657
154.907,63.0890,0.490413
155.016,63.0673,0.490413
155.125,63.0455,0.558672
155.233,63.0237,0.558672
155.343,63.0019,0.635819
155.452,62.9801,0.635819
155.562,62.9580,0.635819
155.673,62.9358,0.722203
155.780,62.9146,0.722203
155.890,62.8925,0.817908
156.000,62.8705,0.817908
156.108,62.8486,0.921899
156.218,62.8268,0.921899
156.328,62.8048,0.921899
156.435,62.7836,1.034089
156.544,62.7616,1.034089
156.656,62.7394,1.034089
156.764,62.7177,1.154593
156.872,62.6961,1.283636
156.981,62.6744,1.283636
157.091,62.6523,1.421888
157.200,62.6303,1.421888
157.311,62.6080,1.421888
157.421,62.5864,1.566822
157.528,62.5649,1.566822
157.637,62.5430,1.681859
157.745,62.5215,1.681859
157.856,62.4994,1.615514
157.963,62.4778,1.615514
158.075,62.4555,1.615514
158.183,62.4339,1.479995
158.292,62.4122,1.479995
158.400,62.3906,1.439513
158.510,62.3685,1.439513
158.617,62.3470,1.439513
158.727,62.3250,1.354939
158.837,62.3032,1.119116
158.945,62.2813,1.119116
159.055,62.2595,1.119116
159.166,62.2372,0.699176
159.275,62.2156,0.699176
159.384,62.1938,0.255523
159.494,62.1717,0.255523
159.602,62.1503,0.050822
159.712,62.1282,0.050822
159.822,62.1062,0.050822
159.931,62.0843,0.028550
160.040,62.0624,0.028550
160.148,62.0407,0.022074
160.257,62.0189,0.022074
160.366,61.9972,0.020576
160.477,61.9751,0.020576
160.585,61.9536,0.020576
160.694,61.9318,0.019784
160.803,61.9099,0.019784
160.912,61.8882,0.019115
161.022,61.8660,0.019115
161.131,61.8443,0.018653
161.239,61.8227,0.018653
161.348,61.8008,0.018078
161.456,61.7793,0.018078
161.566,61.7575,0.018078
161.677,61.7351,0.017569
161.786,61.7133,0.017569
161.895,61.6914,0.017201
162.006,61.6700,0.017201
162.114,61.6564,0.016881
162.221,61.6516,0.016881
162.331,61.6516,0.016881
162.440,61.6516,0.016353
162.548,61.6516,0.016353
162.656,61.6516,0.015948
162.767,61.6574,0.015948
162.876,61.6720,0.015816
162.984,61.6934,0.015816
163.095,61.7156,0.015627
163.204,61.7374,0.015627
163.313,61.7590,0.015627
163.423,61.7812,0.015401
163.532,61.8029,0.015401
163.641,61.8246,0.015288
163.749,61.8461,0.015288
163.858,61.8681,0.015297
163.967,61.8899,0.015297
164.075,61.9116,0.015297
164.184,61.9333,0.015307
164.294,61.9553,0.015307
164.405,61.9775,0.015250
164.514,61.9993,0.015250
164.622,62.0208,0.015071
164.732,62.0430,0.015071
164.841,62.0646,0.015071
164.950,62.0864,0.014902
165.060,62.1085,0.014902
165.167,62.1299,0.014788
165.277,62.1520,0.014788
165.386,62.1737,0.014496
165.495,62.1954,0.014496
165.604,62.2173,0.014496
165.713,62.2391,0.014138
165.822,62.2610,0.014138
165.930,62.2825,0.013799
166.038,62.3042,0.013799
166.147,62.3260,0.013262
166.257,62.3478,0.013262
166.367,62.3699,0.012771
166.477,62.3917,0.012771
166.585,62.4136,0.012319
166.694,62.4351,0.012319
166.803,62.4570,0.012319
166.912,62.4788,0.011801
167.022,62.5010,0.011801
167.129,62.5223,0.011235
167.240,62.5445,0.011235
167.350,62.5664,0.010688
167.461,62.5887,0.010688
167.568,62.6101,0.010688
167.679,62.6323,0.010076
167.787,62.6539,0.010076
167.895,62.6754,0.009227
168.004,62.6974,0.009227
168.113,62.7189,0.008323
168.222,62.7407,0.008323
168.331,62.7626,0.008323
168.439,62.7843,0.007587
168.548,62.8062,0.007587
168.657,62.8278,0.006758
168.766,62.8497,0.006758
168.875,62.8714,0.005712
168.985,62.8935,0.005712
169.094,62.9151,0.004402
169.202,62.9367,0.004402
169.311,62.9585,0.004402
169.420,62.9803,0.003016
169.529,63.0023,0.003016
169.637,63.0239,0.001480
169.746,63.0457,0.001480
169.854,63.0672,-0.000415
169.964,63.0892,-0.000415
170.073,63.1109,-0.000415
170.182,63.1328,-0.002460
170.291,63.1547,-0.002460
170.400,63.1763,-0.004760
170.509,63.1983,-0.004760
170.619,63.2201,-0.007286
170.727,63.2418,-0.007286
170.836,63.2639,-0.007286
170.944,63.2852,-0.010283
171.054,63.3073,-0.010283
171.163,63.3290,-0.013705
171.272,63.3508,-0.013705
171.382,63.3730,-0.017267
171.490,63.3945,-0.017267
171.600,63.4163,-0.021103
171.709,63.4381,-0.021103
171.819,63.4603,-0.021103
171.928,63.4820,-0.025128
172.038,63.5041,-0.025128
172.148,63.5260,-0.029351
172.255,63.5475,-0.029351
172.364,63.5692,-0.033639
172.475,63.5914,-0.033639
172.583,63.6130,-0.033639
172.693,63.6349,-0.037947
172.801,63.6566,-0.037947
172.909,63.6782,-0.042367
173.018,63.7002,-0.042367
173.129,63.7221,-0.046854
173.240,63.7445,-0.046854
173.348,63.7660,-0.051472
173.458,63.7879,-0.051472
173.566,63.8098,-0.051472
173.674,63.8313,-0.056307
173.785,63.8535,-0.056307
173.895,63.8753,-0.061435
174.004,63.8972,-0.061435
174.113,63.9190,-0.067015
174.221,63.9405,-0.067015
174.330,63.9624,-0.067015
174.440,63.9844,-0.073151
174.549,64.0061,-0.073151
174.656,64.0276,-0.080135
174.765,64.0495,-0.080135
174.873,64.0709,-0.088043
174.983,64.0930,-0.088043
175.093,64.1149,-0.097214
175.202,64.1369,-0.097214
175.310,64.1583,-0.097214
175.420,64.1803,-0.108119
175.530,64.2025,-0.108119
175.638,64.2240,-0.121022
175.747,64.2458,-0.121022
175.856,64.2676,-0.136282
175.965,64.2895,-0.136282
176.072,64.3109,-0.136282
176.181,64.3327,-0.154313
176.291,64.3545,-0.154313
176.401,64.3766,-0.175708
176.508,64.3982,-0.175708
176.616,64.4196,-0.201213
176.725,64.4415,-0.201213
176.834,64.4632,-0.231752
176.944,64.4852,-0.231752
177.054,64.5073,-0.231752
177.165,64.5295,-0.268652
177.274,64.5511,-0.268652
177.383,64.5729,-0.313291
177.493,64.5949,-0.313291
177.602,64.6170,-0.313291
177.713,64.6372,-0.366799
177.821,64.6487,-0.366799
177.931,64.6514,-0.427150
178.040,64.6514,-0.427150
178.149,64.6514,-0.460139
178.259,64.6514,-0.460139
178.365,64.6514,-0.455841
178.474,64.6514,-0.455841
178.584,64.6514,-0.455841
178.694,64.6514,-0.445435
178.802,64.6514,-0.445435
178.910,64.6514,-0.437819
179.019,64.6514,-0.437819
179.130,64.6514,-0.431872
179.240,64.6514,-0.431872
179.347,64.6514,-0.426914
179.459,64.6514,-0.426914
179.568,64.6514,-0.426914
179.677,64.6514,-0.422569
179.787,64.6514,-0.422569
179.895,64.6514,-0.418780
180.004,64.6514,-0.418780
180.115,64.6514,-0.415368
180.225,64.6514,-0.415368
180.334,64.6514,-0.412229
180.441,64.6514,-0.412229
180.551,64.6514,-0.412229
180.661,64.6514,-0.409430
180.771,64.6514,-0.409430
180.880,64.6514,-0.406847
180.989,64.6514,-0.406847
181.098,64.6514,-0.404491
181.205,64.6514,-0.404491
181.314,64.6514,-0.404491
181.425,64.6514,-0.402286
181.535,64.6514,-0.402286
181.644,64.6514,-0.400184
181.753,64.6514,-0.400184
181.863,64.6514,-0.397809
181.971,64.6514,-0.397809
182.079,64.6514,-0.397809
182.188,64.6514,-0.389052
182.300,64.6514,-0.389052
182.411,64.6514,-0.374952
182.520,64.6514,-0.374952
182.627,64.6468,-0.367657
182.737,64.6331,-0.367657
182.846,64.6122,-0.354555
182.954,64.5905,-0.354555
183.063,64.5688,-0.354555
183.173,64.5468,-0.304035
183.282,64.5249,-0.304035
183.392,64.5030,-0.304035
183.501,64.4810,-0.235494
183.610,64.4593,-0.181043
183.718,64.4377,-0.181043
183.825,64.4163,-0.181043
183.935,64.3943,-0.138158
184.045,64.3724,-0.138158
184.153,64.3508,-0.103133
184.263,64.3287,-0.103133
184.373,64.3068,-0.073754
184.483,64.2848,-0.073754
184.593,64.2626,-0.049295
184.701,64.2410,-0.049295
184.810,64.2192,-0.049295
184.918,64.1978,-0.028700
185.027,64.1759,-0.028700
185.136,64.1540,-0.011113
185.245,64.1324,-0.011113
185.355,64.1104,0.004034
185.465,64.0884,0.004034
185.575,64.0663,0.004034
185.683,64.0446,0.017343
185.793,64.0228,0.017343
185.904,64.0006,0.029304
186.013,63.9787,0.029304
186.122,63.9570,0.040237
186.231,63.9350,0.040237
186.341,63.9132,0.050294
186.448,63.8919,0.050294
186.556,63.8701,0.050294
186.664,63.8484,0.060030
186.774,63.8266,0.060030
186.885,63.8045,0.069795
186.994,63.7825,0.069795
187.102,63.7609,0.079588
187.212,63.7387,0.079588
187.322,63.7170,0.079588
187.431,63.6952,0.089664
187.538,63.6738,0.089664
187.647,63.6519,0.100315
187.758,63.6299,0.100315
187.868,63.6077,0.112445
187.976,63.5861,0.112445
188.086,63.5642,0.112445
188.193,63.5427,0.126536
188.302,63.5210,0.126536
188.411,63.4991,0.142927
188.519,63.4777,0.142927
188.627,63.4557,0.162089
188.737,63.4340,0.162089
188.845,63.4124,0.184615
188.954,63.3906,0.184615
189.063,63.3688,0.184615
189.174,63.3466,0.211016
189.282,63.3250,0.211016
189.392,63.3029,0.241488
189.501,63.2812,0.241488
189.611,63.2590,0.276155
189.720,63.2373,0.276155
189.830,63.2154,0.276155
189.939,63.1934,0.315836
190.049,63.1717,0.315836
190.156,63.1501,0.360748
190.265,63.1283,0.360748
190.374,63.1065,0.411268
190.482,63.0848,0.411268
190.591,63.0633,0.468546
190.701,63.0411,0.468546
190.811,63.0193,0.468546
190.919,62.9976,0.532809
191.031,62.9753,0.532809
191.137,62.9539,0.604988
191.248,62.9317,0.604988
191.357,62.9100,0.604988
191.466,62.8881,0.685293
191.574,62.8667,0.685293
191.683,62.8449,0.773448
191.792,62.8230,0.773448
191.900,62.8015,0.869003
192.010,62.7795,0.869003
192.119,62.7577,0.971193
192.228,62.7356,0.971193
192.337,62.7139,0.971193
192.446,62.6922,1.079897
192.554,62.6707,1.079897
192.664,62.6486,1.190937
192.773,62.6268,1.190937
192.883,62.6049,1.281129
192.992,62.5830,1.281129
193.103,62.5608,1.307850
193.213,62.5389,1.307850
193.322,62.5169,1.307850
193.431,62.4952,1.296530
193.541,62.4731,1.296530
193.651,62.4511,1.303260
193.760,62.4294,1.303260
193.867,62.4078,1.319453
193.977,62.3859,1.319453
194.086,62.3643,1.319453
194.195,62.3425,1.146760
194.303,62.3207,1.146760
194.412,62.2990,0.782667
194.521,62.2771,0.782667
194.630,62.2555,0.466539
194.740,62.2333,0.466539
194.848,62.2116,0.199404
194.957,62.1899,0.199404
195.068,62.1679,0.199404
195.177,62.1459,0.049389
195.286,62.1241,0.049389
195.396,62.1021,0.030227
195.503,62.0809,0.030227
195.612,62.0590,0.023724
195.721,62.0373,0.023724
195.831,62.0149,0.021688
195.941,61.9932,0.021688
196.051,61.9713,0.021688
196.160,61.9493,0.020632
196.267,61.9280,0.020632
196.375,61.9063,0.019784
196.484,61.8846,0.019784
196.593,61.8629,0.019020
196.702,61.8409,0.019020
196.811,61.8192,0.019020
196.920,61.7975,0.018455
197.029,61.7756,0.018455
197.138,61.7537,0.017918
197.248,61.7317,0.017918
197.357,61.7101,0.017918
197.467,61.6879,0.017418
197.577,61.6659,0.017418
197.687,61.6440,0.017069
197.795,61.6227,0.017069
197.904,61.6077,0.016740
198.012,61.6016,0.016740
198.120,61.6014,0.016278
198.229,61.6014,0.016278
198.339,61.6014,0.015976
198.448,61.6014,0.015976
198.557,61.6044,0.015976
198.665,61.6160,0.015835
198.773,61.6358,0.015835
198.883,61.6579,0.015411
198.993,61.6798,0.015411
199.100,61.7013,0.015213
199.209,61.7232,0.015213
199.320,61.7452,0.015213
199.429,61.7670,0.015250
199.538,61.7891,0.015250
199.647,61.8108,0.015307
199.757,61.8328,0.015307
199.866,61.8546,0.015411
199.975,61.8764,0.015411
200.084,61.8982,0.015411
200.191,61.9194,0.015335
200.299,61.9411,0.015335
200.410,61.9632,0.015175
200.518,61.9849,0.015175
200.629,62.0071,0.014958
200.738,62.0290,0.014958
200.847,62.0507,0.014713
200.955,62.0724,0.014713
201.065,62.0942,0.014713
201.173,62.1159,0.014600
201.282,62.1379,0.014600
201.393,62.1598,0.014336
201.501,62.1815,0.014336
201.612,62.2037,0.013940
201.720,62.2254,0.013940
201.828,62.2469,0.013940
201.936,62.2684,0.013441
202.045,62.2903,0.013441
202.154,62.3122,0.012903
202.263,62.3339,0.012903
202.371,62.3554,0.012508
202.481,62.3773,0.012508
202.589,62.3992,0.011923
202.699,62.4210,0.011923
202.808,62.4427,0.011923
202.917,62.4647,0.011292
203.025,62.4862,0.011292
203.134,62.5081,0.010698
203.243,62.5298,0.010698
203.352,62.5516,0.009991
203.461,62.5734,0.009991
203.572,62.5956,0.009991
203.679,62.6173,0.009331
203.787,62.6387,0.009331
203.895,62.6605,0.008587
204.004,62.6821,0.008587
204.112,62.7036,0.007776
204.221,62.7255,0.007776
204.332,62.7477,0.007776
204.441,62.7696,0.006833
204.549,62.7911,0.006833
204.659,62.8133,0.005815
204.767,62.8346,0.005815
204.877,62.8566,0.004703
204.984,62.8781,0.004703
205.093,62.8999,0.003431
205.202,62.9217,0.003431
205.310,62.9434,0.003431
205.419,62.9651,0.001857
205.527,62.9867,0.001857
205.637,63.0086,-0.000028
205.746,63.0304,-0.000028
205.855,63.0523,-0.002008
205.965,63.0744,-0.002008
206.074,63.0959,-0.002008
206.183,63.1178,-0.004194
206.292,63.1396,-0.004194
206.401,63.1614,-0.006701
206.511,63.1834,-0.006701
206.621,63.2053,-0.009548
206.729,63.2270,-0.009548
206.838,63.2489,-0.012649
206.947,63.2707,-0.012649
207.056,63.2925,-0.012649
207.166,63.3146,-0.016231
207.277,63.3365,-0.016231
207.386,63.3585,-0.020152
207.495,63.3803,-0.020152
207.604,63.4020,-0.023903
207.715,63.4242,-0.023903
207.822,63.4458,-0.023903
207.931,63.4674,-0.027993
208.040,63.4891,-0.027993
208.149,63.5112,-0.032386
208.257,63.5327,-0.032386
208.366,63.5543,-0.036637
208.476,63.5764,-0.036637
208.584,63.5980,-0.036637
208.693,63.6197,-0.040982
208.802,63.6415,-0.040982
208.910,63.6632,-0.045393
209.019,63.6850,-0.045393
209.127,63.7069,-0.050058
209.236,63.7285,-0.050058
209.345,63.7504,-0.054809
209.454,63.7721,-0.054809
209.562,63.7937,-0.054809
209.672,63.8158,-0.059861
209.781,63.8375,-0.059861
209.891,63.8595,-0.065346
210.000,63.8811,-0.065346
210.110,63.9033,-0.071218
210.219,63.9250,-0.071218
210.328,63.9469,-0.071218
210.438,63.9687,-0.077826
210.547,63.9908,-0.077826
210.656,64.0125,-0.085451
210.765,64.0343,-0.085451
210.874,64.0560,-0.094320
210.983,64.0777,-0.094320
211.091,64.0994,-0.104622
211.201,64.1214,-0.104622
211.312,64.1437,-0.104622
211.422,64.1659,-0.116932
211.532,64.1876,-0.116932
211.643,64.2098,-0.131550
211.752,64.2316,-0.131550
211.862,64.2538,-0.148761
211.973,64.2758,-0.148761
212.080,64.2971,-0.148761
212.189,64.3189,-0.169252
212.296,64.3405,-0.169252
212.404,64.3620,-0.193673
212.512,64.3837,-0.193673
212.620,64.4052,-0.223259
212.729,64.4271,-0.223259
212.841,64.4494,-0.259199
212.949,64.4711,-0.259199
213.059,64.4931,-0.259199
213.169,64.5150,-0.301358
213.278,64.5367,-0.301358
213.387,64.5585,-0.351624
213.496,64.5801,-0.351624
213.606,64.5954,-0.412050
213.716,64.6013,-0.412050
213.825,64.6015,-0.412050
213.933,64.6015,-0.457038
214.043,64.6015,-0.457038
214.152,64.6015,-0.462618
