Elapsed Time (s),Position (mm),Force (N)
-0.010,70.8882,0.013400
0.023,70.8882,0.013400
0.052,70.8882,0.013400
0.083,70.8882,0.013400
0.115,70.8882,0.013400
0.147,70.8882,0.013400
0.179,70.8882,0.013400
0.210,70.8882,0.013390
0.242,70.8882,0.013390
0.273,70.8882,0.013390
0.304,70.8882,0.013390
0.336,70.8882,0.013390
0.367,70.8882,0.013390
0.398,70.8882,0.013390
0.430,70.8882,0.013390
0.462,70.8882,0.013456
0.493,70.8882,0.013456
0.523,70.8882,0.013456
0.553,70.8882,0.013456
0.584,70.8882,0.013456
0.614,70.8882,0.013456
0.645,70.8882,0.013456
0.676,70.8882,0.013456
0.707,70.8882,0.013456
0.739,70.8882,0.013475
0.770,70.8882,0.013475
0.800,70.8882,0.013475
0.831,70.8882,0.013475
0.863,70.8882,0.013475
0.894,70.8882,0.013475
0.924,70.8882,0.013475
0.955,70.8882,0.013475
0.986,70.8882,0.013475
1.018,70.8882,0.013447
1.048,70.8882,0.013447
1.080,70.8882,0.013447
1.111,70.8882,0.013447
1.142,70.8882,0.013447
1.173,70.8882,0.013447
1.204,70.8882,0.013447
1.235,70.8882,0.013437
1.266,70.8882,0.013437
1.297,70.8882,0.013437
1.329,70.8882,0.013437
1.359,70.8882,0.013437
1.391,70.8882,0.013437
1.421,70.8882,0.013437
1.452,70.8882,0.013437
1.484,70.8882,0.013418
1.514,70.8882,0.013418
1.547,70.8882,0.013418
1.577,70.8882,0.013418
1.608,70.8882,0.013418
1.639,70.8882,0.013418
1.669,70.8882,0.013418
1.701,70.8882,0.013418
1.732,70.8882,0.013381
1.764,70.8882,0.013381
1.795,70.8882,0.013381
1.825,70.8882,0.013381
1.856,70.8882,0.013381
1.887,70.8882,0.013381
1.918,70.8882,0.013381
1.949,70.8882,0.013390
1.981,70.8882,0.013390
2.011,70.8882,0.013390
2.042,70.8882,0.013390
2.073,70.8882,0.013390
2.103,70.8882,0.013390
2.135,70.8882,0.013390
2.166,70.8882,0.013390
2.197,70.8882,0.013437
2.228,70.8882,0.013437
2.259,70.8882,0.013437
2.290,70.8882,0.013437
2.321,70.8882,0.013437
2.352,70.8882,0.013437
2.383,70.8882,0.013437
2.413,70.8882,0.013437
2.444,70.8882,0.013371
2.476,70.8882,0.013371
2.507,70.8882,0.013371
2.537,70.8882,0.013371
2.568,70.8882,0.013371
2.600,70.8882,0.013371
2.629,70.8882,0.013371
2.661,70.8882,0.013371
2.692,70.8882,0.013371
2.724,70.8882,0.013418
2.755,70.8882,0.013418
2.787,70.8882,0.013418
2.817,70.8882,0.013418
2.848,70.8882,0.013418
2.879,70.8882,0.013418
2.911,70.8882,0.013418
2.942,70.8882,0.013418
2.973,70.8882,0.013447
3.003,70.8882,0.013447
3.035,70.8882,0.013447
3.066,70.8882,0.013447
3.097,70.8882,0.013447
3.127,70.8882,0.013447
3.158,70.8882,0.013447
3.190,70.8882,0.013447
3.221,70.8882,0.013381
3.252,70.8882,0.013381
3.283,70.8882,0.013381
3.313,70.8882,0.013381
3.344,70.8882,0.013381
3.375,70.8882,0.013381
3.406,70.8882,0.013381
3.437,70.8882,0.013381
3.468,70.8882,0.013409
3.500,70.8882,0.013409
3.531,70.8882,0.013409
3.562,70.8882,0.013409
3.593,70.8882,0.013409
3.623,70.8882,0.013409
3.654,70.8882,0.013409
3.685,70.8882,0.013409
3.716,70.8882,0.013409
3.747,70.8882,0.013418
3.778,70.8882,0.013418
3.808,70.8882,0.013418
3.839,70.8882,0.013418
3.870,70.8882,0.013418
3.901,70.8882,0.013418
3.932,70.8882,0.013418
3.963,70.8882,0.013371
3.995,70.8882,0.013371
4.026,70.8882,0.013371
4.058,70.8882,0.013371
4.088,70.8882,0.013371
4.119,70.8877,0.013371
4.150,70.8865,0.013371
4.181,70.8846,0.013371
4.213,70.8819,0.013409
4.244,70.8784,0.013409
4.275,70.8743,0.013409
4.305,70.8696,0.013409
4.339,70.8634,0.013409
4.368,70.8577,0.013409
4.399,70.8515,0.013409
4.429,70.8454,0.013409
4.461,70.8390,0.013409
4.492,70.8326,0.013494
4.523,70.8266,0.013494
4.555,70.8202,0.013494
4.586,70.8140,0.013494
4.616,70.8080,0.013494
4.647,70.8016,0.013494
4.678,70.7956,0.013494
4.711,70.7891,0.013494
4.740,70.7832,0.013418
4.772,70.7767,0.013418
4.802,70.7707,0.013418
4.833,70.7644,0.013418
4.864,70.7585,0.013418
4.895,70.7520,0.013418
4.925,70.7462,0.013418
4.957,70.7399,0.013418
4.986,70.7339,0.013343
5.018,70.7277,0.013343
5.048,70.7214,0.013343
5.080,70.7153,0.013343
5.111,70.7091,0.013343
5.142,70.7028,0.013343
5.173,70.6967,0.013343
5.203,70.6905,0.013343
5.234,70.6844,0.013390
5.265,70.6781,0.013390
5.296,70.6720,0.013390
5.328,70.6656,0.013390
5.361,70.6589,0.013390
5.390,70.6533,0.013390
5.421,70.6471,0.013390
5.452,70.6408,0.013390
5.483,70.6346,0.013428
5.515,70.6282,0.013428
5.545,70.6223,0.013428
5.576,70.6160,0.013428
5.607,70.6099,0.013428
5.639,70.6036,0.013428
5.669,70.5974,0.013428
5.700,70.5912,0.013428
5.732,70.5848,0.013437
5.764,70.5785,0.013437
5.795,70.5722,0.013437
5.825,70.5662,0.013437
5.857,70.5597,0.013437
5.887,70.5538,0.013437
5.920,70.5471,0.013437
5.949,70.5414,0.013437
5.981,70.5350,0.013409
6.012,70.5288,0.013409
6.044,70.5226,0.013409
6.075,70.5163,0.013409
6.106,70.5102,0.013409
6.136,70.5040,0.013409
6.168,70.4977,0.013409
6.199,70.4913,0.013381
6.229,70.4854,0.013381
6.260,70.4793,0.013381
6.292,70.4730,0.013381
6.322,70.4669,0.013381
6.354,70.4603,0.013381
6.385,70.4541,0.013381
6.415,70.4480,0.013381
6.448,70.4416,0.013381
6.478,70.4356,0.013381
6.509,70.4296,0.013371
6.540,70.4231,0.013371
6.571,70.4170,0.013371
6.603,70.4105,0.013371
6.634,70.4044,0.013371
6.666,70.3979,0.013371
6.698,70.3916,0.013371
6.728,70.3855,0.013371
6.759,70.3795,0.013353
6.789,70.3734,0.013353
6.820,70.3673,0.013353
6.851,70.3610,0.013353
6.882,70.3548,0.013353
6.913,70.3485,0.013353
6.944,70.3422,0.013400
6.975,70.3360,0.013400
7.006,70.3298,0.013400
7.038,70.3236,0.013400
7.069,70.3172,0.013400
7.100,70.3111,0.013400
7.132,70.3048,0.013400
7.162,70.2987,0.013400
7.193,70.2925,0.013400
7.224,70.2863,0.013400
7.256,70.2799,0.013390
7.287,70.2738,0.013390
7.318,70.2676,0.013390
7.349,70.2614,0.013390
7.380,70.2553,0.013390
7.411,70.2489,0.013390
7.442,70.2429,0.013390
7.473,70.2366,0.013390
7.503,70.2308,0.013390
7.534,70.2244,0.013390
7.565,70.2183,0.013390
7.596,70.2121,0.013390
7.628,70.2057,0.013390
7.657,70.1997,0.013390
7.687,70.1938,0.013390
7.719,70.1875,0.013390
7.750,70.1813,0.013437
7.781,70.1749,0.013437
7.812,70.1689,0.013437
7.843,70.1628,0.013437
7.873,70.1566,0.013437
7.905,70.1501,0.013437
7.936,70.1442,0.013437
7.966,70.1379,0.013466
7.997,70.1318,0.013466
8.028,70.1255,0.013466
8.059,70.1193,0.013466
8.090,70.1131,0.013466
8.121,70.1070,0.013466
8.153,70.1005,0.013466
8.186,70.0941,0.013466
8.216,70.0880,0.013418
8.248,70.0817,0.013418
8.279,70.0754,0.013418
8.310,70.0691,0.013418
8.341,70.0631,0.013418
8.372,70.0569,0.013418
8.405,70.0503,0.013418
8.434,70.0443,0.013390
8.466,70.0381,0.013390
8.498,70.0317,0.013390
8.530,70.0252,0.013390
8.560,70.0193,0.013390
8.590,70.0131,0.013390
8.621,70.0070,0.013390
8.654,70.0006,0.013390
8.683,69.9946,0.013390
8.714,69.9885,0.013400
8.745,69.9822,0.013400
8.776,69.9761,0.013400
8.807,69.9699,0.013400
8.838,69.9636,0.013400
8.869,69.9573,0.013400
8.901,69.9511,0.013400
8.933,69.9446,0.013400
8.965,69.9383,0.013390
8.996,69.9320,0.013390
9.028,69.9258,0.013390
9.058,69.9195,0.013390
9.090,69.9134,0.013390
9.119,69.9073,0.013390
9.149,69.9013,0.013390
9.179,69.8954,0.013390
9.210,69.8892,0.013390
9.241,69.8831,0.013418
9.272,69.8768,0.013418
9.302,69.8707,0.013418
9.333,69.8646,0.013418
9.364,69.8584,0.013418
9.395,69.8522,0.013418
9.425,69.8462,0.013418
9.456,69.8400,0.013447
9.487,69.8339,0.013447
9.518,69.8278,0.013447
9.550,69.8214,0.013447
9.581,69.8151,0.013447
9.612,69.8087,0.013447
9.643,69.8027,0.013447
9.674,69.7964,0.013447
9.705,69.7900,0.013447
9.737,69.7838,0.013428
9.768,69.7778,0.013428
9.799,69.7714,0.013428
9.830,69.7653,0.013428
9.861,69.7590,0.013428
9.893,69.7528,0.013428
9.925,69.7462,0.013428
9.956,69.7401,0.013400
9.988,69.7335,0.013400
10.018,69.7277,0.013400
10.049,69.7214,0.013400
10.080,69.7153,0.013400
10.111,69.7091,0.013400
10.142,69.7027,0.013400
10.173,69.6967,0.013400
10.204,69.6905,0.013400
10.235,69.6843,0.013400
10.266,69.6781,0.013400
10.297,69.6718,0.013400
10.330,69.6653,0.013400
10.360,69.6591,0.013400
10.392,69.6529,0.013400
10.423,69.6466,0.013400
10.454,69.6405,0.013437
10.485,69.6343,0.013437
10.514,69.6284,0.013437
10.546,69.6220,0.013437
10.577,69.6158,0.013437
10.609,69.6094,0.013437
10.640,69.6032,0.013437
10.671,69.5970,0.013437
10.703,69.5908,0.013428
10.734,69.5845,0.013428
10.765,69.5781,0.013428
10.796,69.5721,0.013428
10.826,69.5661,0.013428
10.857,69.5599,0.013428
10.888,69.5536,0.013428
10.919,69.5475,0.013428
10.950,69.5412,0.013390
10.982,69.5349,0.013390
11.013,69.5288,0.013390
11.044,69.5223,0.013390
11.075,69.5164,0.013390
11.105,69.5102,0.013390
11.137,69.5039,0.013390
11.168,69.4976,0.013390
11.199,69.4916,0.013371
11.229,69.4854,0.013371
11.261,69.4792,0.013371
11.292,69.4728,0.013371
11.324,69.4664,0.013371
11.356,69.4601,0.013371
11.386,69.4541,0.013371
11.420,69.4473,0.013371
11.448,69.4417,0.013371
11.479,69.4353,0.013381
11.511,69.4292,0.013381
11.542,69.4229,0.013381
11.573,69.4165,0.013381
11.604,69.4103,0.013381
11.636,69.4041,0.013381
11.666,69.3981,0.013381
11.697,69.3919,0.013381
11.728,69.3857,0.013381
11.758,69.3796,0.013381
11.790,69.3731,0.013381
11.821,69.3671,0.013381
11.852,69.3609,0.013381
11.883,69.3547,0.013381
11.915,69.3483,0.013381
11.945,69.3422,0.013381
11.976,69.3362,0.013418
12.007,69.3300,0.013418
12.038,69.3238,0.013418
12.069,69.3173,0.013418
12.100,69.3112,0.013418
12.132,69.3049,0.013418
12.163,69.2985,0.013418
12.194,69.2924,0.013418
12.225,69.2862,0.013484
12.256,69.2801,0.013484
12.287,69.2739,0.013484
12.319,69.2676,0.013484
12.350,69.2614,0.013484
12.381,69.2549,0.013484
12.412,69.2489,0.013484
12.442,69.2429,0.013484
12.473,69.2366,0.013484
12.504,69.2305,0.013428
12.535,69.2241,0.013428
12.566,69.2180,0.013428
12.597,69.2119,0.013428
12.629,69.2053,0.013428
12.659,69.1994,0.013428
12.690,69.1932,0.013428
12.721,69.1871,0.013428
12.753,69.1805,0.013428
12.784,69.1746,0.013428
12.816,69.1680,0.013428
12.847,69.1619,0.013428
12.878,69.1555,0.013428
12.909,69.1494,0.013428
12.940,69.1433,0.013428
12.970,69.1372,0.013428
13.002,69.1308,0.013428
13.033,69.1246,0.013428
13.063,69.1186,0.013428
13.095,69.1122,0.013428
13.125,69.1062,0.013428
13.156,69.1000,0.013428
13.187,69.0940,0.013428
13.217,69.0879,0.013428
13.250,69.0812,0.013371
13.280,69.0752,0.013371
13.311,69.0691,0.013371
13.343,69.0627,0.013371
13.374,69.0566,0.013371
13.405,69.0503,0.013371
13.436,69.0440,0.013371
13.468,69.0378,0.013371
13.498,69.0316,0.013400
13.530,69.0254,0.013400
13.562,69.0188,0.013400
13.593,69.0127,0.013400
13.623,69.0066,0.013400
13.654,69.0003,0.013400
13.686,68.9941,0.013400
13.717,68.9878,0.013456
13.748,68.9817,0.013456
13.779,68.9755,0.013456
13.812,68.9691,0.013456
13.842,68.9630,0.013456
13.873,68.9568,0.013456
13.904,68.9503,0.013456
13.934,68.9445,0.013456
13.965,68.9384,0.013456
13.995,68.9324,0.013437
14.027,68.9259,0.013437
14.057,68.9197,0.013437
14.088,68.9136,0.013437
14.120,68.9074,0.013437
14.150,68.9012,0.013437
14.181,68.8950,0.013437
14.213,68.8884,0.013437
14.243,68.8827,0.013381
14.275,68.8763,0.013381
14.306,68.8701,0.013381
14.337,68.8638,0.013381
14.367,68.8578,0.013381
14.398,68.8516,0.013381
14.428,68.8457,0.013381
14.460,68.8391,0.013381
14.491,68.8331,0.013362
14.523,68.8267,0.013362
14.554,68.8205,0.013362
14.585,68.8142,0.013362
14.616,68.8081,0.013362
14.647,68.8018,0.013362
14.679,68.7954,0.013362
14.710,68.7892,0.013362
14.741,68.7832,0.013409
14.773,68.7767,0.013409
14.804,68.7706,0.013409
14.835,68.7642,0.013409
14.869,68.7576,0.013409
14.898,68.7515,0.013409
14.929,68.7454,0.013409
14.959,68.7394,0.013409
14.989,68.7334,0.013362
15.020,68.7271,0.013362
15.052,68.7210,0.013362
15.083,68.7146,0.013362
15.115,68.7084,0.013362
15.147,68.7019,0.013362
15.177,68.6958,0.013362
15.209,68.6895,0.013362
15.240,68.6833,0.013343
15.271,68.6771,0.013343
15.303,68.6707,0.013343
15.334,68.6645,0.013343
15.365,68.6581,0.013343
15.395,68.6522,0.013343
15.427,68.6460,0.013343
15.457,68.6398,0.013343
15.488,68.6337,0.013428
15.519,68.6275,0.013428
15.551,68.6212,0.013428
15.582,68.6149,0.013428
15.613,68.6086,0.013428
15.644,68.6024,0.013428
15.676,68.5961,0.013428
15.707,68.5899,0.013428
15.739,68.5836,0.013428
15.770,68.5774,0.013428
15.800,68.5713,0.013428
15.832,68.5649,0.013428
15.863,68.5588,0.013428
15.894,68.5525,0.013428
15.925,68.5464,0.013428
15.957,68.5399,0.013390
15.987,68.5337,0.013390
16.018,68.5278,0.013390
16.049,68.5215,0.013390
16.080,68.5153,0.013390
16.111,68.5092,0.013390
16.141,68.5030,0.013390
16.173,68.4965,0.013390
16.203,68.4907,0.013390
16.235,68.4844,0.013437
16.267,68.4778,0.013437
16.298,68.4717,0.013437
16.331,68.4652,0.013437
16.361,68.4592,0.013437
16.391,68.4529,0.013437
16.423,68.4467,0.013437
16.453,68.4407,0.013437
16.484,68.4345,0.013484
16.515,68.4283,0.013484
16.546,68.4221,0.013484
16.578,68.4157,0.013484
16.609,68.4096,0.013484
16.641,68.4031,0.013484
16.671,68.3971,0.013484
16.703,68.3906,0.013428
16.735,68.3843,0.013428
16.767,68.3780,0.013428
16.798,68.3715,0.013428
16.830,68.3653,0.013428
16.861,68.3592,0.013428
16.892,68.3530,0.013428
16.923,68.3468,0.013428
16.953,68.3405,0.013418
16.986,68.3341,0.013418
17.015,68.3281,0.013418
17.046,68.3220,0.013418
17.078,68.3157,0.013418
17.109,68.3095,0.013418
17.140,68.3033,0.013418
17.171,68.2971,0.013418
17.203,68.2907,0.013447
17.233,68.2846,0.013447
17.266,68.2780,0.013447
17.296,68.2722,0.013447
17.327,68.2660,0.013447
17.358,68.2598,0.013447
17.389,68.2533,0.013447
17.420,68.2474,0.013447
17.451,68.2412,0.013437
17.482,68.2348,0.013437
17.513,68.2288,0.013437
17.543,68.2226,0.013437
17.575,68.2164,0.013437
17.606,68.2102,0.013437
17.637,68.2041,0.013437
17.668,68.1978,0.013437
17.699,68.1916,0.013437
17.729,68.1854,0.013437
17.759,68.1794,0.013437
17.791,68.1731,0.013437
17.822,68.1669,0.013437
17.852,68.1608,0.013437
17.883,68.1545,0.013437
17.914,68.1484,0.013437
17.945,68.1421,0.013437
17.977,68.1360,0.013437
18.007,68.1297,0.013400
18.039,68.1235,0.013400
18.069,68.1173,0.013400
18.100,68.1112,0.013400
18.131,68.1050,0.013400
18.163,68.0989,0.013400
18.195,68.0923,0.013400
18.226,68.0860,0.013371
18.257,68.0798,0.013371
18.288,68.0739,0.013371
18.319,68.0674,0.013371
18.351,68.0611,0.013371
18.382,68.0549,0.013371
18.413,68.0487,0.013371
18.444,68.0426,0.013371
18.475,68.0364,0.013409
18.506,68.0301,0.013409
18.536,68.0240,0.013409
18.567,68.0178,0.013409
18.598,68.0117,0.013409
18.630,68.0052,0.013409
18.660,67.9993,0.013409
18.692,67.9929,0.013409
18.722,67.9869,0.013447
18.754,67.9805,0.013447
18.785,67.9743,0.013447
18.816,67.9681,0.013447
18.847,67.9619,0.013447
18.879,67.9554,0.013447
18.911,67.9492,0.013447
18.943,67.9428,0.013447
18.973,67.9367,0.013456
19.004,67.9305,0.013456
19.034,67.9243,0.013456
19.065,67.9183,0.013456
19.096,67.9121,0.013456
19.127,67.9059,0.013456
19.158,67.8999,0.013456
19.189,67.8934,0.013456
19.220,67.8873,0.013456
19.251,67.8811,0.013381
19.282,67.8749,0.013381
19.313,67.8688,0.013381
19.344,67.8626,0.013381
19.375,67.8569,0.013381
19.407,67.8520,0.013381
19.440,67.8476,0.013381
19.470,67.8444,0.013296
19.501,67.8417,0.013296
19.532,67.8398,0.013296
19.563,67.8387,0.013296
19.594,67.8382,0.013296
19.625,67.8382,0.013296
19.656,67.8382,0.013296
19.687,67.8382,0.013296
19.718,67.8382,0.013296
19.749,67.8382,0.013315
19.782,67.8382,0.013315
19.812,67.8382,0.013315
19.843,67.8382,0.013315
19.875,67.8382,0.013315
19.906,67.8382,0.013315
19.938,67.8382,0.013315
19.968,67.8382,0.013362
19.999,67.8383,0.013362
20.030,67.8390,0.013362
20.060,67.8404,0.013362
20.092,67.8426,0.013362
20.123,67.8455,0.013362
20.154,67.8493,0.013362
20.185,67.8536,0.013362
20.217,67.8588,0.013362
20.248,67.8646,0.013362
20.279,67.8711,0.013362
20.311,67.8773,0.013362
20.342,67.8834,0.013362
20.372,67.8897,0.013362
20.403,67.8958,0.013362
20.434,67.9021,0.013362
20.466,67.9083,0.013409
20.496,67.9145,0.013409
20.527,67.9204,0.013409
20.560,67.9270,0.013409
20.590,67.9330,0.013409
20.622,67.9395,0.013409
20.653,67.9457,0.013409
20.684,67.9518,0.013409
20.715,67.9580,0.013418
20.746,67.9643,0.013418
20.778,67.9708,0.013418
20.808,67.9766,0.013418
20.839,67.9828,0.013418
20.870,67.9892,0.013418
20.901,67.9952,0.013418
20.932,68.0014,0.013418
20.962,68.0076,0.013343
20.993,68.0137,0.013343
21.024,68.0200,0.013343
21.056,68.0262,0.013343
21.088,68.0327,0.013343
21.119,68.0389,0.013343
21.151,68.0452,0.013343
21.181,68.0514,0.013343
21.212,68.0575,0.013400
21.243,68.0638,0.013400
21.274,68.0699,0.013400
21.305,68.0761,0.013400
21.337,68.0824,0.013400
21.368,68.0886,0.013400
21.399,68.0951,0.013400
21.430,68.1010,0.013400
21.461,68.1072,0.013400
21.492,68.1134,0.013400
21.523,68.1196,0.013400
21.554,68.1258,0.013400
21.585,68.1322,0.013400
21.616,68.1384,0.013400
21.647,68.1446,0.013400
21.679,68.1509,0.013400
21.709,68.1570,0.013400
21.741,68.1632,0.013400
21.772,68.1695,0.013400
21.802,68.1756,0.013400
21.833,68.1818,0.013400
21.864,68.1877,0.013400
21.895,68.1942,0.013400
21.927,68.2004,0.013400
21.958,68.2067,0.013400
21.988,68.2126,0.013400
22.019,68.2190,0.013456
22.051,68.2253,0.013456
22.080,68.2311,0.013456
22.111,68.2371,0.013456
22.141,68.2434,0.013456
22.173,68.2495,0.013456
22.204,68.2559,0.013456
22.235,68.2620,0.013475
22.267,68.2686,0.013475
22.297,68.2744,0.013475
22.328,68.2806,0.013475
22.358,68.2867,0.013475
22.389,68.2929,0.013475
22.420,68.2991,0.013475
22.451,68.3053,0.013475
22.481,68.3114,0.013466
22.513,68.3177,0.013466
22.543,68.3236,0.013466
22.574,68.3298,0.013466
22.605,68.3362,0.013466
22.636,68.3422,0.013466
22.666,68.3482,0.013466
22.697,68.3543,0.013409
22.729,68.3607,0.013409
22.760,68.3672,0.013409
22.792,68.3734,0.013409
22.823,68.3797,0.013409
22.854,68.3860,0.013409
22.886,68.3922,0.013409
22.916,68.3984,0.013409
22.947,68.4044,0.013409
22.978,68.4107,0.013409
23.008,68.4167,0.013409
23.039,68.4229,0.013409
23.070,68.4291,0.013409
23.102,68.4355,0.013409
23.134,68.4417,0.013409
23.165,68.4482,0.013409
23.196,68.4544,0.013400
23.228,68.4607,0.013400
23.259,68.4668,0.013400
23.291,68.4733,0.013400
23.322,68.4794,0.013400
23.354,68.4859,0.013400
23.384,68.4919,0.013400
23.416,68.4981,0.013400
23.446,68.5043,0.013400
23.478,68.5105,0.013447
23.511,68.5171,0.013447
23.540,68.5232,0.013447
23.571,68.5293,0.013447
23.602,68.5356,0.013447
23.633,68.5417,0.013447
23.664,68.5478,0.013447
23.696,68.5541,0.013447
23.726,68.5604,0.013447
23.757,68.5664,0.013418
23.788,68.5726,0.013418
23.819,68.5789,0.013418
23.849,68.5850,0.013418
23.880,68.5912,0.013418
23.911,68.5974,0.013418
23.942,68.6033,0.013418
23.972,68.6094,0.013437
24.004,68.6157,0.013437
24.034,68.6219,0.013437
24.065,68.6281,0.013437
24.095,68.6341,0.013437
24.126,68.6403,0.013437
24.157,68.6465,0.013437
24.188,68.6528,0.013437
24.219,68.6588,0.013466
24.249,68.6651,0.013466
24.280,68.6710,0.013466
24.312,68.6775,0.013466
24.343,68.6837,0.013466
24.374,68.6899,0.013466
24.405,68.6960,0.013466
24.436,68.7022,0.013466
24.467,68.7086,0.013447
24.499,68.7148,0.013447
24.530,68.7210,0.013447
24.560,68.7271,0.013447
24.591,68.7333,0.013447
24.622,68.7395,0.013447
24.653,68.7459,0.013447
24.685,68.7520,0.013447
24.716,68.7582,0.013447
24.746,68.7642,0.013437
24.778,68.7706,0.013437
24.808,68.7767,0.013437
24.840,68.7830,0.013437
24.871,68.7892,0.013437
24.902,68.7956,0.013437
24.933,68.8016,0.013437
24.964,68.8080,0.013400
24.995,68.8142,0.013400
25.026,68.8202,0.013400
25.057,68.8264,0.013400
25.088,68.8325,0.013400
25.119,68.8387,0.013400
25.150,68.8449,0.013400
25.180,68.8511,0.013400
25.212,68.8573,0.013400
25.242,68.8636,0.013437
25.274,68.8697,0.013437
25.305,68.8759,0.013437
25.336,68.8822,0.013437
25.369,68.8888,0.013437
25.400,68.8949,0.013437
25.430,68.9011,0.013437
25.461,68.9073,0.013437
25.493,68.9136,0.013437
25.523,68.9198,0.013437
25.554,68.9258,0.013437
25.586,68.9322,0.013437
25.617,68.9384,0.013437
25.648,68.9446,0.013437
25.680,68.9511,0.013437
25.711,68.9572,0.013437
25.742,68.9635,0.013437
25.774,68.9698,0.013437
25.805,68.9760,0.013437
25.836,68.9822,0.013437
25.867,68.9885,0.013437
25.899,68.9946,0.013437
25.930,69.0011,0.013437
25.961,69.0071,0.013400
25.992,69.0135,0.013400
26.023,69.0197,0.013400
26.055,69.0261,0.013400
26.087,69.0323,0.013400
26.118,69.0388,0.013400
26.150,69.0450,0.013400
26.179,69.0509,0.013400
26.210,69.0572,0.013400
26.242,69.0634,0.013400
26.273,69.0696,0.013400
26.305,69.0760,0.013400
26.336,69.0824,0.013400
26.366,69.0882,0.013400
26.398,69.0946,0.013400
26.429,69.1009,0.013400
26.459,69.1069,0.013428
26.492,69.1134,0.013428
26.522,69.1195,0.013428
26.554,69.1260,0.013428
26.585,69.1320,0.013428
26.616,69.1381,0.013428
26.646,69.1443,0.013428
26.677,69.1505,0.013428
26.708,69.1568,0.013400
26.740,69.1630,0.013400
26.771,69.1692,0.013400
26.802,69.1756,0.013400
26.834,69.1818,0.013400
26.865,69.1880,0.013400
26.895,69.1940,0.013400
26.927,69.2004,0.013400
26.957,69.2064,0.013400
26.988,69.2126,0.013428
27.018,69.2186,0.013428
27.049,69.2249,0.013428
27.081,69.2312,0.013428
27.113,69.2376,0.013428
27.143,69.2436,0.013428
27.175,69.2502,0.013428
27.207,69.2563,0.013428
27.238,69.2626,0.013428
27.270,69.2690,0.013428
27.300,69.2750,0.013428
27.331,69.2814,0.013428
27.362,69.2874,0.013428
27.393,69.2935,0.013428
27.423,69.2997,0.013428
27.455,69.3059,0.013428
27.486,69.3122,0.013409
27.517,69.3183,0.013409
27.548,69.3245,0.013409
27.580,69.3310,0.013409
27.611,69.3372,0.013409
27.642,69.3434,0.013409
27.674,69.3498,0.013409
27.706,69.3563,0.013400
27.738,69.3626,0.013400
27.769,69.3689,0.013400
27.800,69.3751,0.013400
27.831,69.3812,0.013400
27.862,69.3875,0.013400
27.893,69.3937,0.013400
27.925,69.4000,0.013400
27.956,69.4061,0.013381
27.987,69.4123,0.013381
28.018,69.4186,0.013381
28.048,69.4247,0.013381
28.078,69.4307,0.013381
28.109,69.4368,0.013381
28.140,69.4432,0.013381
28.170,69.4490,0.013381
28.202,69.4554,0.013400
28.233,69.4617,0.013400
28.263,69.4678,0.013400
28.295,69.4740,0.013400
28.325,69.4800,0.013400
28.357,69.4864,0.013400
28.388,69.4926,0.013400
28.419,69.4989,0.013400
28.450,69.5048,0.013409
28.481,69.5112,0.013409
28.513,69.5176,0.013409
28.543,69.5236,0.013409
28.573,69.5296,0.013409
28.604,69.5358,0.013409
28.634,69.5418,0.013409
28.666,69.5481,0.013409
28.698,69.5547,0.013409
28.728,69.5605,0.013409
28.759,69.5667,0.013456
28.790,69.5731,0.013456
28.822,69.5794,0.013456
28.853,69.5856,0.013456
28.883,69.5918,0.013456
28.914,69.5979,0.013456
28.945,69.6038,0.013456
28.976,69.6103,0.013456
29.007,69.6162,0.013456
29.037,69.6224,0.013456
29.069,69.6287,0.013456
29.100,69.6351,0.013456
29.131,69.6413,0.013456
29.162,69.6475,0.013456
29.193,69.6537,0.013456
29.224,69.6597,0.013381
29.255,69.6661,0.013381
29.286,69.6723,0.013381
29.318,69.6786,0.013381
29.349,69.6849,0.013381
29.381,69.6911,0.013381
29.412,69.6973,0.013381
29.444,69.7037,0.013381
29.474,69.7099,0.013371
29.505,69.7162,0.013371
29.537,69.7224,0.013371
29.568,69.7286,0.013371
29.599,69.7348,0.013371
29.629,69.7409,0.013371
29.660,69.7469,0.013371
29.690,69.7531,0.013371
29.721,69.7592,0.013371
29.752,69.7655,0.013390
29.783,69.7716,0.013390
29.814,69.7777,0.013390
29.846,69.7841,0.013390
29.878,69.7906,0.013390
29.908,69.7967,0.013390
29.939,69.8029,0.013390
29.971,69.8093,0.013409
30.000,69.8151,0.013409
30.031,69.8212,0.013409
30.062,69.8273,0.013409
30.093,69.8335,0.013409
30.124,69.8398,0.013409
30.154,69.8459,0.013409
30.186,69.8522,0.013409
30.218,69.8584,0.013390
30.249,69.8648,0.013390
30.279,69.8710,0.013390
30.311,69.8772,0.013390
30.341,69.8832,0.013390
30.373,69.8896,0.013390
30.404,69.8958,0.013390
30.435,69.9021,0.013390
30.466,69.9082,0.013409
30.496,69.9142,0.013409
30.527,69.9204,0.013409
30.558,69.9266,0.013409
30.590,69.9330,0.013409
30.621,69.9390,0.013409
30.651,69.9454,0.013409
30.683,69.9516,0.013409
30.714,69.9579,0.013409
30.746,69.9641,0.013428
30.777,69.9704,0.013428
30.808,69.9766,0.013428
30.840,69.9831,0.013428
30.871,69.9892,0.013428
30.902,69.9955,0.013428
30.933,70.0017,0.013428
30.965,70.0080,0.013381
30.995,70.0141,0.013381
31.026,70.0202,0.013381
31.057,70.0264,0.013381
31.087,70.0326,0.013381
31.119,70.0389,0.013381
31.150,70.0450,0.013381
31.181,70.0512,0.013381
31.212,70.0575,0.013381
31.243,70.0636,0.013381
31.275,70.0700,0.013381
31.305,70.0760,0.013381
31.336,70.0823,0.013381
31.368,70.0885,0.013381
31.398,70.0948,0.013381
31.430,70.1009,0.013381
31.460,70.1072,0.013381
31.492,70.1135,0.013362
31.524,70.1199,0.013362
31.555,70.1260,0.013362
31.587,70.1323,0.013362
31.617,70.1384,0.013362
31.648,70.1447,0.013362
31.679,70.1508,0.013362
31.710,70.1570,0.013362
31.742,70.1634,0.013437
31.773,70.1696,0.013437
31.804,70.1757,0.013437
31.836,70.1820,0.013437
31.865,70.1881,0.013437
31.896,70.1943,0.013437
31.929,70.2007,0.013437
31.959,70.2068,0.013437
31.991,70.2131,0.013428
32.022,70.2193,0.013428
32.053,70.2255,0.013428
32.084,70.2317,0.013428
32.115,70.2378,0.013428
32.146,70.2441,0.013428
32.177,70.2503,0.013428
32.208,70.2568,0.013428
32.240,70.2629,0.013334
32.271,70.2692,0.013334
32.302,70.2754,0.013334
32.333,70.2816,0.013334
32.364,70.2879,0.013334
32.394,70.2939,0.013334
32.426,70.3003,0.013334
32.458,70.3065,0.013334
32.488,70.3126,0.013324
32.520,70.3189,0.013324
32.551,70.3251,0.013324
32.582,70.3315,0.013324
32.616,70.3380,0.013324
32.645,70.3440,0.013324
32.675,70.3501,0.013324
32.706,70.3563,0.013324
32.738,70.3626,0.013409
32.769,70.3688,0.013409
32.800,70.3749,0.013409
32.831,70.3811,0.013409
32.862,70.3874,0.013409
32.892,70.3933,0.013409
32.923,70.3994,0.013409
32.953,70.4056,0.013409
32.984,70.4118,0.013409
33.015,70.4179,0.013466
33.045,70.4241,0.013466
33.077,70.4304,0.013466
33.109,70.4368,0.013466
33.140,70.4430,0.013466
33.172,70.4493,0.013466
33.204,70.4559,0.013466
33.235,70.4621,0.013400
33.266,70.4683,0.013400
33.298,70.4745,0.013400
33.328,70.4807,0.013400
33.359,70.4869,0.013400
33.390,70.4931,0.013400
33.421,70.4991,0.013400
33.452,70.5053,0.013400
33.483,70.5115,0.013418
33.514,70.5177,0.013418
33.546,70.5242,0.013418
33.577,70.5303,0.013418
33.609,70.5370,0.013418
33.639,70.5428,0.013418
33.670,70.5491,0.013418
33.701,70.5552,0.013418
33.732,70.5614,0.013418
33.763,70.5676,0.013418
33.794,70.5739,0.013418
33.825,70.5800,0.013418
33.856,70.5862,0.013418
33.887,70.5924,0.013418
33.919,70.5989,0.013418
33.950,70.6049,0.013418
33.980,70.6110,0.013371
34.011,70.6173,0.013371
34.043,70.6235,0.013371
34.074,70.6299,0.013371
34.105,70.6361,0.013371
34.138,70.6425,0.013371
34.168,70.6486,0.013371
34.199,70.6548,0.013371
34.231,70.6611,0.013353
34.262,70.6674,0.013353
34.293,70.6735,0.013353
34.324,70.6798,0.013353
34.356,70.6862,0.013353
34.388,70.6926,0.013353
34.419,70.6988,0.013353
34.451,70.7051,0.013353
34.481,70.7111,0.013343
34.511,70.7172,0.013343
34.542,70.7235,0.013343
34.573,70.7297,0.013343
34.605,70.7359,0.013343
34.636,70.7422,0.013343
34.667,70.7483,0.013343
34.698,70.7546,0.013343
34.729,70.7608,0.013343
34.760,70.7670,0.013334
34.791,70.7734,0.013334
34.822,70.7796,0.013334
34.852,70.7854,0.013334
34.883,70.7916,0.013334
34.914,70.7978,0.013334
34.945,70.8041,0.013334
34.976,70.8102,0.013324
35.008,70.8163,0.013324
35.039,70.8216,0.013324
35.070,70.8262,0.013324
35.101,70.8300,0.013324
35.132,70.8330,0.013324
35.162,70.8354,0.013324
35.193,70.8371,0.013324
35.224,70.8380,0.013324
35.255,70.8382,0.013437
35.286,70.8382,0.013437
35.318,70.8382,0.013437
35.349,70.8382,0.013437
35.381,70.8382,0.013437
35.413,70.8382,0.013437
35.443,70.8382,0.013484
35.473,70.8382,0.013484
35.505,70.8382,0.013484
35.536,70.8382,0.013484
35.567,70.8382,0.013484
35.598,70.8382,0.013484
35.629,70.8382,0.013484
35.660,70.8382,0.013484
35.692,70.8382,0.013447
35.723,70.8382,0.013447
35.753,70.8382,0.013447
35.784,70.8382,0.013447
35.816,70.8382,0.013447
35.846,70.8382,0.013447
35.877,70.8382,0.013447
35.908,70.8382,0.013447
35.938,70.8382,0.013447
35.970,70.8382,0.013428
36.000,70.8382,0.013428
36.032,70.8382,0.013428
36.063,70.8382,0.013428
36.094,70.8382,0.013428
36.125,70.8382,0.013428
36.156,70.8382,0.013428
36.188,70.8382,0.013353
36.219,70.8382,0.013353
36.251,70.8382,0.013353
36.283,70.8382,0.013353
36.314,70.8382,0.013353
36.346,70.8382,0.013353
36.379,70.8382,0.013353
36.408,70.8382,0.013353
36.439,70.8382,0.013353
36.470,70.8382,0.013381
36.501,70.8382,0.013381
36.532,70.8382,0.013381
36.564,70.8382,0.013381
36.594,70.8382,0.013381
36.624,70.8382,0.013381
36.655,70.8382,0.013381
36.686,70.8382,0.013381
36.716,70.8382,0.013381
36.747,70.8382,0.013428
36.777,70.8382,0.013428
36.808,70.8382,0.013428
36.839,70.8382,0.013428
36.870,70.8382,0.013428
36.903,70.8382,0.013428
36.932,70.8382,0.013428
36.963,70.8382,0.013428
36.994,70.8382,0.013447
37.025,70.8382,0.013447
37.056,70.8382,0.013447
37.088,70.8382,0.013447
37.119,70.8382,0.013447
37.150,70.8382,0.013447
37.180,70.8382,0.013447
37.212,70.8382,0.013447
37.243,70.8382,0.013418
37.274,70.8382,0.013418
37.305,70.8382,0.013418
37.336,70.8382,0.013418
37.367,70.8382,0.013418
37.398,70.8382,0.013418
37.428,70.8382,0.013418
37.460,70.8382,0.013371
37.490,70.8382,0.013371
37.521,70.8382,0.013371
37.552,70.8382,0.013371
37.582,70.8382,0.013371
37.614,70.8382,0.013371
37.647,70.8382,0.013371
37.678,70.8382,0.013371
37.710,70.8382,0.013371
37.741,70.8382,0.013400
37.773,70.8382,0.013400
37.804,70.8382,0.013400
37.835,70.8382,0.013400
37.867,70.8382,0.013400
37.899,70.8382,0.013400
37.930,70.8382,0.013400
37.961,70.8382,0.013400
37.992,70.8382,0.013400
38.022,70.8382,0.013409
38.054,70.8382,0.013409
38.084,70.8382,0.013409
38.115,70.8382,0.013409
38.146,70.8382,0.013409
38.176,70.8382,0.013409
38.207,70.8382,0.013409
38.239,70.8382,0.013418
38.270,70.8382,0.013418
38.301,70.8382,0.013418
38.332,70.8382,0.013418
38.364,70.8382,0.013418
38.395,70.8382,0.013418
38.425,70.8382,0.013418
38.457,70.8382,0.013418
38.490,70.8382,0.013381
38.519,70.8382,0.013381
38.549,70.8382,0.013381
38.581,70.8382,0.013381
38.612,70.8382,0.013381
38.643,70.8382,0.013381
38.674,70.8382,0.013381
38.705,70.8382,0.013381
38.736,70.8382,0.013343
38.768,70.8382,0.013343
38.798,70.8382,0.013343
38.829,70.8382,0.013343
38.859,70.8382,0.013343
38.891,70.8382,0.013343
38.923,70.8382,0.013343
38.954,70.8382,0.013343
38.984,70.8382,0.013324
39.016,70.8382,0.013324
39.047,70.8382,0.013324
39.077,70.8382,0.013324
39.107,70.8382,0.013324
39.138,70.8382,0.013324
39.168,70.8382,0.013324
39.198,70.8382,0.013324
39.229,70.8382,0.013315
39.261,70.8382,0.013315
39.292,70.8382,0.013315
39.323,70.8382,0.013315
39.353,70.8382,0.013315
39.383,70.8382,0.013315
39.414,70.8382,0.013315
39.446,70.8382,0.013315
39.477,70.8382,0.013409
39.508,70.8382,0.013409
39.539,70.8382,0.013409
39.570,70.8380,0.013409
39.600,70.8370,0.013409
39.632,70.8352,0.013409
39.663,70.8326,0.013409
39.695,70.8295,0.013409
39.725,70.8257,0.013447
39.757,70.8209,0.013447
39.788,70.8155,0.013447
39.819,70.8093,0.013447
39.850,70.8031,0.013447
39.881,70.7969,0.013447
39.913,70.7906,0.013447
39.945,70.7841,0.013447
39.977,70.7779,0.013447
40.009,70.7714,0.013437
40.041,70.7650,0.013437
40.073,70.7586,0.013437
40.104,70.7525,0.013437
40.135,70.7462,0.013437
40.166,70.7400,0.013437
40.198,70.7337,0.013484
40.229,70.7275,0.013484
40.259,70.7215,0.013484
40.289,70.7153,0.013484
40.320,70.7091,0.013484
40.352,70.7029,0.013484
40.383,70.6966,0.013484
40.414,70.6905,0.013484
40.444,70.6843,0.013484
40.476,70.6782,0.013494
40.507,70.6719,0.013494
40.538,70.6657,0.013494
40.569,70.6594,0.013494
40.601,70.6532,0.013494
40.631,70.6470,0.013494
40.662,70.6408,0.013494
40.693,70.6346,0.013494
40.724,70.6282,0.013494
40.756,70.6220,0.013456
40.786,70.6161,0.013456
40.817,70.6098,0.013456
40.848,70.6037,0.013456
40.880,70.5972,0.013456
40.911,70.5912,0.013456
40.943,70.5847,0.013456
40.975,70.5784,0.013428
41.007,70.5719,0.013428
41.039,70.5655,0.013428
41.070,70.5592,0.013428
41.102,70.5530,0.013428
41.133,70.5465,0.013428
41.166,70.5401,0.013428
41.194,70.5344,0.013428
41.225,70.5282,0.013428
41.256,70.5220,0.013428
41.288,70.5158,0.013428
41.320,70.5093,0.013428
41.350,70.5032,0.013428
41.382,70.4968,0.013428
41.413,70.4907,0.013428
41.444,70.4844,0.013390
41.475,70.4783,0.013390
41.505,70.4722,0.013390
41.536,70.4660,0.013390
41.567,70.4597,0.013390
41.597,70.4539,0.013390
41.628,70.4475,0.013390
41.660,70.4413,0.013390
41.691,70.4351,0.013390
41.721,70.4291,0.013409
41.753,70.4227,0.013409
41.783,70.4164,0.013409
41.815,70.4102,0.013409
41.846,70.4041,0.013409
41.877,70.3978,0.013409
41.909,70.3914,0.013409
41.939,70.3855,0.013409
41.970,70.3793,0.013400
42.000,70.3731,0.013400
42.033,70.3668,0.013400
42.062,70.3607,0.013400
42.094,70.3544,0.013400
42.124,70.3485,0.013400
42.155,70.3422,0.013400
42.185,70.3360,0.013400
42.216,70.3301,0.013353
42.247,70.3239,0.013353
42.279,70.3174,0.013353
42.309,70.3116,0.013353
42.339,70.3053,0.013353
42.371,70.2991,0.013353
42.402,70.2929,0.013353
42.433,70.2867,0.013353
42.464,70.2802,0.013353
42.495,70.2743,0.013371
42.526,70.2681,0.013371
42.557,70.2619,0.013371
42.590,70.2553,0.013371
42.620,70.2492,0.013371
42.651,70.2430,0.013371
42.682,70.2370,0.013371
42.712,70.2309,0.013371
42.744,70.2246,0.013371
42.774,70.2183,0.013371
42.805,70.2121,0.013371
42.836,70.2059,0.013371
42.868,70.1999,0.013371
42.899,70.1934,0.013371
42.930,70.1871,0.013371
42.961,70.1811,0.013371
42.992,70.1748,0.013353
43.023,70.1687,0.013353
43.054,70.1625,0.013353
43.085,70.1563,0.013353
43.116,70.1501,0.013353
43.147,70.1439,0.013353
43.178,70.1377,0.013353
43.209,70.1314,0.013353
43.239,70.1255,0.013353
43.271,70.1191,0.013353
43.302,70.1129,0.013353
43.333,70.1067,0.013353
43.364,70.1004,0.013353
43.395,70.0942,0.013353
43.426,70.0881,0.013353
43.457,70.0819,0.013353
43.488,70.0757,0.013447
43.519,70.0695,0.013447
43.550,70.0632,0.013447
43.582,70.0569,0.013447
43.613,70.0505,0.013447
43.644,70.0445,0.013447
43.676,70.0380,0.013447
43.707,70.0319,0.013475
43.738,70.0257,0.013475
43.768,70.0197,0.013475
43.798,70.0136,0.013475
43.829,70.0075,0.013475
43.860,70.0012,0.013475
43.892,69.9950,0.013475
43.923,69.9885,0.013475
43.955,69.9825,0.013456
43.987,69.9760,0.013456
44.017,69.9698,0.013456
44.048,69.9637,0.013456
44.079,69.9574,0.013456
44.110,69.9513,0.013456
44.141,69.9451,0.013456
44.172,69.9388,0.013456
44.204,69.9326,0.013428
44.234,69.9264,0.013428
44.266,69.9202,0.013428
44.298,69.9137,0.013428
44.329,69.9077,0.013428
44.359,69.9015,0.013428
44.390,69.8951,0.013428
44.421,69.8891,0.013428
44.453,69.8827,0.013362
44.484,69.8765,0.013362
44.515,69.8703,0.013362
44.546,69.8640,0.013362
44.577,69.8577,0.013362
44.608,69.8517,0.013362
44.640,69.8454,0.013362
44.670,69.8392,0.013362
44.701,69.8331,0.013428
44.733,69.8266,0.013428
44.764,69.8206,0.013428
44.795,69.8142,0.013428
44.827,69.8080,0.013428
44.858,69.8016,0.013428
44.889,69.7954,0.013428
44.921,69.7890,0.013428
44.951,69.7830,0.013428
44.982,69.7768,0.013428
45.012,69.7707,0.013428
45.043,69.7647,0.013428
45.074,69.7583,0.013428
45.106,69.7521,0.013428
45.136,69.7459,0.013428
45.170,69.7392,0.013428
45.198,69.7337,0.013428
45.229,69.7275,0.013353
45.260,69.7214,0.013353
45.291,69.7152,0.013353
45.322,69.7089,0.013353
45.353,69.7027,0.013353
45.384,69.6963,0.013353
45.415,69.6903,0.013353
45.447,69.6838,0.013353
45.477,69.6776,0.013381
45.508,69.6718,0.013381
45.539,69.6655,0.013381
45.572,69.6589,0.013381
45.603,69.6527,0.013381
45.634,69.6465,0.013381
45.665,69.6402,0.013381
45.696,69.6340,0.013381
45.726,69.6280,0.013381
45.757,69.6218,0.013409
45.788,69.6157,0.013409
45.819,69.6094,0.013409
45.850,69.6033,0.013409
45.882,69.5970,0.013409
45.913,69.5907,0.013409
45.944,69.5845,0.013409
45.975,69.5784,0.013362
46.005,69.5722,0.013362
46.037,69.5657,0.013362
46.069,69.5597,0.013362
46.099,69.5535,0.013362
46.131,69.5471,0.013362
46.162,69.5409,0.013362
46.194,69.5345,0.013362
46.224,69.5285,0.013418
46.255,69.5222,0.013418
46.286,69.5160,0.013418
46.317,69.5099,0.013418
46.348,69.5037,0.013418
46.378,69.4976,0.013418
46.409,69.4916,0.013418
46.440,69.4854,0.013418
46.471,69.4790,0.013428
46.503,69.4727,0.013428
46.534,69.4664,0.013428
46.565,69.4602,0.013428
46.596,69.4540,0.013428
46.627,69.4479,0.013428
46.658,69.4417,0.013428
46.689,69.4355,0.013428
46.720,69.4293,0.013428
46.751,69.4230,0.013428
46.782,69.4168,0.013428
46.812,69.4107,0.013428
46.844,69.4044,0.013428
46.875,69.3981,0.013428
46.907,69.3917,0.013428
46.937,69.3858,0.013428
46.968,69.3797,0.013437
47.000,69.3733,0.013437
47.031,69.3671,0.013437
47.063,69.3606,0.013437
47.094,69.3544,0.013437
47.127,69.3480,0.013437
47.157,69.3420,0.013437
47.188,69.3354,0.013437
47.221,69.3291,0.013418
47.250,69.3233,0.013418
47.283,69.3167,0.013418
47.312,69.3107,0.013418
47.343,69.3045,0.013418
47.373,69.2986,0.013418
47.405,69.2924,0.013418
47.436,69.2861,0.013418
47.467,69.2800,0.013466
47.498,69.2737,0.013466
47.529,69.2675,0.013466
47.561,69.2611,0.013466
47.592,69.2549,0.013466
47.624,69.2485,0.013466
47.655,69.2423,0.013466
47.687,69.2360,0.013466
47.718,69.2298,0.013447
47.749,69.2236,0.013447
47.780,69.2174,0.013447
47.810,69.2112,0.013447
47.841,69.2052,0.013447
47.872,69.1989,0.013447
47.903,69.1928,0.013447
47.934,69.1866,0.013447
47.965,69.1803,0.013390
47.996,69.1742,0.013390
48.026,69.1679,0.013390
48.058,69.1615,0.013390
48.089,69.1552,0.013390
48.120,69.1493,0.013390
48.153,69.1427,0.013390
48.183,69.1366,0.013390
48.214,69.1303,0.013400
48.244,69.1243,0.013400
48.276,69.1180,0.013400
48.307,69.1121,0.013400
48.337,69.1060,0.013400
48.369,69.0995,0.013400
48.400,69.0935,0.013400
48.431,69.0871,0.013400
48.461,69.0813,0.013381
48.492,69.0750,0.013381
48.523,69.0688,0.013381
48.554,69.0625,0.013381
48.585,69.0564,0.013381
48.616,69.0500,0.013381
48.647,69.0438,0.013381
48.678,69.0376,0.013381
48.709,69.0316,0.013362
48.741,69.0251,0.013362
48.772,69.0190,0.013362
48.804,69.0126,0.013362
48.834,69.0064,0.013362
48.866,69.0002,0.013362
48.897,68.9939,0.013362
48.928,68.9878,0.013362
48.959,68.9816,0.013362
48.989,68.9754,0.013362
49.021,68.9691,0.013409
49.053,68.9625,0.013409
49.082,68.9569,0.013409
49.113,68.9505,0.013409
49.145,68.9443,0.013409
49.175,68.9382,0.013409
49.207,68.9319,0.013409
49.238,68.9255,0.013381
49.270,68.9193,0.013381
49.301,68.9130,0.013381
49.332,68.9069,0.013381
49.363,68.9005,0.013381
49.395,68.8943,0.013381
49.426,68.8880,0.013381
49.458,68.8817,0.013381
49.488,68.8757,0.013362
49.519,68.8695,0.013362
49.550,68.8634,0.013362
49.581,68.8569,0.013362
49.612,68.8510,0.013362
49.643,68.8445,0.013362
49.674,68.8386,0.013362
49.704,68.8323,0.013362
49.736,68.8261,0.013371
49.767,68.8197,0.013371
49.799,68.8135,0.013371
49.829,68.8075,0.013371
49.860,68.8014,0.013371
49.891,68.7952,0.013371
49.923,68.7887,0.013371
49.953,68.7827,0.013371
49.985,68.7763,0.013390
50.017,68.7700,0.013390
50.047,68.7639,0.013390
50.078,68.7575,0.013390
50.110,68.7514,0.013390
50.141,68.7450,0.013390
50.171,68.7391,0.013390
50.202,68.7328,0.013390
50.233,68.7266,0.013447
50.264,68.7204,0.013447
50.296,68.7141,0.013447
50.327,68.7077,0.013447
50.359,68.7015,0.013447
50.391,68.6951,0.013447
50.421,68.6891,0.013447
50.451,68.6832,0.013447
50.482,68.6769,0.013456
50.514,68.6705,0.013456
50.546,68.6641,0.013456
50.575,68.6584,0.013456
50.606,68.6521,0.013456
50.637,68.6459,0.013456
50.669,68.6397,0.013456
50.700,68.6333,0.013456
50.732,68.6268,0.013428
50.762,68.6209,0.013428
50.793,68.6147,0.013428
50.824,68.6085,0.013428
50.855,68.6022,0.013428
50.888,68.5958,0.013428
50.918,68.5898,0.013428
50.949,68.5836,0.013381
50.980,68.5774,0.013381
51.011,68.5709,0.013381
51.043,68.5647,0.013381
51.074,68.5585,0.013381
51.105,68.5523,0.013381
51.135,68.5463,0.013381
51.166,68.5401,0.013381
51.196,68.5342,0.013381
51.227,68.5278,0.013390
51.259,68.5216,0.013390
51.291,68.5150,0.013390
51.322,68.5088,0.013390
51.354,68.5026,0.013390
51.384,68.4965,0.013390
51.415,68.4902,0.013390
51.446,68.4841,0.013390
51.477,68.4779,0.013390
51.508,68.4719,0.013381
51.538,68.4657,0.013381
51.569,68.4596,0.013381
51.600,68.4532,0.013381
51.633,68.4468,0.013381
51.662,68.4410,0.013381
51.694,68.4346,0.013381
51.724,68.4284,0.013381
51.755,68.4222,0.013381
51.786,68.4162,0.013362
51.817,68.4100,0.013362
51.848,68.4038,0.013362
51.879,68.3976,0.013362
51.910,68.3914,0.013362
51.941,68.3852,0.013362
51.972,68.3790,0.013362
52.004,68.3725,0.013418
52.035,68.3663,0.013418
52.065,68.3604,0.013418
52.096,68.3542,0.013418
52.127,68.3478,0.013418
52.157,68.3419,0.013418
52.189,68.3355,0.013418
52.219,68.3292,0.013437
52.250,68.3233,0.013437
52.281,68.3171,0.013437
52.313,68.3107,0.013437
52.343,68.3047,0.013437
52.375,68.2983,0.013437
52.406,68.2923,0.013437
52.437,68.2858,0.013437
52.468,68.2799,0.013400
52.499,68.2734,0.013400
52.530,68.2672,0.013400
52.562,68.2609,0.013400
52.592,68.2549,0.013400
52.624,68.2484,0.013400
52.656,68.2422,0.013400
52.688,68.2358,0.013400
52.718,68.2298,0.013390
52.749,68.2234,0.013390
52.781,68.2172,0.013390
52.812,68.2110,0.013390
52.843,68.2047,0.013390
52.873,68.1986,0.013390
52.905,68.1924,0.013390
52.936,68.1861,0.013390
52.967,68.1800,0.013409
52.997,68.1738,0.013409
53.029,68.1675,0.013409
53.061,68.1612,0.013409
53.093,68.1548,0.013409
53.124,68.1484,0.013409
53.155,68.1424,0.013409
53.185,68.1362,0.013409
53.217,68.1300,0.013437
53.249,68.1236,0.013437
53.280,68.1174,0.013437
53.309,68.1114,0.013437
53.340,68.1051,0.013437
53.371,68.0992,0.013437
53.404,68.0926,0.013437
53.433,68.0868,0.013437
53.464,68.0804,0.013437
53.495,68.0744,0.013418
53.526,68.0682,0.013418
53.557,68.0620,0.013418
53.590,68.0554,0.013418
53.621,68.0493,0.013418
53.651,68.0431,0.013418
53.682,68.0370,0.013418
53.712,68.0309,0.013418
53.743,68.0246,0.013381
53.774,68.0185,0.013381
53.805,68.0123,0.013381
53.836,68.0061,0.013381
53.866,68.0001,0.013381
53.897,67.9940,0.013381
53.927,67.9879,0.013381
53.959,67.9815,0.013409
53.990,67.9754,0.013409
54.020,67.9693,0.013409
54.052,67.9630,0.013409
54.084,67.9567,0.013409
54.114,67.9506,0.013409
54.145,67.9443,0.013409
54.177,67.9381,0.013409
54.208,67.9317,0.013409
54.239,67.9257,0.013447
54.269,67.9195,0.013447
54.301,67.9132,0.013447
54.332,67.9068,0.013447
54.363,67.9007,0.013447
54.394,67.8945,0.013447
54.425,67.8882,0.013447
54.456,67.8821,0.013447
54.487,67.8758,0.013447
54.519,67.8695,0.013428
54.549,67.8635,0.013428
54.581,67.8573,0.013428
54.611,67.8511,0.013428
54.642,67.8449,0.013428
54.674,67.8385,0.013428
54.705,67.8323,0.013428
54.736,67.8259,0.013390
54.768,67.8199,0.013390
54.800,67.8133,0.013390
54.832,67.8076,0.013390
54.863,67.8025,0.013390
54.894,67.7984,0.013390
54.925,67.7949,0.013390
54.957,67.7921,0.013390
54.988,67.7901,0.013343
55.018,67.7889,0.013343
55.049,67.7882,0.013343
55.081,67.7882,0.013343
55.111,67.7882,0.013343
55.142,67.7882,0.013343
55.172,67.7882,0.013343
55.203,67.7882,0.013343
55.234,67.7882,0.013306
55.265,67.7882,0.013306
55.295,67.7882,0.013306
55.326,67.7882,0.013306
55.357,67.7882,0.013306
55.387,67.7882,0.013306
55.418,67.7882,0.013306
55.450,67.7882,0.013306
55.481,67.7882,0.013390
55.512,67.7885,0.013390
55.542,67.7895,0.013390
55.573,67.7912,0.013390
55.606,67.7938,0.013390
55.635,67.7968,0.013390
55.667,67.8006,0.013390
55.697,67.8052,0.013334
55.729,67.8107,0.013334
55.760,67.8169,0.013334
55.791,67.8231,0.013334
55.823,67.8294,0.013334
55.853,67.8355,0.013334
55.884,67.8416,0.013334
55.916,67.8479,0.013334
55.947,67.8541,0.013315
55.979,67.8605,0.013315
56.009,67.8665,0.013315
56.040,67.8727,0.013315
56.073,67.8793,0.013315
56.101,67.8850,0.013315
56.132,67.8910,0.013315
56.163,67.8974,0.013315
56.194,67.9036,0.013315
56.225,67.9097,0.013315
56.255,67.9159,0.013362
56.287,67.9222,0.013362
56.318,67.9283,0.013362
56.349,67.9346,0.013362
56.380,67.9408,0.013362
56.411,67.9469,0.013362
56.441,67.9529,0.013362
56.473,67.9593,0.013343
56.504,67.9655,0.013343
56.535,67.9718,0.013343
56.566,67.9779,0.013343
56.597,67.9842,0.013343
56.628,67.9903,0.013343
56.658,67.9965,0.013343
56.691,68.0028,0.013343
56.720,68.0089,0.013343
56.751,68.0151,0.013418
56.783,68.0214,0.013418
56.814,68.0276,0.013418
56.845,68.0338,0.013418
56.874,68.0396,0.013418
56.905,68.0458,0.013418
56.937,68.0522,0.013418
56.968,68.0584,0.013456
57.000,68.0648,0.013456
57.031,68.0709,0.013456
57.062,68.0771,0.013456
57.092,68.0832,0.013456
57.124,68.0896,0.013456
57.154,68.0956,0.013456
57.185,68.1018,0.013456
57.216,68.1080,0.013428
57.247,68.1143,0.013428
57.278,68.1205,0.013428
57.310,68.1267,0.013428
57.340,68.1328,0.013428
57.372,68.1392,0.013428
57.404,68.1454,0.013428
57.436,68.1519,0.013428
57.466,68.1579,0.013475
57.498,68.1643,0.013475
57.529,68.1705,0.013475
57.560,68.1768,0.013475
57.591,68.1830,0.013475
57.623,68.1893,0.013475
57.654,68.1955,0.013475
57.685,68.2017,0.013475
57.716,68.2079,0.013437
57.747,68.2143,0.013437
57.778,68.2206,0.013437
57.809,68.2264,0.013437
57.840,68.2326,0.013437
57.871,68.2389,0.013437
57.902,68.2451,0.013437
57.934,68.2515,0.013437
57.963,68.2573,0.013343
57.995,68.2637,0.013343
58.026,68.2699,0.013343
58.058,68.2763,0.013343
58.088,68.2823,0.013343
58.119,68.2887,0.013343
58.150,68.2949,0.013343
58.181,68.3009,0.013343
58.212,68.3071,0.013381
58.243,68.3133,0.013381
58.274,68.3196,0.013381
58.305,68.3259,0.013381
58.335,68.3318,0.013381
58.366,68.3382,0.013381
58.398,68.3444,0.013381
58.429,68.3506,0.013381
58.459,68.3566,0.013437
58.492,68.3631,0.013437
58.523,68.3693,0.013437
58.554,68.3756,0.013437
58.586,68.3818,0.013437
58.616,68.3881,0.013437
58.648,68.3943,0.013437
58.678,68.4003,0.013437
58.709,68.4065,0.013418
58.739,68.4126,0.013418
58.771,68.4190,0.013418
58.803,68.4253,0.013418
58.833,68.4314,0.013418
58.865,68.4376,0.013418
58.895,68.4441,0.013418
58.926,68.4500,0.013418
58.958,68.4563,0.013381
58.988,68.4623,0.013381
59.021,68.4689,0.013381
59.050,68.4747,0.013381
59.081,68.4809,0.013381
59.112,68.4870,0.013381
59.143,68.4933,0.013381
59.174,68.4995,0.013381
59.206,68.5060,0.013466
59.236,68.5118,0.013466
59.267,68.5181,0.013466
59.298,68.5244,0.013466
59.329,68.5308,0.013466
59.361,68.5371,0.013466
59.391,68.5429,0.013466
59.423,68.5492,0.013466
59.453,68.5553,0.013466
59.484,68.5615,0.013466
59.515,68.5677,0.013484
59.546,68.5738,0.013484
59.577,68.5801,0.013484
59.608,68.5862,0.013484
59.639,68.5925,0.013484
59.669,68.5987,0.013484
59.700,68.6048,0.013484
59.731,68.6109,0.013447
59.762,68.6171,0.013447
59.792,68.6232,0.013447
59.823,68.6294,0.013447
59.853,68.6353,0.013447
59.885,68.6418,0.013447
59.915,68.6477,0.013447
59.947,68.6542,0.013447
59.978,68.6606,0.013447
60.009,68.6667,0.013428
60.040,68.6726,0.013428
60.071,68.6791,0.013428
60.102,68.6852,0.013428
60.132,68.6912,0.013428
60.164,68.6975,0.013428
60.195,68.7039,0.013428
60.227,68.7100,0.013409
60.259,68.7165,0.013409
60.290,68.7228,0.013409
60.322,68.7291,0.013409
60.353,68.7353,0.013409
60.383,68.7414,0.013409
60.415,68.7476,0.013409
60.446,68.7539,0.013409
60.477,68.7603,0.013400
60.508,68.7663,0.013400
60.539,68.7727,0.013400
60.571,68.7789,0.013400
60.603,68.7854,0.013400
60.632,68.7912,0.013400
60.663,68.7973,0.013400
60.694,68.8036,0.013400
60.726,68.8098,0.013362
60.756,68.8160,0.013362
60.788,68.8222,0.013362
60.818,68.8284,0.013362
60.850,68.8349,0.013362
60.880,68.8408,0.013362
60.910,68.8468,0.013362
60.942,68.8532,0.013390
60.974,68.8594,0.013390
61.005,68.8656,0.013390
61.035,68.8718,0.013390
61.067,68.8780,0.013390
61.098,68.8844,0.013390
61.128,68.8903,0.013390
61.158,68.8965,0.013390
61.189,68.9026,0.013390
61.221,68.9090,0.013390
61.252,68.9150,0.013390
61.282,68.9212,0.013390
61.313,68.9274,0.013390
61.345,68.9337,0.013390
61.375,68.9398,0.013390
61.407,68.9461,0.013390
61.438,68.9523,0.013400
61.470,68.9586,0.013400
61.500,68.9650,0.013400
61.531,68.9710,0.013400
61.563,68.9772,0.013400
61.594,68.9836,0.013400
61.625,68.9899,0.013400
61.656,68.9959,0.013400
61.687,69.0021,0.013400
61.718,69.0083,0.013400
61.749,69.0145,0.013456
61.780,69.0209,0.013456
61.812,69.0270,0.013456
61.843,69.0333,0.013456
61.876,69.0400,0.013456
61.906,69.0460,0.013456
61.937,69.0522,0.013456
61.968,69.0584,0.013456
61.998,69.0642,0.013447
62.029,69.0705,0.013447
62.060,69.0766,0.013447
62.091,69.0829,0.013447
62.122,69.0892,0.013447
62.153,69.0953,0.013447
62.184,69.1016,0.013447
62.215,69.1078,0.013447
62.246,69.1140,0.013447
62.277,69.1201,0.013447
62.308,69.1262,0.013447
62.339,69.1325,0.013447
62.370,69.1386,0.013447
62.401,69.1448,0.013447
62.432,69.1510,0.013447
62.463,69.1573,0.013447
62.494,69.1635,0.013437
62.526,69.1699,0.013437
62.556,69.1759,0.013437
62.587,69.1821,0.013437
62.619,69.1885,0.013437
62.649,69.1945,0.013437
62.680,69.2007,0.013437
62.710,69.2067,0.013437
62.740,69.2129,0.013437
62.772,69.2192,0.013428
62.802,69.2250,0.013428
62.833,69.2311,0.013428
62.864,69.2374,0.013428
62.895,69.2436,0.013428
62.927,69.2501,0.013428
62.959,69.2564,0.013428
62.990,69.2626,0.013437
63.020,69.2687,0.013437
63.052,69.2750,0.013437
63.083,69.2814,0.013437
63.114,69.2874,0.013437
63.145,69.2938,0.013437
63.176,69.2998,0.013437
63.207,69.3062,0.013437
63.239,69.3125,0.013437
63.270,69.3188,0.013437
63.302,69.3251,0.013437
63.332,69.3311,0.013437
63.364,69.3375,0.013437
63.394,69.3434,0.013437
63.425,69.3496,0.013437
63.456,69.3559,0.013437
63.487,69.3620,0.013475
63.518,69.3684,0.013475
63.549,69.3745,0.013475
63.581,69.3808,0.013475
63.612,69.3871,0.013475
63.645,69.3936,0.013475
63.675,69.3997,0.013475
63.706,69.4060,0.013475
63.737,69.4121,0.013437
63.769,69.4184,0.013437
63.800,69.4246,0.013437
63.830,69.4308,0.013437
63.861,69.4370,0.013437
63.892,69.4432,0.013437
63.923,69.4493,0.013437
63.954,69.4556,0.013437
63.986,69.4621,0.013390
64.017,69.4681,0.013390
64.048,69.4743,0.013390
64.079,69.4805,0.013390
64.110,69.4869,0.013390
64.141,69.4931,0.013390
64.172,69.4993,0.013390
64.202,69.5052,0.013390
64.234,69.5115,0.013390
64.265,69.5176,0.013390
64.296,69.5238,0.013390
64.326,69.5299,0.013390
64.357,69.5362,0.013390
64.388,69.5424,0.013390
64.420,69.5486,0.013390
64.451,69.5549,0.013390
64.481,69.5610,0.013390
64.513,69.5672,0.013381
64.543,69.5732,0.013381
64.574,69.5796,0.013381
64.606,69.5858,0.013381
64.637,69.5920,0.013381
64.668,69.5982,0.013381
64.699,69.6046,0.013381
64.730,69.6106,0.013390
64.762,69.6171,0.013390
64.793,69.6233,0.013390
64.824,69.6295,0.013390
64.855,69.6357,0.013390
64.886,69.6419,0.013390
64.917,69.6482,0.013390
64.948,69.6543,0.013390
64.979,69.6605,0.013390
65.014,69.6674,0.013409
65.042,69.6731,0.013409
65.074,69.6796,0.013409
65.105,69.6857,0.013409
65.136,69.6919,0.013409
65.165,69.6978,0.013409
65.197,69.7041,0.013409
65.228,69.7103,0.013409
65.259,69.7166,0.013447
65.290,69.7228,0.013447
65.321,69.7291,0.013447
65.353,69.7353,0.013447
65.384,69.7416,0.013447
65.416,69.7479,0.013447
65.447,69.7543,0.013447
65.478,69.7602,0.013447
65.508,69.7662,0.013400
65.539,69.7725,0.013400
65.570,69.7787,0.013400
65.602,69.7850,0.013400
65.632,69.7911,0.013400
65.663,69.7974,0.013400
65.694,69.8035,0.013400
65.726,69.8098,0.013400
65.758,69.8163,0.013428
65.788,69.8223,0.013428
65.819,69.8284,0.013428
65.850,69.8349,0.013428
65.881,69.8408,0.013428
65.912,69.8473,0.013428
65.944,69.8535,0.013428
65.976,69.8599,0.013428
66.009,69.8665,0.013475
66.039,69.8726,0.013475
66.069,69.8785,0.013475
66.100,69.8847,0.013475
66.131,69.8909,0.013475
66.162,69.8971,0.013475
66.193,69.9035,0.013475
66.224,69.9095,0.013456
66.255,69.9157,0.013456
66.286,69.9218,0.013456
66.317,69.9281,0.013456
66.349,69.9345,0.013456
66.379,69.9404,0.013456
66.410,69.9467,0.013456
66.442,69.9531,0.013456
66.473,69.9593,0.013456
66.504,69.9655,0.013437
66.535,69.9718,0.013437
66.566,69.9777,0.013437
66.597,69.9843,0.013437
66.629,69.9904,0.013437
66.660,69.9966,0.013437
66.691,70.0029,0.013437
66.723,70.0092,0.013437
66.754,70.0156,0.013428
66.785,70.0215,0.013428
66.816,70.0277,0.013428
66.846,70.0341,0.013428
66.879,70.0405,0.013428
66.908,70.0463,0.013428
66.939,70.0525,0.013428
66.970,70.0586,0.013428
67.001,70.0649,0.013437
67.033,70.0713,0.013437
67.064,70.0773,0.013437
67.095,70.0837,0.013437
67.127,70.0900,0.013437
67.157,70.0962,0.013437
67.188,70.1023,0.013437
67.219,70.1085,0.013437
67.250,70.1145,0.013418
67.281,70.1209,0.013418
67.313,70.1273,0.013418
67.344,70.1334,0.013418
67.375,70.1398,0.013418
67.406,70.1460,0.013418
67.438,70.1522,0.013418
67.469,70.1584,0.013418
67.500,70.1648,0.013466
67.531,70.1710,0.013466
67.562,70.1770,0.013466
67.594,70.1834,0.013466
67.625,70.1897,0.013466
67.655,70.1958,0.013466
67.686,70.2019,0.013466
67.718,70.2082,0.013466
67.750,70.2148,0.013456
67.780,70.2208,0.013456
67.812,70.2270,0.013456
67.844,70.2334,0.013456
67.874,70.2394,0.013456
67.905,70.2456,0.013456
67.937,70.2520,0.013456
67.968,70.2582,0.013409
67.998,70.2644,0.013409
68.030,70.2706,0.013409
68.062,70.2771,0.013409
68.091,70.2830,0.013409
68.122,70.2892,0.013409
68.154,70.2955,0.013409
68.184,70.3016,0.013409
68.215,70.3078,0.013409
68.246,70.3138,0.013428
68.277,70.3200,0.013428
68.309,70.3265,0.013428
68.341,70.3328,0.013428
68.371,70.3389,0.013428
68.402,70.3451,0.013428
68.433,70.3512,0.013428
68.464,70.3574,0.013428
68.495,70.3636,0.013409
68.526,70.3699,0.013409
68.557,70.3761,0.013409
68.588,70.3823,0.013409
68.620,70.3886,0.013409
68.650,70.3948,0.013409
68.680,70.4008,0.013409
68.712,70.4070,0.013418
68.743,70.4133,0.013418
68.774,70.4195,0.013418
68.805,70.4258,0.013418
68.837,70.4320,0.013418
68.868,70.4384,0.013418
68.898,70.4443,0.013418
68.930,70.4506,0.013418
68.960,70.4567,0.013400
68.991,70.4629,0.013400
69.022,70.4690,0.013400
69.053,70.4755,0.013400
69.085,70.4817,0.013400
69.116,70.4880,0.013400
69.147,70.4942,0.013400
69.178,70.5003,0.013400
69.209,70.5063,0.013418
69.240,70.5127,0.013418
69.271,70.5191,0.013418
69.303,70.5253,0.013418
69.333,70.5313,0.013418
69.364,70.5376,0.013418
69.396,70.5438,0.013418
69.425,70.5499,0.013418
69.457,70.5559,0.013418
69.489,70.5624,0.013475
69.520,70.5687,0.013475
69.552,70.5749,0.013475
69.582,70.5811,0.013475
69.613,70.5873,0.013475
69.645,70.5936,0.013475
69.676,70.5998,0.013475
69.708,70.6062,0.013409
69.739,70.6125,0.013409
69.771,70.6187,0.013409
69.801,70.6250,0.013409
69.832,70.6310,0.013409
69.863,70.6373,0.013409
69.894,70.6434,0.013409
69.925,70.6496,0.013409
69.956,70.6559,0.013353
69.986,70.6620,0.013353
70.018,70.6682,0.013353
70.048,70.6741,0.013353
70.078,70.6805,0.013353
70.109,70.6864,0.013353
70.140,70.6927,0.013353
70.172,70.6991,0.013353
70.203,70.7054,0.013343
70.234,70.7115,0.013343
70.265,70.7177,0.013343
70.296,70.7239,0.013343
70.328,70.7302,0.013343
70.359,70.7365,0.013343
70.391,70.7427,0.013343
70.421,70.7489,0.013343
70.452,70.7550,0.013381
70.482,70.7611,0.013381
70.513,70.7672,0.013381
70.545,70.7724,0.013381
70.576,70.7768,0.013381
70.607,70.7804,0.013381
70.637,70.7835,0.013381
70.668,70.7856,0.013381
70.700,70.7872,0.013466
70.732,70.7881,0.013466
70.763,70.7882,0.013466
70.793,70.7882,0.013466
70.825,70.7882,0.013466
70.856,70.7882,0.013466
70.887,70.7882,0.013466
70.918,70.7882,0.013466
70.948,70.7882,0.013484
70.979,70.7882,0.013484
71.011,70.7882,0.013484
71.042,70.7882,0.013484
71.073,70.7882,0.013484
71.105,70.7882,0.013484
71.136,70.7882,0.013484
71.167,70.7882,0.013484
71.198,70.7882,0.013484
71.229,70.7882,0.013484
71.259,70.7882,0.013466
71.291,70.7882,0.013466
71.321,70.7882,0.013466
71.352,70.7882,0.013466
71.384,70.7882,0.013466
71.415,70.7882,0.013466
71.446,70.7882,0.013466
71.477,70.7882,0.013428
71.508,70.7882,0.013428
71.539,70.7882,0.013428
71.569,70.7882,0.013428
71.600,70.7882,0.013428
71.631,70.7882,0.013428
71.663,70.7882,0.013428
71.695,70.7882,0.013428
71.726,70.7882,0.013390
71.757,70.7882,0.013390
71.788,70.7882,0.013390
71.819,70.7882,0.013390
71.850,70.7882,0.013390
71.881,70.7882,0.013390
71.912,70.7882,0.013390
71.944,70.7882,0.013390
71.975,70.7882,0.013371
72.007,70.7882,0.013371
72.038,70.7882,0.013371
72.069,70.7882,0.013371
72.100,70.7882,0.013371
72.129,70.7882,0.013371
72.160,70.7882,0.013371
72.191,70.7882,0.013371
72.222,70.7882,0.013371
72.254,70.7882,0.013418
72.285,70.7882,0.013418
72.315,70.7882,0.013418
72.346,70.7882,0.013418
72.378,70.7882,0.013418
72.409,70.7882,0.013418
72.440,70.7882,0.013418
72.472,70.7882,0.013456
72.502,70.7882,0.013456
72.534,70.7882,0.013456
72.565,70.7882,0.013456
72.595,70.7882,0.013456
72.626,70.7882,0.013456
72.657,70.7882,0.013456
72.688,70.7882,0.013456
72.719,70.7882,0.013456
72.750,70.7882,0.013418
72.781,70.7882,0.013418
72.814,70.7882,0.013418
72.843,70.7882,0.013418
72.874,70.7882,0.013418
72.905,70.7882,0.013418
72.936,70.7882,0.013418
72.968,70.7882,0.013409
72.999,70.7882,0.013409
73.032,70.7882,0.013409
73.062,70.7882,0.013409
73.092,70.7882,0.013409
73.123,70.7882,0.013409
73.155,70.7882,0.013409
73.186,70.7882,0.013437
73.217,70.7882,0.013437
73.248,70.7882,0.013437
73.279,70.7882,0.013437
73.309,70.7882,0.013437
73.343,70.7882,0.013437
73.371,70.7882,0.013437
73.401,70.7882,0.013437
73.433,70.7882,0.013437
73.463,70.7882,0.013447
73.495,70.7882,0.013447
73.526,70.7882,0.013447
73.555,70.7882,0.013447
73.587,70.7882,0.013447
73.617,70.7882,0.013447
73.648,70.7882,0.013447
73.679,70.7882,0.013447
73.710,70.7882,0.013428
73.740,70.7882,0.013428
73.772,70.7882,0.013428
73.802,70.7882,0.013428
73.834,70.7882,0.013428
73.865,70.7882,0.013428
73.896,70.7882,0.013428
73.925,70.7882,0.013428
73.955,70.7882,0.013428
73.986,70.7882,0.013428
74.019,70.7882,0.013428
74.049,70.7882,0.013428
74.081,70.7882,0.013428
74.112,70.7882,0.013428
74.143,70.7882,0.013428
74.175,70.7882,0.013428
74.206,70.7882,0.013390
74.237,70.7882,0.013390
74.267,70.7882,0.013390
74.299,70.7882,0.013390
74.330,70.7882,0.013390
74.363,70.7882,0.013390
74.393,70.7882,0.013390
74.425,70.7882,0.013390
74.455,70.7882,0.013362
74.486,70.7882,0.013362
74.516,70.7882,0.013362
74.547,70.7882,0.013362
74.579,70.7882,0.013362
74.609,70.7882,0.013362
74.640,70.7882,0.013362
74.671,70.7882,0.013362
74.704,70.7882,0.013381
74.733,70.7882,0.013381
74.764,70.7882,0.013381
74.795,70.7882,0.013381
74.828,70.7882,0.013381
74.857,70.7882,0.013381
74.888,70.7882,0.013381
74.920,70.7882,0.013381
74.951,70.7882,0.013409
74.981,70.7882,0.013409
75.012,70.7882,0.013409
75.042,70.7882,0.013409
75.073,70.7882,0.013409
75.105,70.7882,0.013409
75.136,70.7881,0.013409
75.167,70.7871,0.013409
75.197,70.7856,0.013409
75.228,70.7834,0.013418
75.258,70.7804,0.013418
75.289,70.7766,0.013418
75.321,70.7721,0.013418
75.352,70.7670,0.013418
75.383,70.7610,0.013418
75.414,70.7549,0.013418
75.445,70.7487,0.013418
75.476,70.7423,0.013513
75.507,70.7361,0.013513
75.539,70.7298,0.013513
75.570,70.7235,0.013513
75.603,70.7170,0.013513
75.632,70.7111,0.013513
75.663,70.7049,0.013513
75.695,70.6987,0.013513
75.726,70.6924,0.013522
75.757,70.6862,0.013522
75.788,70.6801,0.013522
75.818,70.6740,0.013522
75.850,70.6677,0.013522
75.881,70.6614,0.013522
75.912,70.6550,0.013522
75.943,70.6488,0.013522
75.974,70.6428,0.013522
76.006,70.6364,0.013409
76.037,70.6301,0.013409
76.068,70.6240,0.013409
76.098,70.6180,0.013409
76.129,70.6118,0.013409
76.160,70.6057,0.013409
76.191,70.5993,0.013409
76.223,70.5929,0.013409
76.254,70.5868,0.013409
76.285,70.5805,0.013409
76.317,70.5740,0.013409
76.348,70.5681,0.013409
76.379,70.5618,0.013409
76.410,70.5556,0.013409
76.442,70.5492,0.013409
76.473,70.5429,0.013475
76.504,70.5368,0.013475
76.534,70.5308,0.013475
76.565,70.5246,0.013475
76.595,70.5185,0.013475
76.626,70.5125,0.013475
76.656,70.5063,0.013475
76.687,70.5001,0.013475
76.718,70.4941,0.013447
76.749,70.4877,0.013447
76.780,70.4818,0.013447
76.810,70.4755,0.013447
76.840,70.4695,0.013447
76.872,70.4633,0.013447
76.904,70.4570,0.013447
76.935,70.4506,0.013400
76.965,70.4443,0.013400
76.996,70.4384,0.013400
77.027,70.4320,0.013400
77.059,70.4258,0.013400
77.089,70.4196,0.013400
77.121,70.4134,0.013400
77.151,70.4072,0.013400
77.181,70.4014,0.013400
77.212,70.3950,0.013400
77.244,70.3888,0.013428
77.277,70.3822,0.013428
77.307,70.3761,0.013428
77.339,70.3698,0.013428
77.368,70.3637,0.013428
77.400,70.3576,0.013428
77.430,70.3514,0.013428
77.461,70.3453,0.013428
77.492,70.3391,0.013353
77.523,70.3329,0.013353
77.554,70.3269,0.013353
77.585,70.3207,0.013353
77.616,70.3145,0.013353
77.646,70.3084,0.013353
77.678,70.3021,0.013353
77.708,70.2960,0.013353
77.740,70.2895,0.013362
77.771,70.2833,0.013362
77.803,70.2771,0.013362
77.834,70.2707,0.013362
77.866,70.2645,0.013362
77.896,70.2583,0.013362
77.927,70.2522,0.013362
77.958,70.2460,0.013362
77.989,70.2397,0.013437
78.020,70.2336,0.013437
78.051,70.2273,0.013437
78.082,70.2213,0.013437
78.113,70.2150,0.013437
78.144,70.2088,0.013437
78.175,70.2021,0.013437
78.208,70.1960,0.013437
78.237,70.1902,0.013437
78.268,70.1839,0.013437
78.300,70.1775,0.013437
78.331,70.1713,0.013437
78.362,70.1651,0.013437
78.393,70.1589,0.013437
78.424,70.1527,0.013437
78.455,70.1467,0.013437
78.487,70.1403,0.013456
78.518,70.1339,0.013456
78.548,70.1281,0.013456
78.579,70.1217,0.013456
78.611,70.1154,0.013456
78.642,70.1092,0.013456
78.673,70.1030,0.013456
78.703,70.0971,0.013456
78.734,70.0906,0.013400
78.765,70.0845,0.013400
78.795,70.0785,0.013400
78.826,70.0725,0.013400
78.857,70.0660,0.013400
78.889,70.0598,0.013400
78.920,70.0535,0.013400
78.951,70.0473,0.013400
78.983,70.0410,0.013447
79.014,70.0348,0.013447
79.045,70.0287,0.013447
79.076,70.0224,0.013447
79.106,70.0163,0.013447
79.137,70.0100,0.013447
79.169,70.0039,0.013447
79.199,69.9977,0.013447
79.230,69.9915,0.013456
79.262,69.9852,0.013456
79.293,69.9787,0.013456
79.324,69.9727,0.013456
79.355,69.9666,0.013456
79.386,69.9604,0.013456
79.416,69.9544,0.013456
79.448,69.9481,0.013456
79.479,69.9418,0.013390
79.511,69.9353,0.013390
79.542,69.9291,0.013390
79.573,69.9229,0.013390
79.604,69.9167,0.013390
79.636,69.9104,0.013390
79.666,69.9044,0.013390
79.697,69.8981,0.013390
79.729,69.8918,0.013390
79.759,69.8857,0.013390
79.789,69.8798,0.013390
79.820,69.8736,0.013390
79.852,69.8671,0.013390
79.882,69.8612,0.013390
79.913,69.8550,0.013390
79.943,69.8489,0.013400
79.975,69.8426,0.013400
80.006,69.8362,0.013400
80.037,69.8302,0.013400
80.069,69.8240,0.013400
80.099,69.8178,0.013400
80.130,69.8117,0.013400
80.162,69.8051,0.013400
80.193,69.7990,0.013400
80.224,69.7928,0.013437
80.255,69.7866,0.013437
80.286,69.7804,0.013437
80.317,69.7741,0.013437
80.347,69.7681,0.013437
80.379,69.7618,0.013437
80.411,69.7555,0.013437
80.441,69.7493,0.013437
80.472,69.7433,0.013409
80.505,69.7366,0.013409
80.534,69.7308,0.013409
80.566,69.7244,0.013409
80.598,69.7182,0.013409
80.628,69.7120,0.013409
80.658,69.7060,0.013409
80.689,69.6998,0.013409
80.721,69.6932,0.013409
80.752,69.6873,0.013409
80.783,69.6811,0.013409
80.813,69.6750,0.013409
80.844,69.6689,0.013409
80.876,69.6625,0.013409
80.907,69.6560,0.013409
80.937,69.6502,0.013409
80.969,69.6437,0.013428
80.999,69.6378,0.013428
81.032,69.6312,0.013428
81.062,69.6251,0.013428
81.094,69.6188,0.013428
81.124,69.6129,0.013428
81.157,69.6063,0.013428
81.185,69.6005,0.013400
81.217,69.5943,0.013400
81.248,69.5879,0.013400
81.280,69.5815,0.013400
81.311,69.5754,0.013400
81.342,69.5692,0.013400
81.374,69.5628,0.013400
81.404,69.5566,0.013400
81.437,69.5504,0.013400
81.466,69.5443,0.013400
81.498,69.5381,0.013447
81.529,69.5319,0.013447
81.560,69.5256,0.013447
81.591,69.5195,0.013447
81.622,69.5133,0.013447
81.653,69.5071,0.013447
81.685,69.5007,0.013447
81.717,69.4943,0.013447
81.748,69.4880,0.013447
81.779,69.4818,0.013447
81.810,69.4757,0.013447
81.842,69.4692,0.013447
81.874,69.4629,0.013447
81.906,69.4565,0.013447
81.937,69.4501,0.013447
81.968,69.4441,0.013418
81.999,69.4379,0.013418
82.030,69.4317,0.013418
82.062,69.4253,0.013418
82.092,69.4191,0.013418
82.123,69.4131,0.013418
82.154,69.4069,0.013418
82.186,69.4004,0.013418
82.217,69.3942,0.013362
82.249,69.3879,0.013362
82.282,69.3813,0.013362
82.310,69.3757,0.013362
82.340,69.3697,0.013362
82.370,69.3636,0.013362
82.401,69.3574,0.013362
82.432,69.3512,0.013381
82.464,69.3449,0.013381
82.494,69.3388,0.013381
82.525,69.3326,0.013381
82.556,69.3264,0.013381
82.587,69.3202,0.013381
82.618,69.3140,0.013381
82.651,69.3075,0.013381
82.680,69.3017,0.013381
82.711,69.2955,0.013381
82.742,69.2892,0.013428
82.772,69.2831,0.013428
82.804,69.2770,0.013428
82.835,69.2707,0.013428
82.866,69.2645,0.013428
82.898,69.2580,0.013428
82.928,69.2521,0.013428
82.959,69.2458,0.013428
82.990,69.2397,0.013418
83.021,69.2332,0.013418
83.052,69.2272,0.013418
83.083,69.2211,0.013418
83.114,69.2149,0.013418
83.146,69.2086,0.013418
83.175,69.2026,0.013418
83.206,69.1964,0.013418
83.238,69.1901,0.013409
83.269,69.1836,0.013409
83.300,69.1775,0.013409
83.332,69.1711,0.013409
83.365,69.1646,0.013409
83.395,69.1587,0.013409
83.426,69.1524,0.013409
83.457,69.1463,0.013409
83.488,69.1400,0.013381
83.520,69.1336,0.013381
83.551,69.1274,0.013381
83.583,69.1210,0.013381
83.614,69.1149,0.013381
83.645,69.1085,0.013381
83.679,69.1019,0.013381
83.709,69.0958,0.013381
83.739,69.0896,0.013381
83.771,69.0835,0.013381
83.801,69.0773,0.013381
83.832,69.0713,0.013381
83.863,69.0648,0.013381
83.894,69.0589,0.013381
83.925,69.0525,0.013381
83.956,69.0466,0.013381
83.987,69.0401,0.013400
84.018,69.0340,0.013400
84.049,69.0277,0.013400
84.081,69.0214,0.013400
84.112,69.0152,0.013400
84.144,69.0089,0.013400
84.176,69.0025,0.013400
84.207,68.9962,0.013400
84.237,68.9903,0.013418
84.269,68.9837,0.013418
84.298,68.9780,0.013418
84.330,68.9715,0.013418
84.360,68.9655,0.013418
84.391,68.9595,0.013418
84.422,68.9532,0.013418
84.452,68.9472,0.013418
84.483,68.9409,0.013381
84.514,68.9348,0.013381
84.546,68.9284,0.013381
84.577,68.9222,0.013381
84.609,68.9157,0.013381
84.641,68.9094,0.013381
84.673,68.9030,0.013381
84.705,68.8968,0.013381
84.737,68.8902,0.013343
84.768,68.8840,0.013343
84.799,68.8778,0.013343
84.830,68.8717,0.013343
84.861,68.8655,0.013343
84.892,68.8593,0.013343
84.923,68.8530,0.013343
84.955,68.8468,0.013343
84.985,68.8407,0.013400
85.017,68.8342,0.013400
85.048,68.8280,0.013400
85.079,68.8218,0.013400
85.110,68.8156,0.013400
85.142,68.8093,0.013400
85.172,68.8030,0.013400
85.203,68.7970,0.013447
85.235,68.7906,0.013447
85.265,68.7848,0.013447
85.295,68.7786,0.013447
85.327,68.7721,0.013447
85.357,68.7662,0.013447
85.388,68.7602,0.013447
85.419,68.7538,0.013447
85.451,68.7476,0.013390
85.482,68.7412,0.013390
85.514,68.7350,0.013390
85.545,68.7287,0.013390
85.575,68.7226,0.013390
85.606,68.7164,0.013390
85.638,68.7101,0.013390
85.668,68.7040,0.013390
85.699,68.6978,0.013381
85.730,68.6915,0.013381
85.761,68.6854,0.013381
85.793,68.6790,0.013381
85.824,68.6728,0.013381
85.856,68.6663,0.013381
85.886,68.6605,0.013381
85.917,68.6542,0.013381
85.948,68.6481,0.013381
85.979,68.6418,0.013381
86.010,68.6358,0.013390
86.042,68.6292,0.013390
86.073,68.6230,0.013390
86.104,68.6168,0.013390
86.134,68.6109,0.013390
86.165,68.6047,0.013390
86.197,68.5984,0.013390
86.227,68.5922,0.013400
86.258,68.5860,0.013400
86.289,68.5799,0.013400
86.320,68.5737,0.013400
86.352,68.5673,0.013400
86.383,68.5610,0.013400
86.413,68.5549,0.013400
86.445,68.5486,0.013400
86.475,68.5425,0.013447
86.506,68.5363,0.013447
86.537,68.5301,0.013447
86.569,68.5238,0.013447
86.600,68.5176,0.013447
86.631,68.5114,0.013447
86.662,68.5053,0.013447
86.693,68.4991,0.013447
86.725,68.4928,0.013428
86.756,68.4865,0.013428
86.786,68.4803,0.013428
86.817,68.4742,0.013428
86.849,68.4679,0.013428
86.880,68.4617,0.013428
86.910,68.4555,0.013428
86.941,68.4495,0.013428
86.972,68.4431,0.013400
87.002,68.4372,0.013400
87.034,68.4309,0.013400
87.065,68.4246,0.013400
87.098,68.4180,0.013400
87.128,68.4119,0.013400
87.159,68.4059,0.013400
87.189,68.3997,0.013400
87.221,68.3933,0.013409
87.251,68.3875,0.013409
87.282,68.3813,0.013409
87.312,68.3752,0.013409
87.344,68.3688,0.013409
87.374,68.3628,0.013409
87.405,68.3565,0.013409
87.435,68.3507,0.013409
87.467,68.3442,0.013390
87.498,68.3380,0.013390
87.529,68.3318,0.013390
87.560,68.3258,0.013390
87.592,68.3192,0.013390
87.623,68.3131,0.013390
87.654,68.3067,0.013390
87.686,68.3006,0.013390
87.718,68.2940,0.013400
87.750,68.2878,0.013400
87.781,68.2815,0.013400
87.811,68.2754,0.013400
87.842,68.2692,0.013400
87.873,68.2629,0.013400
87.904,68.2568,0.013400
87.935,68.2507,0.013466
87.966,68.2444,0.013466
87.997,68.2382,0.013466
88.029,68.2319,0.013466
88.061,68.2255,0.013466
88.093,68.2191,0.013466
88.123,68.2130,0.013466
88.154,68.2068,0.013466
88.186,68.2004,0.013466
88.217,68.1943,0.013475
88.248,68.1882,0.013475
88.279,68.1818,0.013475
88.311,68.1756,0.013475
88.342,68.1691,0.013475
88.374,68.1629,0.013475
88.404,68.1567,0.013475
88.436,68.1505,0.013475
88.467,68.1443,0.013409
88.498,68.1380,0.013409
88.529,68.1319,0.013409
88.560,68.1256,0.013409
88.592,68.1193,0.013409
88.623,68.1131,0.013409
88.653,68.1071,0.013409
88.685,68.1008,0.013409
88.717,68.0943,0.013409
88.748,68.0881,0.013371
88.779,68.0819,0.013371
88.810,68.0757,0.013371
88.842,68.0693,0.013371
88.871,68.0634,0.013371
88.902,68.0571,0.013371
88.934,68.0509,0.013371
88.965,68.0447,0.013371
88.995,68.0386,0.013371
89.027,68.0323,0.013371
89.058,68.0261,0.013371
89.088,68.0200,0.013371
89.119,68.0137,0.013371
89.150,68.0075,0.013371
89.180,68.0017,0.013371
89.211,67.9955,0.013371
89.242,67.9893,0.013381
89.274,67.9830,0.013381
89.306,67.9766,0.013381
89.337,67.9703,0.013381
89.369,67.9640,0.013381
89.399,67.9578,0.013381
89.429,67.9518,0.013381
89.460,67.9455,0.013381
89.491,67.9394,0.013400
89.523,67.9330,0.013400
89.554,67.9270,0.013400
89.585,67.9207,0.013400
89.616,67.9145,0.013400
89.646,67.9084,0.013400
89.678,67.9020,0.013400
89.710,67.8956,0.013428
89.742,67.8894,0.013428
89.772,67.8834,0.013428
89.803,67.8770,0.013428
89.834,67.8708,0.013428
89.865,67.8648,0.013428
89.896,67.8584,0.013428
89.928,67.8521,0.013428
89.959,67.8459,0.013428
89.991,67.8396,0.013428
90.021,67.8334,0.013428
90.051,67.8274,0.013428
90.083,67.8211,0.013428
90.114,67.8149,0.013428
90.145,67.8088,0.013428
90.175,67.8025,0.013428
90.206,67.7964,0.013428
90.237,67.7901,0.013428
90.268,67.7840,0.013418
90.301,67.7774,0.013418
90.331,67.7714,0.013418
90.363,67.7650,0.013418
90.394,67.7591,0.013418
90.425,67.7540,0.013418
90.457,67.7495,0.013418
90.488,67.7457,0.013381
90.520,67.7427,0.013381
90.552,67.7405,0.013381
90.583,67.7391,0.013381
90.614,67.7384,0.013381
90.645,67.7383,0.013381
90.676,67.7383,0.013381
90.707,67.7383,0.013381
90.738,67.7383,0.013324
90.770,67.7383,0.013324
90.800,67.7383,0.013324
90.832,67.7383,0.013324
90.862,67.7383,0.013324
90.893,67.7383,0.013324
90.925,67.7383,0.013324
90.956,67.7383,0.013324
90.988,67.7383,0.013381
91.018,67.7383,0.013381
91.049,67.7383,0.013381
91.080,67.7385,0.013381
91.111,67.7396,0.013381
91.143,67.7414,0.013381
91.173,67.7437,0.013381
91.203,67.7469,0.013381
91.234,67.7508,0.013381
91.265,67.7555,0.013381
91.296,67.7607,0.013381
91.327,67.7667,0.013381
91.358,67.7731,0.013381
91.390,67.7793,0.013381
91.420,67.7854,0.013381
91.451,67.7916,0.013353
91.482,67.7978,0.013353
91.513,67.8039,0.013353
91.544,67.8103,0.013353
91.576,67.8165,0.013353
91.607,67.8230,0.013353
91.639,67.8292,0.013353
91.670,67.8355,0.013353
91.701,67.8417,0.013400
91.732,67.8479,0.013400
91.762,67.8537,0.013400
91.793,67.8600,0.013400
91.824,67.8662,0.013400
91.855,67.8726,0.013400
91.886,67.8786,0.013400
91.918,67.8850,0.013400
91.949,67.8912,0.013400
91.980,67.8973,0.013400
92.012,67.9038,0.013371
92.041,67.9095,0.013371
92.073,67.9161,0.013371
92.104,67.9221,0.013371
92.135,67.9285,0.013371
92.165,67.9343,0.013371
92.195,67.9404,0.013371
92.225,67.9465,0.013362
92.256,67.9527,0.013362
92.288,67.9591,0.013362
92.319,67.9652,0.013362
92.350,67.9714,0.013362
92.381,67.9776,0.013362
92.411,67.9837,0.013362
92.442,67.9898,0.013362
92.472,67.9958,0.013362
92.504,68.0023,0.013390
92.535,68.0084,0.013390
92.566,68.0147,0.013390
92.598,68.0209,0.013390
92.629,68.0272,0.013390
92.660,68.0333,0.013390
92.691,68.0396,0.013390
92.722,68.0458,0.013390
92.752,68.0520,0.013390
92.784,68.0581,0.013390
92.815,68.0644,0.013390
92.846,68.0706,0.013390
92.877,68.0768,0.013390
92.908,68.0830,0.013390
92.939,68.0891,0.013390
92.970,68.0956,0.013390
93.000,68.1014,0.013371
93.031,68.1077,0.013371
93.062,68.1139,0.013371
93.094,68.1202,0.013371
93.125,68.1263,0.013371
93.155,68.1325,0.013371
93.185,68.1385,0.013371
93.218,68.1453,0.013418
93.247,68.1508,0.013418
93.279,68.1571,0.013418
93.310,68.1634,0.013418
93.342,68.1700,0.013418
93.372,68.1758,0.013418
93.403,68.1819,0.013418
93.435,68.1883,0.013418
93.464,68.1943,0.013418
93.495,68.2005,0.013418
93.527,68.2069,0.013418
93.558,68.2131,0.013418
93.589,68.2192,0.013418
93.620,68.2255,0.013418
93.651,68.2317,0.013418
93.683,68.2381,0.013418
93.714,68.2441,0.013418
93.745,68.2506,0.013409
93.776,68.2567,0.013409
93.807,68.2627,0.013409
93.838,68.2691,0.013409
93.870,68.2753,0.013409
93.902,68.2817,0.013409
93.932,68.2878,0.013409
93.963,68.2940,0.013409
93.995,68.3003,0.013437
94.026,68.3067,0.013437
94.056,68.3125,0.013437
94.087,68.3188,0.013437
94.118,68.3249,0.013437
94.148,68.3310,0.013437
94.180,68.3373,0.013437
94.210,68.3435,0.013437
94.242,68.3497,0.013437
94.272,68.3559,0.013437
94.303,68.3621,0.013437
94.335,68.3685,0.013437
94.367,68.3749,0.013437
94.399,68.3812,0.013437
94.430,68.3873,0.013437
94.460,68.3935,0.013437
94.491,68.3998,0.013390
94.523,68.4061,0.013390
94.555,68.4126,0.013390
94.587,68.4188,0.013390
94.617,68.4247,0.013390
94.648,68.4310,0.013390
94.679,68.4370,0.013390
94.709,68.4435,0.013381
94.742,68.4499,0.013381
94.772,68.4559,0.013381
94.803,68.4619,0.013381
94.834,68.4683,0.013381
94.864,68.4742,0.013381
94.896,68.4805,0.013381
94.927,68.4867,0.013381
94.958,68.4932,0.013381
94.990,68.4993,0.013400
95.021,68.5057,0.013400
95.053,68.5119,0.013400
95.084,68.5182,0.013400
95.115,68.5243,0.013400
95.145,68.5305,0.013400
95.176,68.5366,0.013400
95.207,68.5429,0.013400
95.238,68.5490,0.013400
95.270,68.5553,0.013400
95.300,68.5613,0.013400
95.331,68.5676,0.013400
95.362,68.5737,0.013400
95.393,68.5799,0.013400
95.423,68.5860,0.013400
95.455,68.5924,0.013400
95.484,68.5982,0.013362
95.515,68.6046,0.013362
95.546,68.6105,0.013362
95.577,68.6168,0.013362
95.609,68.6230,0.013362
95.640,68.6294,0.013362
95.671,68.6357,0.013362
95.702,68.6419,0.013334
95.733,68.6478,0.013334
95.763,68.6542,0.013334
95.794,68.6601,0.013334
95.826,68.6664,0.013334
95.856,68.6726,0.013334
95.887,68.6788,0.013334
95.918,68.6849,0.013334
95.948,68.6910,0.013334
95.980,68.6973,0.013343
96.010,68.7035,0.013343
96.041,68.7095,0.013343
96.072,68.7159,0.013343
96.103,68.7220,0.013343
96.134,68.7282,0.013343
96.165,68.7344,0.013343
96.196,68.7405,0.013343
96.229,68.7472,0.013409
96.258,68.7530,0.013409
96.289,68.7592,0.013409
96.320,68.7653,0.013409
96.351,68.7717,0.013409
96.382,68.7777,0.013409
96.414,68.7841,0.013409
96.445,68.7903,0.013447
96.477,68.7969,0.013447
96.508,68.8029,0.013447
96.539,68.8091,0.013447
96.570,68.8153,0.013447
96.601,68.8216,0.013447
96.632,68.8278,0.013447
96.663,68.8340,0.013447
96.694,68.8402,0.013447
96.725,68.8464,0.013409
96.757,68.8527,0.013409
96.788,68.8592,0.013409
96.819,68.8651,0.013409
96.850,68.8715,0.013409
96.880,68.8774,0.013409
96.912,68.8840,0.013409
96.943,68.8899,0.013409
96.975,68.8964,0.013409
97.005,68.9025,0.013437
97.037,68.9089,0.013437
97.069,68.9151,0.013437
97.101,68.9217,0.013437
97.132,68.9278,0.013437
97.163,68.9340,0.013437
97.193,68.9400,0.013437
97.224,68.9462,0.013437
97.255,68.9524,0.013447
97.286,68.9585,0.013447
97.316,68.9647,0.013447
97.347,68.9708,0.013447
97.378,68.9770,0.013447
97.410,68.9833,0.013447
97.440,68.9894,0.013447
97.471,68.9955,0.013418
97.501,69.0016,0.013418
97.532,69.0078,0.013418
97.562,69.0138,0.013418
97.593,69.0199,0.013418
97.625,69.0262,0.013418
97.656,69.0326,0.013418
97.687,69.0388,0.013418
97.718,69.0451,0.013400
97.749,69.0512,0.013400
97.780,69.0572,0.013400
97.811,69.0634,0.013400
97.842,69.0696,0.013400
97.872,69.0760,0.013400
97.903,69.0820,0.013400
97.934,69.0884,0.013400
97.966,69.0946,0.013362
97.997,69.1008,0.013362
98.028,69.1069,0.013362
98.058,69.1129,0.013362
98.089,69.1193,0.013362
98.120,69.1253,0.013362
98.151,69.1317,0.013362
98.183,69.1379,0.013362
98.214,69.1441,0.013362
98.245,69.1503,0.013362
98.276,69.1566,0.013362
98.307,69.1627,0.013362
98.339,69.1691,0.013362
98.369,69.1752,0.013362
98.401,69.1815,0.013362
98.432,69.1880,0.013362
98.463,69.1939,0.013362
98.495,69.2006,0.013381
98.526,69.2066,0.013381
98.557,69.2128,0.013381
98.588,69.2190,0.013381
98.619,69.2252,0.013381
98.650,69.2314,0.013381
98.681,69.2376,0.013381
98.712,69.2438,0.013409
98.743,69.2501,0.013409
98.774,69.2562,0.013409
98.805,69.2623,0.013409
98.836,69.2687,0.013409
98.867,69.2749,0.013409
98.899,69.2811,0.013409
98.930,69.2873,0.013409
98.961,69.2936,0.013466
98.992,69.3000,0.013466
99.024,69.3060,0.013466
99.054,69.3122,0.013466
99.085,69.3183,0.013466
99.115,69.3244,0.013466
99.146,69.3306,0.013466
99.177,69.3367,0.013466
99.208,69.3429,0.013447
99.239,69.3492,0.013447
99.271,69.3554,0.013447
99.302,69.3617,0.013447
99.332,69.3678,0.013447
99.362,69.3737,0.013447
99.394,69.3801,0.013447
99.425,69.3863,0.013447
99.456,69.3925,0.013381
99.487,69.3988,0.013381
99.517,69.4048,0.013381
99.549,69.4112,0.013381
99.579,69.4173,0.013381
99.613,69.4239,0.013381
99.642,69.4298,0.013381
99.673,69.4360,0.013381
99.704,69.4421,0.013362
99.736,69.4487,0.013362
99.767,69.4547,0.013362
99.799,69.4612,0.013362
99.830,69.4673,0.013362
99.860,69.4736,0.013362
99.892,69.4798,0.013362
99.924,69.4862,0.013362
99.955,69.4923,0.013409
99.986,69.4986,0.013409
100.017,69.5047,0.013409
100.048,69.5109,0.013409
100.079,69.5172,0.013409
100.110,69.5233,0.013409
100.141,69.5296,0.013409
100.172,69.5357,0.013409
100.203,69.5419,0.013418
100.233,69.5480,0.013418
100.264,69.5541,0.013418
100.295,69.5603,0.013418
100.326,69.5665,0.013418
100.357,69.5728,0.013418
100.390,69.5795,0.013418
100.420,69.5853,0.013418
100.452,69.5917,0.013428
100.483,69.5980,0.013428
100.514,69.6041,0.013428
100.545,69.6104,0.013428
100.577,69.6167,0.013428
100.608,69.6229,0.013428
100.638,69.6290,0.013428
100.669,69.6352,0.013428
100.700,69.6415,0.013456
100.732,69.6477,0.013456
100.763,69.6539,0.013456
100.794,69.6601,0.013456
100.824,69.6663,0.013456
100.856,69.6725,0.013456
100.886,69.6787,0.013456
100.918,69.6849,0.013456
100.949,69.6912,0.013456
100.981,69.6975,0.013456
101.013,69.7040,0.013437
101.044,69.7101,0.013437
101.075,69.7164,0.013437
101.106,69.7226,0.013437
101.137,69.7287,0.013437
101.168,69.7349,0.013437
101.198,69.7410,0.013437
101.229,69.7472,0.013437
101.259,69.7531,0.013437
101.291,69.7596,0.013409
101.323,69.7660,0.013409
101.354,69.7721,0.013409
101.385,69.7783,0.013409
101.416,69.7845,0.013409
101.448,69.7908,0.013409
101.478,69.7970,0.013409
101.509,69.8031,0.013409
101.540,69.8093,0.013409
101.571,69.8155,0.013409
101.603,69.8220,0.013409
101.634,69.8280,0.013409
101.665,69.8342,0.013409
101.695,69.8405,0.013409
101.727,69.8468,0.013409
101.758,69.8530,0.013409
101.790,69.8593,0.013409
101.819,69.8653,0.013409
101.851,69.8716,0.013409
101.883,69.8780,0.013409
101.912,69.8839,0.013409
101.943,69.8899,0.013409
101.974,69.8963,0.013409
102.006,69.9027,0.013390
102.036,69.9087,0.013390
102.068,69.9151,0.013390
102.098,69.9211,0.013390
102.130,69.9274,0.013390
102.162,69.9338,0.013390
102.194,69.9402,0.013390
102.224,69.9461,0.013390
102.256,69.9526,0.013371
102.286,69.9585,0.013371
102.318,69.9650,0.013371
102.349,69.9712,0.013371
102.379,69.9771,0.013371
102.410,69.9833,0.013371
102.441,69.9895,0.013371
102.472,69.9959,0.013371
102.504,70.0021,0.013362
102.535,70.0083,0.013362
102.566,70.0146,0.013362
102.597,70.0208,0.013362
102.628,70.0270,0.013362
102.660,70.0333,0.013362
102.691,70.0394,0.013362
102.722,70.0457,0.013362
102.752,70.0517,0.013362
102.783,70.0580,0.013362
102.814,70.0642,0.013362
102.844,70.0703,0.013362
102.876,70.0765,0.013362
102.907,70.0828,0.013362
102.938,70.0891,0.013362
102.970,70.0953,0.013362
103.000,70.1013,0.013400
103.030,70.1073,0.013400
103.061,70.1137,0.013400
103.092,70.1198,0.013400
103.123,70.1261,0.013400
103.155,70.1323,0.013400
103.187,70.1389,0.013400
103.219,70.1451,0.013400
103.250,70.1514,0.013409
103.281,70.1575,0.013409
103.312,70.1637,0.013409
103.342,70.1699,0.013409
103.375,70.1763,0.013409
103.404,70.1823,0.013409
103.436,70.1886,0.013409
103.467,70.1948,0.013409
103.498,70.2009,0.013418
103.529,70.2071,0.013418
103.560,70.2134,0.013418
103.590,70.2193,0.013418
103.622,70.2258,0.013418
103.653,70.2319,0.013418
103.684,70.2382,0.013418
103.715,70.2443,0.013447
103.747,70.2507,0.013447
103.778,70.2569,0.013447
103.809,70.2632,0.013447
103.840,70.2693,0.013447
103.871,70.2755,0.013447
103.902,70.2817,0.013447
103.933,70.2879,0.013447
103.964,70.2941,0.013428
103.995,70.3005,0.013428
104.027,70.3069,0.013428
104.058,70.3131,0.013428
104.088,70.3191,0.013428
104.120,70.3253,0.013428
104.151,70.3316,0.013428
104.183,70.3379,0.013428
104.214,70.3441,0.013447
104.245,70.3503,0.013447
104.277,70.3566,0.013447
104.308,70.3630,0.013447
104.339,70.3690,0.013447
104.370,70.3755,0.013447
104.401,70.3816,0.013447
104.433,70.3880,0.013447
104.464,70.3940,0.013466
104.495,70.4003,0.013466
104.526,70.4066,0.013466
104.556,70.4127,0.013466
104.588,70.4190,0.013466
104.618,70.4250,0.013466
104.649,70.4312,0.013466
104.680,70.4373,0.013466
104.711,70.4436,0.013428
104.743,70.4500,0.013428
104.773,70.4561,0.013428
104.805,70.4623,0.013428
104.837,70.4688,0.013428
104.868,70.4750,0.013428
104.900,70.4814,0.013428
104.932,70.4876,0.013428
104.963,70.4938,0.013390
104.994,70.5001,0.013390
105.025,70.5062,0.013390
105.056,70.5125,0.013390
105.087,70.5187,0.013390
105.118,70.5249,0.013390
105.149,70.5311,0.013390
105.181,70.5377,0.013390
105.214,70.5442,0.013371
105.244,70.5501,0.013371
105.275,70.5563,0.013371
105.306,70.5624,0.013371
105.337,70.5687,0.013371
105.367,70.5748,0.013371
105.398,70.5811,0.013371
105.430,70.5872,0.013371
105.460,70.5935,0.013437
105.492,70.5997,0.013437
105.523,70.6062,0.013437
105.555,70.6124,0.013437
105.587,70.6188,0.013437
105.618,70.6250,0.013437
105.650,70.6313,0.013437
105.680,70.6374,0.013437
105.711,70.6439,0.013437
105.743,70.6498,0.013456
105.773,70.6559,0.013456
105.804,70.6621,0.013456
105.836,70.6684,0.013456
105.867,70.6746,0.013456
105.899,70.6810,0.013456
105.928,70.6870,0.013456
105.960,70.6932,0.013400
105.990,70.6994,0.013400
106.021,70.7055,0.013400
106.052,70.7116,0.013400
106.083,70.7175,0.013400
106.114,70.7228,0.013400
106.146,70.7272,0.013400
106.176,70.7308,0.013400
106.208,70.7338,0.013447
106.239,70.7360,0.013447
106.270,70.7375,0.013447
106.299,70.7381,0.013447
106.330,70.7383,0.013447
106.361,70.7383,0.013447
106.392,70.7383,0.013447
106.424,70.7383,0.013447
106.456,70.7383,0.013513
106.487,70.7383,0.013513
106.517,70.7383,0.013513
106.548,70.7383,0.013513
106.578,70.7383,0.013513
106.610,70.7383,0.013513
106.641,70.7383,0.013513
106.672,70.7383,0.013513
106.703,70.7383,0.013456
106.733,70.7383,0.013456
106.765,70.7383,0.013456
106.795,70.7383,0.013456
106.828,70.7383,0.013456
106.857,70.7383,0.013456
106.888,70.7383,0.013456
106.919,70.7383,0.013456
106.951,70.7383,0.013456
106.982,70.7383,0.013381
107.014,70.7383,0.013381
107.046,70.7383,0.013381
107.076,70.7383,0.013381
107.107,70.7383,0.013381
107.137,70.7383,0.013381
107.168,70.7383,0.013381
107.200,70.7383,0.013381
107.231,70.7383,0.013353
107.262,70.7383,0.013353
107.292,70.7383,0.013353
107.324,70.7383,0.013353
107.355,70.7383,0.013353
107.386,70.7383,0.013353
107.417,70.7383,0.013353
107.450,70.7383,0.013353
107.479,70.7383,0.013390
107.510,70.7383,0.013390
107.542,70.7383,0.013390
107.573,70.7383,0.013390
107.604,70.7383,0.013390
107.635,70.7383,0.013390
107.666,70.7383,0.013390
107.696,70.7383,0.013390
107.727,70.7383,0.013447
107.759,70.7383,0.013447
107.790,70.7383,0.013447
107.821,70.7383,0.013447
107.852,70.7383,0.013447
107.883,70.7383,0.013447
107.914,70.7383,0.013447
107.946,70.7383,0.013447
107.977,70.7383,0.013447
108.008,70.7383,0.013437
108.038,70.7383,0.013437
108.069,70.7383,0.013437
108.100,70.7383,0.013437
108.132,70.7383,0.013437
108.163,70.7383,0.013437
108.193,70.7383,0.013437
108.225,70.7383,0.013381
108.256,70.7383,0.013381
108.287,70.7383,0.013381
108.318,70.7383,0.013381
108.350,70.7383,0.013381
108.380,70.7383,0.013381
108.411,70.7383,0.013381
108.442,70.7383,0.013381
108.472,70.7383,0.013381
108.505,70.7383,0.013390
108.534,70.7383,0.013390
108.564,70.7383,0.013390
108.596,70.7383,0.013390
108.626,70.7383,0.013390
108.658,70.7383,0.013390
108.688,70.7383,0.013390
108.719,70.7383,0.013362
108.751,70.7383,0.013362
108.782,70.7383,0.013362
108.813,70.7383,0.013362
108.845,70.7383,0.013362
108.875,70.7383,0.013362
108.906,70.7383,0.013362
108.937,70.7383,0.013362
108.969,70.7383,0.013343
108.999,70.7383,0.013343
109.030,70.7383,0.013343
109.061,70.7383,0.013343
109.092,70.7383,0.013343
109.124,70.7383,0.013343
109.154,70.7383,0.013343
109.185,70.7383,0.013343
109.216,70.7383,0.013437
109.248,70.7383,0.013437
109.279,70.7383,0.013437
109.310,70.7383,0.013437
109.342,70.7383,0.013437
109.373,70.7383,0.013437
109.404,70.7383,0.013437
109.434,70.7383,0.013437
109.465,70.7383,0.013437
109.496,70.7383,0.013418
109.527,70.7383,0.013418
109.558,70.7383,0.013418
109.590,70.7383,0.013418
109.621,70.7383,0.013418
109.651,70.7383,0.013418
109.682,70.7383,0.013418
109.714,70.7383,0.013418
109.745,70.7383,0.013400
109.777,70.7383,0.013400
109.808,70.7383,0.013400
109.838,70.7383,0.013400
109.870,70.7383,0.013400
109.900,70.7383,0.013400
109.931,70.7383,0.013400
109.962,70.7383,0.013400
109.993,70.7383,0.013371
110.024,70.7383,0.013371
110.055,70.7383,0.013371
110.086,70.7383,0.013371
110.117,70.7383,0.013371
110.150,70.7383,0.013371
110.180,70.7383,0.013371
110.210,70.7383,0.013371
110.241,70.7383,0.013362
110.271,70.7383,0.013362
110.301,70.7383,0.013362
110.333,70.7383,0.013362
110.364,70.7383,0.013362
110.395,70.7383,0.013362
110.426,70.7383,0.013362
110.456,70.7383,0.013362
110.487,70.7383,0.013400
110.519,70.7383,0.013400
110.550,70.7383,0.013400
110.582,70.7383,0.013400
110.612,70.7383,0.013400
110.643,70.7379,0.013400
110.674,70.7369,0.013400
110.704,70.7350,0.013400
110.736,70.7324,0.013390
110.767,70.7292,0.013390
110.798,70.7252,0.013390
110.829,70.7204,0.013390
110.860,70.7152,0.013390
110.892,70.7089,0.013390
110.922,70.7028,0.013390
110.954,70.6966,0.013447
110.983,70.6906,0.013447
111.014,70.6844,0.013447
111.044,70.6782,0.013447
111.075,70.6722,0.013447
111.106,70.6658,0.013447
111.137,70.6600,0.013447
111.168,70.6537,0.013447
111.198,70.6477,0.013447
111.228,70.6415,0.013475
111.260,70.6352,0.013475
111.290,70.6291,0.013475
111.321,70.6230,0.013475
111.352,70.6167,0.013475
111.384,70.6105,0.013475
111.415,70.6041,0.013475
111.447,70.5980,0.013390
111.479,70.5913,0.013390
111.510,70.5853,0.013390
111.541,70.5790,0.013390
111.572,70.5729,0.013390
111.603,70.5667,0.013390
111.634,70.5605,0.013390
111.665,70.5542,0.013390
111.696,70.5481,0.013390
111.727,70.5418,0.013390
111.757,70.5358,0.013390
111.790,70.5293,0.013353
111.820,70.5232,0.013353
111.850,70.5171,0.013353
111.881,70.5110,0.013353
111.912,70.5048,0.013353
111.943,70.4986,0.013353
111.974,70.4924,0.013353
112.006,70.4861,0.013400
112.038,70.4797,0.013400
112.068,70.4736,0.013400
112.099,70.4675,0.013400
112.131,70.4611,0.013400
112.162,70.4547,0.013400
112.194,70.4485,0.013400
112.225,70.4423,0.013400
112.256,70.4360,0.013409
112.287,70.4298,0.013409
112.318,70.4236,0.013409
112.348,70.4177,0.013409
112.379,70.4116,0.013409
112.410,70.4053,0.013409
112.441,70.3992,0.013409
112.472,70.3930,0.013409
112.504,70.3863,0.013418
112.534,70.3804,0.013418
112.565,70.3744,0.013418
112.596,70.3682,0.013418
112.627,70.3618,0.013418
112.659,70.3554,0.013418
112.690,70.3492,0.013418
112.721,70.3430,0.013418
112.752,70.3370,0.013428
112.783,70.3307,0.013428
112.814,70.3245,0.013428
112.845,70.3183,0.013428
112.875,70.3121,0.013428
112.907,70.3059,0.013428
112.937,70.2997,0.013428
112.969,70.2935,0.013428
113.001,70.2871,0.013381
113.033,70.2807,0.013381
113.064,70.2744,0.013381
113.094,70.2685,0.013381
113.125,70.2621,0.013381
113.156,70.2561,0.013381
113.189,70.2495,0.013381
113.218,70.2437,0.013381
113.250,70.2373,0.013353
113.279,70.2314,0.013353
113.309,70.2255,0.013353
113.340,70.2192,0.013353
113.371,70.2131,0.013353
113.402,70.2068,0.013353
113.434,70.2005,0.013353
113.464,70.1943,0.013353
113.496,70.1882,0.013362
113.526,70.1819,0.013362
113.558,70.1757,0.013362
113.588,70.1695,0.013362
113.619,70.1634,0.013362
113.651,70.1570,0.013362
113.683,70.1506,0.013362
113.714,70.1444,0.013381
113.746,70.1381,0.013381
113.777,70.1318,0.013381
113.808,70.1257,0.013381
113.838,70.1198,0.013381
113.870,70.1133,0.013381
113.901,70.1071,0.013381
113.932,70.1008,0.013381
113.963,70.0946,0.013381
113.994,70.0885,0.013418
114.024,70.0825,0.013418
114.055,70.0762,0.013418
114.086,70.0701,0.013418
114.117,70.0639,0.013418
114.148,70.0577,0.013418
114.179,70.0515,0.013418
114.210,70.0453,0.013437
114.241,70.0389,0.013437
114.272,70.0328,0.013437
114.303,70.0267,0.013437
114.334,70.0204,0.013437
114.365,70.0143,0.013437
114.395,70.0081,0.013437
114.427,70.0019,0.013437
114.458,69.9956,0.013437
114.490,69.9892,0.013437
114.522,69.9828,0.013362
114.553,69.9768,0.013362
114.583,69.9706,0.013362
114.614,69.9643,0.013362
114.644,69.9584,0.013362
114.675,69.9522,0.013362
114.706,69.9461,0.013362
114.738,69.9397,0.013324
114.769,69.9333,0.013324
114.801,69.9270,0.013324
114.832,69.9209,0.013324
114.863,69.9147,0.013324
114.894,69.9085,0.013324
114.927,69.9018,0.013324
114.956,69.8959,0.013324
114.988,69.8896,0.013409
115.018,69.8837,0.013409
115.048,69.8777,0.013409
115.080,69.8711,0.013409
115.111,69.8651,0.013409
115.141,69.8591,0.013409
115.171,69.8531,0.013409
115.204,69.8465,0.013409
115.234,69.8405,0.013475
115.266,69.8341,0.013475
115.297,69.8280,0.013475
115.329,69.8215,0.013475
115.359,69.8155,0.013475
115.391,69.8091,0.013475
115.421,69.8029,0.013475
115.453,69.7967,0.013447
115.485,69.7903,0.013447
115.517,69.7839,0.013447
115.548,69.7777,0.013447
115.580,69.7712,0.013447
115.610,69.7653,0.013447
115.642,69.7590,0.013447
115.672,69.7530,0.013447
115.703,69.7468,0.013447
115.733,69.7407,0.013390
115.764,69.7344,0.013390
115.798,69.7277,0.013390
115.827,69.7218,0.013390
115.859,69.7156,0.013390
115.890,69.7094,0.013390
115.921,69.7030,0.013390
115.953,69.6967,0.013390
115.983,69.6906,0.013400
116.014,69.6846,0.013400
116.045,69.6782,0.013400
116.076,69.6720,0.013400
116.108,69.6657,0.013400
116.140,69.6593,0.013400
116.170,69.6533,0.013400
116.201,69.6471,0.013400
116.233,69.6406,0.013456
116.262,69.6349,0.013456
116.293,69.6285,0.013456
116.323,69.6227,0.013456
116.354,69.6165,0.013456
116.385,69.6103,0.013456
116.416,69.6041,0.013456
116.447,69.5980,0.013400
116.477,69.5919,0.013400
116.508,69.5857,0.013400
116.539,69.5794,0.013400
116.571,69.5732,0.013400
116.603,69.5669,0.013400
116.634,69.5605,0.013400
116.665,69.5542,0.013400
116.695,69.5481,0.013400
116.727,69.5419,0.013390
116.757,69.5357,0.013390
116.788,69.5295,0.013390
116.819,69.5234,0.013390
116.851,69.5172,0.013390
116.882,69.5109,0.013390
116.913,69.5047,0.013390
116.943,69.4986,0.013390
116.974,69.4926,0.013390
117.007,69.4859,0.013400
117.037,69.4799,0.013400
117.068,69.4737,0.013400
117.100,69.4674,0.013400
117.131,69.4611,0.013400
117.161,69.4550,0.013400
117.192,69.4489,0.013400
117.223,69.4427,0.013400
117.253,69.4368,0.013409
117.284,69.4304,0.013409
117.316,69.4241,0.013409
117.346,69.4182,0.013409
117.377,69.4118,0.013409
117.408,69.4057,0.013409
117.439,69.3995,0.013409
117.470,69.3933,0.013409
117.502,69.3870,0.013418
117.533,69.3807,0.013418
117.565,69.3744,0.013418
117.595,69.3683,0.013418
117.626,69.3621,0.013418
117.657,69.3558,0.013418
117.688,69.3497,0.013418
117.719,69.3434,0.013409
117.750,69.3373,0.013409
117.781,69.3310,0.013409
117.812,69.3250,0.013409
117.844,69.3184,0.013409
117.875,69.3122,0.013409
117.907,69.3059,0.013409
117.938,69.2998,0.013409
117.970,69.2934,0.013456
118.000,69.2873,0.013456
118.031,69.2810,0.013456
118.062,69.2748,0.013456
118.093,69.2686,0.013456
118.124,69.2625,0.013456
118.155,69.2562,0.013456
118.186,69.2501,0.013456
118.217,69.2436,0.013418
118.249,69.2376,0.013418
118.280,69.2312,0.013418
118.311,69.2252,0.013418
118.342,69.2190,0.013418
118.373,69.2126,0.013418
118.404,69.2064,0.013418
118.435,69.2002,0.013418
118.466,69.1942,0.013390
118.497,69.1880,0.013390
118.528,69.1818,0.013390
118.559,69.1756,0.013390
118.590,69.1694,0.013390
118.621,69.1632,0.013390
118.652,69.1568,0.013390
118.684,69.1506,0.013390
118.715,69.1443,0.013390
118.745,69.1382,0.013353
118.777,69.1320,0.013353
118.808,69.1257,0.013353
118.839,69.1195,0.013353
118.870,69.1133,0.013353
118.901,69.1071,0.013353
118.932,69.1009,0.013353
118.963,69.0947,0.013409
118.994,69.0885,0.013409
119.025,69.0824,0.013409
119.055,69.0762,0.013409
119.087,69.0700,0.013409
119.118,69.0638,0.013409
119.149,69.0575,0.013409
119.180,69.0513,0.013409
119.211,69.0451,0.013409
119.241,69.0391,0.013494
119.272,69.0328,0.013494
119.304,69.0265,0.013494
119.335,69.0203,0.013494
119.366,69.0140,0.013494
119.397,69.0080,0.013494
119.428,69.0017,0.013494
119.458,68.9956,0.013494
119.489,68.9894,0.013494
119.521,68.9832,0.013475
119.551,68.9770,0.013475
119.583,68.9708,0.013475
119.614,68.9645,0.013475
119.645,68.9584,0.013475
119.676,68.9521,0.013475
119.707,68.9460,0.013475
119.738,68.9397,0.013437
119.769,68.9333,0.013437
119.800,68.9273,0.013437
119.831,68.9211,0.013437
119.862,68.9149,0.013437
119.894,68.9085,0.013437
119.926,68.9022,0.013437
119.957,68.8958,0.013418
119.989,68.8894,0.013418
120.020,68.8832,0.013418
120.051,68.8770,0.013418
120.082,68.8707,0.013418
120.113,68.8648,0.013418
120.144,68.8586,0.013418
120.176,68.8522,0.013418
120.207,68.8460,0.013418
120.237,68.8400,0.013409
120.268,68.8338,0.013409
120.299,68.8276,0.013409
120.330,68.8213,0.013409
120.361,68.8151,0.013409
120.392,68.8087,0.013409
120.424,68.8026,0.013409
120.455,68.7964,0.013409
120.486,68.7901,0.013381
120.518,68.7838,0.013381
120.549,68.7774,0.013381
120.580,68.7714,0.013381
120.611,68.7652,0.013381
120.641,68.7591,0.013381
120.673,68.7528,0.013381
120.704,68.7464,0.013381
120.735,68.7404,0.013418
120.766,68.7342,0.013418
120.799,68.7275,0.013418
120.828,68.7216,0.013418
120.859,68.7156,0.013418
120.891,68.7092,0.013418
120.922,68.7030,0.013418
120.953,68.6967,0.013418
120.984,68.6906,0.013381
121.014,68.6844,0.013381
121.046,68.6782,0.013381
121.076,68.6721,0.013381
121.108,68.6658,0.013381
121.139,68.6596,0.013381
121.170,68.6532,0.013381
121.202,68.6468,0.013381
121.232,68.6410,0.013381
121.262,68.6349,0.013381
121.294,68.6284,0.013381
121.324,68.6225,0.013381
121.356,68.6162,0.013381
121.387,68.6099,0.013381
121.418,68.6038,0.013381
121.449,68.5976,0.013381
121.480,68.5913,0.013494
121.510,68.5853,0.013494
121.541,68.5793,0.013494
121.573,68.5727,0.013494
121.604,68.5665,0.013494
121.634,68.5605,0.013494
121.665,68.5543,0.013494
121.696,68.5481,0.013484
121.727,68.5418,0.013484
121.759,68.5356,0.013484
121.790,68.5292,0.013484
121.822,68.5231,0.013484
121.853,68.5167,0.013484
121.884,68.5105,0.013484
121.916,68.5041,0.013484
121.947,68.4980,0.013484
121.979,68.4916,0.013418
122.009,68.4856,0.013418
122.041,68.4792,0.013418
122.072,68.4730,0.013418
122.103,68.4666,0.013418
122.134,68.4606,0.013418
122.166,68.4542,0.013418
122.197,68.4480,0.013418
122.228,68.4418,0.013409
122.258,68.4355,0.013409
122.289,68.4296,0.013409
122.320,68.4235,0.013409
122.351,68.4170,0.013409
122.382,68.4111,0.013409
122.412,68.4050,0.013409
122.442,68.3989,0.013409
122.473,68.3927,0.013362
122.505,68.3864,0.013362
122.536,68.3801,0.013362
122.567,68.3739,0.013362
122.598,68.3678,0.013362
122.630,68.3615,0.013362
122.661,68.3550,0.013362
122.692,68.3489,0.013362
122.723,68.3426,0.013390
122.753,68.3367,0.013390
122.785,68.3303,0.013390
122.815,68.3241,0.013390
122.846,68.3182,0.013390
122.878,68.3117,0.013390
122.908,68.3058,0.013390
122.938,68.2996,0.013390
122.971,68.2931,0.013400
123.001,68.2869,0.013400
123.033,68.2806,0.013400
123.065,68.2743,0.013400
123.096,68.2682,0.013400
123.127,68.2618,0.013400
123.158,68.2558,0.013400
123.189,68.2496,0.013400
123.221,68.2432,0.013400
123.252,68.2370,0.013400
123.283,68.2306,0.013400
123.314,68.2245,0.013400
123.345,68.2183,0.013400
123.376,68.2120,0.013400
123.407,68.2061,0.013400
123.439,68.1995,0.013475
123.468,68.1937,0.013475
123.500,68.1873,0.013475
123.531,68.1811,0.013475
123.562,68.1749,0.013475
123.592,68.1690,0.013475
123.622,68.1628,0.013475
123.653,68.1567,0.013475
123.685,68.1503,0.013475
123.716,68.1441,0.013475
123.750,68.1372,0.013428
123.780,68.1314,0.013428
123.811,68.1252,0.013428
123.842,68.1190,0.013428
123.874,68.1126,0.013428
123.903,68.1066,0.013428
123.934,68.1006,0.013428
123.965,68.0943,0.013428
123.996,68.0881,0.013371
124.028,68.0818,0.013371
124.059,68.0756,0.013371
124.090,68.0693,0.013371
124.122,68.0629,0.013371
124.152,68.0569,0.013371
124.184,68.0505,0.013371
124.214,68.0445,0.013371
124.247,68.0379,0.013409
124.277,68.0319,0.013409
124.308,68.0257,0.013409
124.340,68.0195,0.013409
124.370,68.0131,0.013409
124.401,68.0071,0.013409
124.433,68.0008,0.013409
124.465,67.9941,0.013409
124.497,67.9879,0.013409
124.527,67.9818,0.013409
124.558,67.9758,0.013409
124.589,67.9694,0.013409
124.620,67.9632,0.013409
124.650,67.9572,0.013409
124.681,67.9512,0.013409
124.712,67.9451,0.013390
124.743,67.9387,0.013390
124.775,67.9321,0.013390
124.805,67.9261,0.013390
124.836,67.9201,0.013390
124.867,67.9139,0.013390
124.899,67.9075,0.013390
124.929,67.9016,0.013390
124.960,67.8953,0.013400
124.994,67.8884,0.013400
125.026,67.8821,0.013400
125.055,67.8763,0.013400
125.085,67.8703,0.013400
125.116,67.8643,0.013400
125.148,67.8577,0.013400
125.178,67.8517,0.013400
125.209,67.8454,0.013418
125.240,67.8392,0.013418
125.271,67.8331,0.013418
125.302,67.8271,0.013418
125.333,67.8206,0.013418
125.365,67.8144,0.013418
125.396,67.8080,0.013418
125.428,67.8019,0.013418
125.459,67.7956,0.013418
125.490,67.7895,0.013418
125.521,67.7831,0.013418
125.552,67.7768,0.013418
125.583,67.7709,0.013418
125.614,67.7644,0.013418
125.646,67.7581,0.013418
125.676,67.7521,0.013418
125.708,67.7458,0.013418
125.739,67.7396,0.013428
125.772,67.7329,0.013428
125.802,67.7271,0.013428
125.833,67.7206,0.013428
125.865,67.7144,0.013428
125.896,67.7086,0.013428
125.926,67.7037,0.013428
125.957,67.6992,0.013428
125.988,67.6956,0.013400
126.019,67.6927,0.013400
126.050,67.6905,0.013400
126.081,67.6891,0.013400
126.112,67.6884,0.013400
126.143,67.6883,0.013400
126.174,67.6883,0.013400
126.205,67.6883,0.013400
126.236,67.6883,0.013334
126.267,67.6883,0.013334
126.298,67.6883,0.013334
126.329,67.6883,0.013334
126.361,67.6883,0.013334
126.393,67.6883,0.013334
126.425,67.6883,0.013334
126.456,67.6883,0.013334
126.487,67.6883,0.013371
126.518,67.6883,0.013371
126.549,67.6883,0.013371
126.579,67.6883,0.013371
126.611,67.6883,0.013371
126.642,67.6885,0.013371
126.673,67.6896,0.013371
126.704,67.6914,0.013371
126.735,67.6939,0.013371
126.764,67.6970,0.013428
126.796,67.7008,0.013428
126.827,67.7055,0.013428
126.858,67.7108,0.013428
126.889,67.7170,0.013428
126.921,67.7231,0.013428
126.951,67.7294,0.013428
126.983,67.7356,0.013324
127.015,67.7423,0.013324
127.046,67.7483,0.013324
127.077,67.7545,0.013324
127.108,67.7606,0.013324
127.139,67.7668,0.013324
127.170,67.7731,0.013324
127.200,67.7792,0.013324
127.232,67.7856,0.013324
127.263,67.7917,0.013306
127.294,67.7979,0.013306
127.324,67.8037,0.013306
127.355,67.8101,0.013306
127.386,67.8164,0.013306
127.417,67.8223,0.013306
127.448,67.8287,0.013306
127.480,67.8350,0.013381
127.511,67.8413,0.013381
127.543,67.8475,0.013381
127.575,67.8540,0.013381
127.606,67.8602,0.013381
127.638,67.8667,0.013381
127.669,67.8728,0.013381
127.700,67.8791,0.013381
127.731,67.8852,0.013390
127.762,67.8914,0.013390
127.793,67.8979,0.013390
127.823,67.9037,0.013390
127.854,67.9099,0.013390
127.886,67.9164,0.013390
127.917,67.9224,0.013390
127.948,67.9286,0.013390
127.978,67.9347,0.013353
128.010,67.9412,0.013353
128.041,67.9472,0.013353
128.071,67.9533,0.013353
128.102,67.9595,0.013353
128.134,67.9660,0.013353
128.166,67.9722,0.013353
128.197,67.9785,0.013353
128.228,67.9847,0.013343
128.259,67.9909,0.013343
128.290,67.9970,0.013343
128.321,68.0032,0.013343
128.352,68.0094,0.013343
128.382,68.0156,0.013343
128.413,68.0218,0.013343
128.445,68.0280,0.013343
128.478,68.0347,0.013381
128.507,68.0405,0.013381
128.539,68.0469,0.013381
128.569,68.0528,0.013381
128.599,68.0591,0.013381
128.631,68.0653,0.013381
128.662,68.0715,0.013381
128.693,68.0777,0.013381
128.724,68.0838,0.013409
128.755,68.0900,0.013409
128.785,68.0961,0.013409
128.817,68.1025,0.013409
128.847,68.1085,0.013409
128.878,68.1148,0.013409
128.908,68.1205,0.013409
128.941,68.1272,0.013409
128.972,68.1336,0.013466
129.003,68.1397,0.013466
129.034,68.1458,0.013466
129.064,68.1519,0.013466
129.095,68.1579,0.013466
129.125,68.1643,0.013466
129.157,68.1705,0.013466
129.189,68.1768,0.013466
129.219,68.1830,0.013418
129.250,68.1892,0.013418
129.281,68.1953,0.013418
129.313,68.2017,0.013418
129.345,68.2079,0.013418
129.375,68.2143,0.013418
129.406,68.2202,0.013418
129.437,68.2267,0.013418
129.468,68.2326,0.013409
129.499,68.2389,0.013409
129.531,68.2451,0.013409
129.562,68.2515,0.013409
129.592,68.2575,0.013409
129.623,68.2637,0.013409
129.655,68.2699,0.013409
129.686,68.2763,0.013447
129.716,68.2825,0.013447
129.748,68.2887,0.013447
129.779,68.2949,0.013447
129.811,68.3012,0.013447
129.841,68.3074,0.013447
129.873,68.3136,0.013447
129.903,68.3197,0.013447
129.935,68.3261,0.013447
129.966,68.3322,0.013456
129.998,68.3387,0.013456
130.028,68.3449,0.013456
130.060,68.3511,0.013456
130.090,68.3571,0.013456
130.121,68.3633,0.013456
130.153,68.3698,0.013456
130.183,68.3756,0.013456
130.215,68.3822,0.013456
130.246,68.3884,0.013456
130.277,68.3945,0.013456
130.309,68.4008,0.013456
130.341,68.4074,0.013456
130.372,68.4133,0.013456
130.403,68.4198,0.013456
130.435,68.4260,0.013409
130.466,68.4322,0.013409
130.497,68.4384,0.013409
130.527,68.4444,0.013409
130.559,68.4508,0.013409
130.590,68.4571,0.013409
130.620,68.4629,0.013409
130.651,68.4692,0.013409
130.682,68.4754,0.013409
130.713,68.4816,0.013400
130.745,68.4880,0.013400
130.775,68.4942,0.013400
130.806,68.5003,0.013400
130.838,68.5066,0.013400
130.869,68.5129,0.013400
130.900,68.5190,0.013400
130.930,68.5251,0.013400
130.962,68.5314,0.013400
130.992,68.5375,0.013437
131.024,68.5439,0.013437
131.055,68.5500,0.013437
131.086,68.5563,0.013437
131.117,68.5624,0.013437
131.149,68.5688,0.013437
131.181,68.5753,0.013437
131.210,68.5812,0.013437
131.242,68.5874,0.013371
131.273,68.5938,0.013371
131.304,68.5997,0.013371
131.335,68.6062,0.013371
131.366,68.6121,0.013371
131.398,68.6187,0.013371
131.429,68.6249,0.013371
131.460,68.6311,0.013362
131.492,68.6373,0.013362
131.523,68.6435,0.013362
131.553,68.6498,0.013362
131.584,68.6559,0.013362
131.615,68.6620,0.013362
131.649,68.6688,0.013362
131.677,68.6745,0.013362
131.708,68.6806,0.013428
131.738,68.6867,0.013428
131.770,68.6930,0.013428
131.801,68.6992,0.013428
131.833,68.7056,0.013428
131.864,68.7118,0.013428
131.895,68.7180,0.013428
131.926,68.7244,0.013428
131.958,68.7306,0.013409
131.989,68.7368,0.013409
132.019,68.7430,0.013409
132.050,68.7490,0.013409
132.082,68.7554,0.013409
132.113,68.7617,0.013409
132.144,68.7678,0.013409
132.175,68.7741,0.013409
132.208,68.7807,0.013409
132.237,68.7865,0.013409
132.267,68.7925,0.013409
132.299,68.7989,0.013409
132.330,68.8051,0.013409
132.361,68.8113,0.013409
132.392,68.8174,0.013409
132.423,68.8237,0.013409
132.454,68.8298,0.013437
132.485,68.8362,0.013437
132.517,68.8423,0.013437
132.548,68.8486,0.013437
132.578,68.8547,0.013437
132.610,68.8610,0.013437
132.641,68.8671,0.013437
132.672,68.8733,0.013437
132.702,68.8795,0.013428
132.734,68.8857,0.013428
132.767,68.8924,0.013428
132.795,68.8980,0.013428
132.826,68.9044,0.013428
132.857,68.9105,0.013428
132.887,68.9167,0.013428
132.919,68.9229,0.013428
132.951,68.9292,0.013400
132.983,68.9357,0.013400
133.013,68.9418,0.013400
133.045,68.9481,0.013400
133.077,68.9544,0.013400
133.109,68.9608,0.013400
133.140,68.9672,0.013400
133.171,68.9733,0.013400
133.202,68.9795,0.013381
133.233,68.9857,0.013381
133.264,68.9919,0.013381
133.295,68.9981,0.013381
133.326,69.0042,0.013381
133.356,69.0104,0.013381
133.387,69.0163,0.013381
133.417,69.0225,0.013381
133.448,69.0286,0.013353
133.479,69.0349,0.013353
133.510,69.0412,0.013353
133.542,69.0473,0.013353
133.573,69.0536,0.013353
133.605,69.0600,0.013353
133.634,69.0658,0.013353
133.666,69.0724,0.013353
133.697,69.0785,0.013409
133.729,69.0849,0.013409
133.759,69.0909,0.013409
133.790,69.0971,0.013409
133.821,69.1033,0.013409
133.851,69.1093,0.013409
133.882,69.1155,0.013409
133.914,69.1219,0.013409
133.945,69.1281,0.013409
133.977,69.1344,0.013428
134.007,69.1406,0.013428
134.039,69.1468,0.013428
134.070,69.1532,0.013428
134.101,69.1593,0.013428
134.133,69.1655,0.013428
134.164,69.1718,0.013428
134.195,69.1780,0.013428
134.226,69.1844,0.013390
134.257,69.1904,0.013390
134.288,69.1968,0.013390
134.319,69.2028,0.013390
134.350,69.2094,0.013390
134.383,69.2156,0.013390
134.413,69.2216,0.013390
134.444,69.2279,0.013390
134.475,69.2341,0.013371
134.507,69.2403,0.013371
134.537,69.2464,0.013371
134.568,69.2526,0.013371
134.600,69.2589,0.013371
134.631,69.2652,0.013371
134.663,69.2714,0.013371
134.694,69.2778,0.013371
134.725,69.2840,0.013324
134.757,69.2904,0.013324
134.787,69.2965,0.013324
134.818,69.3026,0.013324
134.849,69.3088,0.013324
134.879,69.3148,0.013324
134.910,69.3212,0.013324
134.941,69.3274,0.013324
134.972,69.3334,0.013324
135.003,69.3398,0.013353
135.035,69.3460,0.013353
135.066,69.3523,0.013353
135.097,69.3584,0.013353
135.128,69.3646,0.013353
135.160,69.3709,0.013353
135.190,69.3771,0.013353
135.222,69.3833,0.013428
135.253,69.3897,0.013428
135.285,69.3961,0.013428
135.316,69.4022,0.013428
135.347,69.4085,0.013428
135.378,69.4148,0.013428
135.410,69.4209,0.013428
135.440,69.4272,0.013428
135.472,69.4333,0.013456
135.504,69.4397,0.013456
135.534,69.4459,0.013456
135.566,69.4521,0.013456
135.597,69.4585,0.013456
135.628,69.4647,0.013456
135.659,69.4710,0.013456
135.691,69.4772,0.013456
135.722,69.4835,0.013418
135.752,69.4896,0.013418
135.783,69.4957,0.013418
135.814,69.5017,0.013418
135.845,69.5079,0.013418
135.876,69.5143,0.013418
135.907,69.5203,0.013418
135.937,69.5263,0.013418
135.968,69.5325,0.013334
135.998,69.5386,0.013334
136.029,69.5449,0.013334
136.060,69.5511,0.013334
136.091,69.5573,0.013334
136.123,69.5635,0.013334
136.154,69.5697,0.013334
136.185,69.5762,0.013334
136.217,69.5822,0.013343
136.248,69.5886,0.013343
136.279,69.5949,0.013343
136.311,69.6011,0.013343
136.342,69.6075,0.013343
136.373,69.6137,0.013343
136.404,69.6197,0.013343
136.434,69.6259,0.013343
136.465,69.6320,0.013381
136.496,69.6384,0.013381
136.528,69.6445,0.013381
136.558,69.6508,0.013381
136.590,69.6569,0.013381
136.622,69.6635,0.013381
136.651,69.6693,0.013381
136.682,69.6755,0.013381
136.714,69.6817,0.013400
136.744,69.6880,0.013400
136.776,69.6942,0.013400
136.808,69.7007,0.013400
136.839,69.7069,0.013400
136.871,69.7133,0.013400
136.902,69.7193,0.013400
136.933,69.7257,0.013400
136.966,69.7322,0.013390
136.995,69.7380,0.013390
137.026,69.7442,0.013390
137.057,69.7505,0.013390
137.088,69.7567,0.013390
137.119,69.7627,0.013390
137.149,69.7689,0.013390
137.182,69.7753,0.013390
137.212,69.7814,0.013390
137.242,69.7876,0.013381
137.274,69.7937,0.013381
137.305,69.8000,0.013381
137.336,69.8062,0.013381
137.367,69.8124,0.013381
137.398,69.8185,0.013381
137.429,69.8247,0.013381
137.460,69.8309,0.013418
137.490,69.8371,0.013418
137.521,69.8432,0.013418
137.552,69.8493,0.013418
137.583,69.8556,0.013418
137.614,69.8620,0.013418
137.644,69.8679,0.013418
137.675,69.8739,0.013418
137.707,69.8804,0.013418
137.738,69.8867,0.013418
137.768,69.8928,0.013353
137.799,69.8989,0.013353
137.830,69.9051,0.013353
137.862,69.9114,0.013353
137.893,69.9177,0.013353
137.923,69.9237,0.013353
137.955,69.9300,0.013353
137.986,69.9362,0.013390
138.018,69.9425,0.013390
138.049,69.9488,0.013390
138.081,69.9552,0.013390
138.112,69.9614,0.013390
138.143,69.9675,0.013390
138.173,69.9737,0.013390
138.205,69.9800,0.013390
138.236,69.9862,0.013428
138.268,69.9926,0.013428
138.299,69.9988,0.013428
138.331,70.0053,0.013428
138.362,70.0112,0.013428
138.393,70.0178,0.013428
138.424,70.0239,0.013428
138.455,70.0302,0.013428
138.487,70.0363,0.013409
138.518,70.0426,0.013409
138.549,70.0489,0.013409
138.579,70.0550,0.013409
138.611,70.0612,0.013409
138.643,70.0677,0.013409
138.675,70.0739,0.013409
138.706,70.0803,0.013409
138.737,70.0863,0.013390
138.768,70.0926,0.013390
138.799,70.0987,0.013390
138.829,70.1049,0.013390
138.860,70.1111,0.013390
138.891,70.1173,0.013390
138.922,70.1233,0.013390
138.953,70.1294,0.013362
138.984,70.1359,0.013362
139.015,70.1420,0.013362
139.045,70.1480,0.013362
139.076,70.1542,0.013362
139.108,70.1606,0.013362
139.140,70.1671,0.013362
139.170,70.1730,0.013362
139.200,70.1790,0.013362
139.231,70.1851,0.013362
139.262,70.1914,0.013371
139.293,70.1975,0.013371
139.324,70.2037,0.013371
139.355,70.2100,0.013371
139.386,70.2162,0.013371
139.416,70.2223,0.013371
139.447,70.2284,0.013371
139.479,70.2348,0.013371
139.509,70.2408,0.013390
139.541,70.2472,0.013390
139.572,70.2533,0.013390
139.604,70.2598,0.013390
139.635,70.2660,0.013390
139.666,70.2723,0.013390
139.697,70.2784,0.013390
139.727,70.2845,0.013390
139.758,70.2907,0.013437
139.790,70.2969,0.013437
139.820,70.3032,0.013437
139.851,70.3091,0.013437
139.881,70.3152,0.013437
139.912,70.3214,0.013437
139.943,70.3275,0.013437
139.974,70.3337,0.013437
140.005,70.3399,0.013400
140.035,70.3460,0.013400
140.067,70.3523,0.013400
140.098,70.3585,0.013400
140.130,70.3648,0.013400
140.160,70.3711,0.013400
140.192,70.3773,0.013400
140.223,70.3835,0.013400
140.253,70.3895,0.013362
140.284,70.3958,0.013362
140.316,70.4023,0.013362
140.346,70.4081,0.013362
140.377,70.4144,0.013362
140.408,70.4205,0.013362
140.438,70.4267,0.013362
140.469,70.4328,0.013362
140.502,70.4392,0.013381
140.531,70.4453,0.013381
140.562,70.4516,0.013381
140.594,70.4577,0.013381
140.626,70.4643,0.013381
140.657,70.4704,0.013381
140.688,70.4767,0.013381
140.720,70.4830,0.013381
140.751,70.4891,0.013362
140.781,70.4952,0.013362
140.812,70.5014,0.013362
140.845,70.5079,0.013362
140.876,70.5140,0.013362
140.907,70.5205,0.013362
140.939,70.5269,0.013362
140.969,70.5329,0.013362
141.000,70.5391,0.013371
141.031,70.5450,0.013371
141.063,70.5515,0.013371
141.093,70.5576,0.013371
141.124,70.5639,0.013371
141.156,70.5702,0.013371
141.188,70.5767,0.013371
141.220,70.5829,0.013371
141.250,70.5892,0.013418
141.281,70.5951,0.013418
141.311,70.6013,0.013418
141.343,70.6075,0.013418
141.374,70.6137,0.013418
141.404,70.6198,0.013418
141.436,70.6261,0.013418
141.466,70.6322,0.013447
141.497,70.6383,0.013447
141.528,70.6446,0.013447
141.559,70.6507,0.013447
141.590,70.6570,0.013447
141.622,70.6633,0.013447
141.652,70.6687,0.013447
141.682,70.6736,0.013447
141.713,70.6779,0.013447
141.744,70.6815,0.013390
141.775,70.6842,0.013390
141.806,70.6863,0.013390
141.837,70.6877,0.013390
141.869,70.6883,0.013390
141.900,70.6883,0.013390
141.932,70.6883,0.013390
141.962,70.6883,0.013400
141.993,70.6883,0.013400
142.024,70.6883,0.013400
142.056,70.6883,0.013400
142.088,70.6883,0.013400
142.118,70.6883,0.013400
142.149,70.6883,0.013400
142.179,70.6883,0.013400
142.210,70.6883,0.013466
142.241,70.6883,0.013466
142.273,70.6883,0.013466
142.305,70.6883,0.013466
142.335,70.6883,0.013466
142.367,70.6883,0.013466
142.397,70.6883,0.013466
142.429,70.6883,0.013466
142.460,70.6883,0.013400
142.491,70.6883,0.013400
142.522,70.6883,0.013400
142.553,70.6883,0.013400
142.585,70.6883,0.013400
142.616,70.6883,0.013400
142.647,70.6883,0.013400
142.678,70.6883,0.013400
142.709,70.6883,0.013400
142.739,70.6883,0.013334
142.769,70.6883,0.013334
142.800,70.6883,0.013334
142.832,70.6883,0.013334
142.863,70.6883,0.013334
142.895,70.6883,0.013334
142.926,70.6883,0.013334
142.958,70.6883,0.013362
142.989,70.6883,0.013362
143.020,70.6883,0.013362
143.053,70.6883,0.013362
143.083,70.6883,0.013362
143.113,70.6883,0.013362
143.145,70.6883,0.013362
143.176,70.6883,0.013362
143.207,70.6883,0.013362
143.239,70.6883,0.013418
143.270,70.6883,0.013418
143.301,70.6883,0.013418
143.332,70.6883,0.013418
143.363,70.6883,0.013418
143.394,70.6883,0.013418
143.426,70.6883,0.013418
143.457,70.6883,0.013400
143.488,70.6883,0.013400
143.518,70.6883,0.013400
143.549,70.6883,0.013400
143.579,70.6883,0.013400
143.611,70.6883,0.013400
143.643,70.6883,0.013400
143.673,70.6883,0.013400
143.705,70.6883,0.013306
143.737,70.6883,0.013306
143.768,70.6883,0.013306
143.799,70.6883,0.013306
143.830,70.6883,0.013306
143.861,70.6883,0.013306
143.892,70.6883,0.013306
143.923,70.6883,0.013306
143.955,70.6883,0.013334
143.985,70.6883,0.013334
144.017,70.6883,0.013334
144.048,70.6883,0.013334
144.079,70.6883,0.013334
144.110,70.6883,0.013334
144.141,70.6883,0.013334
144.173,70.6883,0.013334
144.203,70.6883,0.013362
144.234,70.6883,0.013362
144.265,70.6883,0.013362
144.296,70.6883,0.013362
144.328,70.6883,0.013362
144.359,70.6883,0.013362
144.391,70.6883,0.013362
144.421,70.6883,0.013362
144.452,70.6883,0.013343
144.483,70.6883,0.013343
144.514,70.6883,0.013343
144.545,70.6883,0.013343
144.577,70.6883,0.013343
144.608,70.6883,0.013343
144.639,70.6883,0.013343
144.670,70.6883,0.013343
144.702,70.6883,0.013400
144.734,70.6883,0.013400
144.764,70.6883,0.013400
144.795,70.6883,0.013400
144.825,70.6883,0.013400
144.857,70.6883,0.013400
144.887,70.6883,0.013400
144.918,70.6883,0.013400
144.949,70.6883,0.013400
144.980,70.6883,0.013390
145.011,70.6883,0.013390
145.041,70.6883,0.013390
145.073,70.6883,0.013390
145.103,70.6883,0.013390
145.134,70.6883,0.013390
145.166,70.6883,0.013390
145.197,70.6883,0.013381
145.228,70.6883,0.013381
145.259,70.6883,0.013381
145.290,70.6883,0.013381
145.322,70.6883,0.013381
145.353,70.6883,0.013381
145.384,70.6883,0.013381
145.415,70.6883,0.013381
145.445,70.6883,0.013381
145.476,70.6883,0.013390
145.507,70.6883,0.013390
145.537,70.6883,0.013390
145.569,70.6883,0.013390
145.600,70.6883,0.013390
145.632,70.6883,0.013390
145.663,70.6883,0.013390
145.695,70.6883,0.013390
145.725,70.6883,0.013381
145.755,70.6883,0.013381
145.787,70.6883,0.013381
145.818,70.6883,0.013381
145.849,70.6883,0.013381
145.880,70.6883,0.013381
145.911,70.6883,0.013381
145.942,70.6883,0.013381
145.973,70.6883,0.013400
146.005,70.6883,0.013400
146.036,70.6883,0.013400
146.066,70.6883,0.013400
146.097,70.6883,0.013400
146.129,70.6883,0.013400
146.161,70.6883,0.013400
146.192,70.6883,0.013400
146.223,70.6883,0.013418
146.254,70.6880,0.013418
146.286,70.6870,0.013418
146.317,70.6854,0.013418
146.348,70.6831,0.013418
146.379,70.6798,0.013418
146.410,70.6761,0.013418
146.440,70.6715,0.013456
146.471,70.6662,0.013456
146.502,70.6604,0.013456
146.534,70.6540,0.013456
146.564,70.6478,0.013456
146.596,70.6415,0.013456
146.626,70.6356,0.013456
146.657,70.6292,0.013456
146.688,70.6233,0.013456
146.719,70.6170,0.013484
146.750,70.6108,0.013484
146.782,70.6042,0.013484
146.813,70.5981,0.013484
146.844,70.5919,0.013484
146.875,70.5858,0.013484
146.905,70.5796,0.013484
146.937,70.5733,0.013418
146.968,70.5671,0.013418
146.999,70.5609,0.013418
147.030,70.5547,0.013418
147.061,70.5486,0.013418
147.092,70.5424,0.013418
147.123,70.5361,0.013418
147.154,70.5299,0.013418
147.185,70.5238,0.013418
147.217,70.5174,0.013418
147.247,70.5114,0.013409
147.279,70.5050,0.013409
147.310,70.4989,0.013409
147.341,70.4926,0.013409
147.372,70.4864,0.013409
147.403,70.4800,0.013409
147.435,70.4738,0.013409
147.466,70.4676,0.013371
147.496,70.4616,0.013371
147.528,70.4552,0.013371
147.559,70.4488,0.013371
147.591,70.4427,0.013371
147.622,70.4364,0.013371
147.656,70.4294,0.013371
147.684,70.4240,0.013371
147.715,70.4175,0.013296
147.746,70.4115,0.013296
147.778,70.4050,0.013296
147.809,70.3989,0.013296
147.840,70.3926,0.013296
147.871,70.3865,0.013296
147.902,70.3802,0.013296
147.933,70.3741,0.013296
147.963,70.3679,0.013334
147.995,70.3618,0.013334
148.026,70.3556,0.013334
148.056,70.3496,0.013334
148.086,70.3435,0.013334
148.118,70.3372,0.013334
148.149,70.3310,0.013334
148.180,70.3248,0.013334
148.211,70.3187,0.013334
148.243,70.3120,0.013334
148.273,70.3060,0.013334
148.305,70.2998,0.013334
148.336,70.2935,0.013334
148.367,70.2874,0.013334
148.398,70.2811,0.013334
148.429,70.2749,0.013334
148.460,70.2687,0.013334
148.492,70.2624,0.013334
148.523,70.2562,0.013334
148.554,70.2501,0.013334
148.585,70.2438,0.013334
148.617,70.2373,0.013334
148.649,70.2310,0.013334
148.681,70.2246,0.013334
148.712,70.2183,0.013390
148.743,70.2121,0.013390
148.774,70.2057,0.013390
148.805,70.1997,0.013390
148.837,70.1933,0.013390
148.868,70.1872,0.013390
148.899,70.1810,0.013390
148.929,70.1749,0.013390
148.961,70.1684,0.013353
148.992,70.1623,0.013353
149.024,70.1561,0.013353
149.055,70.1496,0.013353
149.087,70.1434,0.013353
149.117,70.1374,0.013353
149.147,70.1313,0.013353
149.179,70.1250,0.013353
149.211,70.1186,0.013343
149.242,70.1124,0.013343
149.272,70.1061,0.013343
149.303,70.1002,0.013343
149.335,70.0937,0.013343
149.364,70.0879,0.013343
149.395,70.0817,0.013343
149.426,70.0756,0.013343
149.457,70.0693,0.013343
149.488,70.0632,0.013400
149.519,70.0569,0.013400
149.550,70.0508,0.013400
149.581,70.0447,0.013400
149.612,70.0384,0.013400
149.644,70.0319,0.013400
149.674,70.0259,0.013400
149.706,70.0195,0.013400
149.737,70.0135,0.013371
149.768,70.0073,0.013371
149.799,70.0011,0.013371
149.831,69.9945,0.013371
149.861,69.9883,0.013371
149.892,69.9822,0.013371
149.924,69.9760,0.013371
149.955,69.9697,0.013371
149.986,69.9636,0.013324
150.017,69.9573,0.013324
150.048,69.9511,0.013324
150.080,69.9446,0.013324
150.110,69.9387,0.013324
150.142,69.9322,0.013324
150.173,69.9262,0.013324
150.204,69.9199,0.013324
150.235,69.9137,0.013371
150.267,69.9074,0.013371
150.297,69.9013,0.013371
150.328,69.8951,0.013371
150.359,69.8891,0.013371
150.390,69.8829,0.013371
150.421,69.8765,0.013371
150.452,69.8703,0.013371
150.483,69.8641,0.013362
150.513,69.8581,0.013362
150.544,69.8520,0.013362
150.575,69.8458,0.013362
150.605,69.8398,0.013362
150.637,69.8335,0.013362
150.667,69.8273,0.013362
150.698,69.8211,0.013353
150.730,69.8149,0.013353
150.761,69.8087,0.013353
150.793,69.8021,0.013353
150.825,69.7959,0.013353
150.856,69.7897,0.013353
150.886,69.7835,0.013353
150.917,69.7773,0.013353
150.948,69.7711,0.013353
150.978,69.7652,0.013428
151.009,69.7588,0.013428
151.041,69.7526,0.013428
151.072,69.7464,0.013428
151.103,69.7402,0.013428
151.133,69.7342,0.013428
151.164,69.7280,0.013428
151.195,69.7218,0.013428
151.227,69.7153,0.013362
151.258,69.7092,0.013362
151.288,69.7032,0.013362
151.319,69.6968,0.013362
151.351,69.6906,0.013362
151.382,69.6844,0.013362
151.412,69.6784,0.013362
151.443,69.6723,0.013362
151.474,69.6659,0.013324
151.505,69.6597,0.013324
151.536,69.6535,0.013324
151.567,69.6475,0.013324
151.599,69.6409,0.013324
151.630,69.6347,0.013324
151.662,69.6282,0.013324
151.694,69.6220,0.013400
151.725,69.6157,0.013400
151.755,69.6098,0.013400
151.787,69.6033,0.013400
151.818,69.5972,0.013400
151.849,69.5910,0.013400
151.880,69.5848,0.013400
151.910,69.5788,0.013400
151.941,69.5726,0.013400
151.972,69.5665,0.013400
152.003,69.5602,0.013353
152.034,69.5541,0.013353
152.065,69.5476,0.013353
152.095,69.5418,0.013353
152.127,69.5354,0.013353
152.158,69.5293,0.013353
152.189,69.5228,0.013353
152.220,69.5167,0.013343
152.251,69.5104,0.013343
152.283,69.5042,0.013343
152.315,69.4976,0.013343
152.346,69.4916,0.013343
152.377,69.4854,0.013343
152.408,69.4792,0.013343
152.440,69.4728,0.013343
152.471,69.4666,0.013371
152.501,69.4606,0.013371
152.531,69.4546,0.013371
152.562,69.4483,0.013371
152.593,69.4422,0.013371
152.624,69.4359,0.013371
152.654,69.4299,0.013371
152.685,69.4237,0.013371
152.717,69.4175,0.013353
152.747,69.4112,0.013353
152.779,69.4050,0.013353
152.811,69.3986,0.013353
152.843,69.3922,0.013353
152.874,69.3860,0.013353
152.905,69.3798,0.013353
152.936,69.3735,0.013353
152.967,69.3674,0.013381
152.998,69.3612,0.013381
153.030,69.3549,0.013381
153.061,69.3487,0.013381
153.092,69.3422,0.013381
153.124,69.3359,0.013381
153.154,69.3298,0.013381
153.186,69.3236,0.013381
153.216,69.3176,0.013381
153.247,69.3114,0.013390
153.278,69.3050,0.013390
153.310,69.2988,0.013390
153.341,69.2925,0.013390
153.372,69.2863,0.013390
153.403,69.2800,0.013390
153.436,69.2737,0.013390
153.468,69.2672,0.013343
153.498,69.2611,0.013343
153.529,69.2551,0.013343
153.559,69.2489,0.013343
153.589,69.2430,0.013343
153.621,69.2366,0.013343
153.652,69.2305,0.013343
153.683,69.2243,0.013343
153.714,69.2180,0.013343
153.746,69.2115,0.013343
153.776,69.2056,0.013343
153.808,69.1992,0.013343
153.838,69.1932,0.013343
153.870,69.1868,0.013343
153.901,69.1808,0.013343
153.931,69.1747,0.013343
153.962,69.1684,0.013343
153.993,69.1622,0.013343
154.026,69.1557,0.013343
154.057,69.1494,0.013343
154.087,69.1432,0.013343
154.118,69.1372,0.013343
154.149,69.1309,0.013343
154.180,69.1247,0.013343
154.212,69.1183,0.013371
154.244,69.1119,0.013371
154.270,69.1067,0.013371
154.306,69.0995,0.013371
154.337,69.0935,0.013371
154.368,69.0871,0.013371
154.399,69.0809,0.013371
154.430,69.0747,0.013371
154.461,69.0685,0.013400
154.491,69.0625,0.013400
154.523,69.0562,0.013400
154.553,69.0500,0.013400
154.585,69.0437,0.013400
154.616,69.0374,0.013400
154.648,69.0312,0.013400
154.679,69.0249,0.013400
154.710,69.0187,0.013400
154.741,69.0125,0.013362
154.772,69.0064,0.013362
154.804,68.9999,0.013362
154.835,68.9939,0.013362
154.867,68.9873,0.013362
154.897,68.9815,0.013362
154.928,68.9751,0.013362
154.959,68.9689,0.013362
154.991,68.9627,0.013362
155.021,68.9565,0.013362
155.053,68.9503,0.013362
155.084,68.9439,0.013362
155.116,68.9376,0.013362
155.148,68.9311,0.013362
155.180,68.9249,0.013362
155.211,68.9185,0.013362
155.243,68.9123,0.013390
155.273,68.9062,0.013390
155.305,68.9000,0.013390
155.336,68.8937,0.013390
155.368,68.8873,0.013390
155.398,68.8813,0.013390
155.429,68.8748,0.013390
155.461,68.8686,0.013390
155.491,68.8625,0.013381
155.522,68.8566,0.013381
155.552,68.8504,0.013381
155.583,68.8443,0.013381
155.615,68.8380,0.013381
155.647,68.8314,0.013381
155.678,68.8253,0.013381
155.709,68.8191,0.013381
155.740,68.8129,0.013390
155.771,68.8066,0.013390
155.803,68.8001,0.013390
155.834,68.7939,0.013390
155.864,68.7880,0.013390
155.895,68.7817,0.013390
155.926,68.7756,0.013390
155.958,68.7691,0.013390
155.989,68.7631,0.013390
156.020,68.7569,0.013400
156.050,68.7508,0.013400
156.081,68.7446,0.013400
156.112,68.7384,0.013400
156.144,68.7322,0.013400
156.175,68.7259,0.013400
156.205,68.7197,0.013400
156.236,68.7136,0.013371
156.267,68.7074,0.013371
156.299,68.7010,0.013371
156.330,68.6948,0.013371
156.361,68.6885,0.013371
156.392,68.6824,0.013371
156.423,68.6762,0.013371
156.453,68.6700,0.013371
156.484,68.6640,0.013371
156.517,68.6574,0.013343
156.547,68.6512,0.013343
156.578,68.6452,0.013343
156.609,68.6389,0.013343
156.640,68.6327,0.013343
156.671,68.6265,0.013343
156.703,68.6203,0.013343
156.733,68.6142,0.013362
156.764,68.6080,0.013362
156.796,68.6016,0.013362
156.827,68.5955,0.013362
156.857,68.5894,0.013362
156.889,68.5830,0.013362
156.919,68.5769,0.013362
156.951,68.5708,0.013362
156.982,68.5645,0.013371
157.013,68.5582,0.013371
157.044,68.5521,0.013371
157.075,68.5458,0.013371
157.106,68.5397,0.013371
157.137,68.5335,0.013371
157.167,68.5274,0.013371
157.199,68.5211,0.013371
157.230,68.5149,0.013400
157.261,68.5086,0.013400
157.293,68.5024,0.013400
157.324,68.4959,0.013400
157.356,68.4896,0.013400
157.387,68.4834,0.013400
157.418,68.4769,0.013400
157.449,68.4710,0.013400
157.481,68.4645,0.013437
157.513,68.4582,0.013437
157.544,68.4521,0.013437
157.575,68.4459,0.013437
157.605,68.4399,0.013437
157.636,68.4337,0.013437
157.668,68.4270,0.013437
157.698,68.4212,0.013437
157.729,68.4152,0.013400
157.760,68.4088,0.013400
157.791,68.4026,0.013400
157.821,68.3966,0.013400
157.853,68.3902,0.013400
157.884,68.3840,0.013400
157.915,68.3778,0.013400
157.947,68.3715,0.013400
157.977,68.3653,0.013381
158.008,68.3592,0.013381
158.039,68.3532,0.013381
158.070,68.3468,0.013381
158.100,68.3408,0.013381
158.131,68.3346,0.013381
158.162,68.3285,0.013381
158.193,68.3222,0.013381
158.224,68.3160,0.013371
158.256,68.3095,0.013371
158.287,68.3034,0.013371
158.318,68.2971,0.013371
158.348,68.2913,0.013371
158.381,68.2847,0.013371
158.411,68.2787,0.013371
158.443,68.2722,0.013371
158.474,68.2661,0.013343
158.506,68.2595,0.013343
158.538,68.2533,0.013343
158.569,68.2470,0.013343
158.600,68.2409,0.013343
158.630,68.2348,0.013343
158.662,68.2284,0.013343
158.692,68.2224,0.013343
158.722,68.2165,0.013343
158.754,68.2102,0.013315
158.785,68.2040,0.013315
158.816,68.1978,0.013315
158.847,68.1914,0.013315
158.879,68.1851,0.013315
158.910,68.1789,0.013315
158.941,68.1726,0.013315
158.972,68.1664,0.013315
159.003,68.1602,0.013315
159.035,68.1539,0.013315
159.066,68.1477,0.013315
159.096,68.1416,0.013315
159.127,68.1353,0.013315
159.159,68.1292,0.013315
159.190,68.1228,0.013315
159.221,68.1166,0.013381
159.252,68.1103,0.013381
159.283,68.1040,0.013381
159.314,68.0980,0.013381
159.348,68.0912,0.013381
159.376,68.0858,0.013381
159.407,68.0793,0.013381
159.438,68.0734,0.013381
159.469,68.0668,0.013390
159.500,68.0607,0.013390
159.532,68.0544,0.013390
159.562,68.0483,0.013390
159.593,68.0420,0.013390
159.625,68.0358,0.013390
159.657,68.0293,0.013390
159.689,68.0230,0.013390
159.719,68.0171,0.013381
159.750,68.0109,0.013381
159.781,68.0047,0.013381
159.812,67.9982,0.013381
159.842,67.9924,0.013381
159.874,67.9859,0.013381
159.906,67.9796,0.013381
159.935,67.9739,0.013381
159.966,67.9677,0.013381
159.997,67.9615,0.013381
160.028,67.9553,0.013381
160.059,67.9490,0.013381
160.090,67.9429,0.013381
160.121,67.9368,0.013381
160.152,67.9305,0.013381
160.184,67.9242,0.013381
160.215,67.9178,0.013400
160.246,67.9114,0.013400
160.277,67.9054,0.013400
160.309,67.8989,0.013400
160.340,67.8929,0.013400
160.371,67.8867,0.013400
160.401,67.8804,0.013400
160.433,67.8742,0.013400
160.464,67.8680,0.013400
160.495,67.8619,0.013400
160.527,67.8555,0.013400
160.557,67.8494,0.013400
160.588,67.8431,0.013400
160.619,67.8370,0.013400
160.651,67.8305,0.013400
160.682,67.8244,0.013400
160.714,67.8179,0.013409
160.745,67.8118,0.013409
160.776,67.8055,0.013409
160.807,67.7994,0.013409
160.838,67.7933,0.013409
160.869,67.7871,0.013409
160.900,67.7808,0.013409
160.932,67.7743,0.013409
160.964,67.7680,0.013484
160.995,67.7619,0.013484
161.025,67.7557,0.013484
161.056,67.7497,0.013484
161.087,67.7435,0.013484
161.118,67.7373,0.013484
161.149,67.7311,0.013484
161.180,67.7250,0.013484
161.210,67.7187,0.013428
161.241,67.7126,0.013428
161.272,67.7063,0.013428
161.304,67.7002,0.013428
161.336,67.6935,0.013428
161.366,67.6877,0.013428
161.398,67.6812,0.013428
161.428,67.6751,0.013428
161.459,67.6692,0.013428
161.490,67.6628,0.013428
161.521,67.6571,0.013371
161.552,67.6524,0.013371
161.583,67.6481,0.013371
161.614,67.6447,0.013371
161.645,67.6420,0.013371
161.677,67.6400,0.013371
161.708,67.6388,0.013371
161.739,67.6383,0.013353
161.769,67.6383,0.013353
161.801,67.6383,0.013353
161.832,67.6383,0.013353
161.862,67.6383,0.013353
161.894,67.6383,0.013353
161.925,67.6383,0.013353
161.957,67.6383,0.013353
161.988,67.6383,0.013343
162.020,67.6383,0.013343
162.050,67.6383,0.013343
162.082,67.6383,0.013343
162.113,67.6383,0.013343
162.142,67.6383,0.013343
162.174,67.6383,0.013343
162.205,67.6385,0.013343
162.236,67.6397,0.013381
162.267,67.6414,0.013381
162.299,67.6440,0.013381
162.330,67.6472,0.013381
162.361,67.6511,0.013381
162.392,67.6559,0.013381
162.423,67.6612,0.013381
162.455,67.6676,0.013381
162.486,67.6738,0.013296
162.517,67.6800,0.013296
162.549,67.6864,0.013296
162.580,67.6925,0.013296
162.610,67.6987,0.013296
162.641,67.7048,0.013296
162.672,67.7110,0.013296
162.703,67.7170,0.013296
162.734,67.7234,0.013306
162.766,67.7297,0.013306
162.797,67.7361,0.013306
162.828,67.7421,0.013306
162.859,67.7484,0.013306
162.890,67.7546,0.013306
162.921,67.7607,0.013306
162.953,67.7672,0.013306
162.983,67.7731,0.013371
163.015,67.7796,0.013371
163.046,67.7858,0.013371
163.078,67.7921,0.013371
163.108,67.7982,0.013371
163.140,67.8045,0.013371
163.170,67.8107,0.013371
163.201,67.8166,0.013371
163.232,67.8228,0.013371
163.262,67.8289,0.013381
163.294,67.8352,0.013381
163.325,67.8414,0.013381
163.355,67.8475,0.013381
163.386,67.8537,0.013381
163.418,67.8599,0.013381
163.448,67.8662,0.013381
163.480,67.8723,0.013390
163.510,67.8786,0.013390
163.542,67.8848,0.013390
163.573,67.8912,0.013390
163.604,67.8975,0.013390
163.636,67.9037,0.013390
163.666,67.9097,0.013390
163.696,67.9157,0.013390
163.727,67.9219,0.013390
163.759,67.9283,0.013362
163.789,67.9342,0.013362
163.821,67.9407,0.013362
163.852,67.9469,0.013362
163.882,67.9529,0.013362
163.914,67.9593,0.013362
163.945,67.9655,0.013362
163.977,67.9719,0.013362
164.008,67.9781,0.013362
164.039,67.9843,0.013362
164.070,67.9906,0.013362
164.101,67.9966,0.013362
164.132,68.0029,0.013362
164.163,68.0091,0.013362
164.194,68.0153,0.013362
164.226,68.0218,0.013362
164.257,68.0278,0.013362
164.287,68.0342,0.013362
164.318,68.0401,0.013362
164.350,68.0465,0.013362
164.381,68.0528,0.013362
164.412,68.0590,0.013362
164.443,68.0652,0.013362
164.475,68.0715,0.013428
164.506,68.0777,0.013428
164.537,68.0839,0.013428
164.569,68.0902,0.013428
164.599,68.0963,0.013428
164.630,68.1025,0.013428
164.661,68.1087,0.013428
164.691,68.1148,0.013428
164.722,68.1209,0.013437
164.753,68.1271,0.013437
164.783,68.1333,0.013437
164.814,68.1392,0.013437
164.845,68.1459,0.013437
164.876,68.1517,0.013437
164.907,68.1579,0.013437
164.938,68.1641,0.013437
164.968,68.1701,0.013418
164.999,68.1763,0.013418
165.030,68.1825,0.013418
165.061,68.1887,0.013418
165.093,68.1949,0.013418
165.124,68.2014,0.013418
165.154,68.2073,0.013418
165.185,68.2138,0.013418
165.217,68.2198,0.013390
165.248,68.2260,0.013390
165.279,68.2324,0.013390
165.310,68.2384,0.013390
165.341,68.2448,0.013390
165.372,68.2510,0.013390
165.403,68.2575,0.013390
165.435,68.2636,0.013390
165.465,68.2694,0.013390
165.495,68.2755,0.013362
165.526,68.2816,0.013362
165.557,68.2878,0.013362
165.588,68.2941,0.013362
165.619,68.3002,0.013362
165.651,68.3065,0.013362
165.682,68.3131,0.013362
165.713,68.3191,0.013400
165.745,68.3254,0.013400
165.776,68.3317,0.013400
165.808,68.3380,0.013400
165.839,68.3444,0.013400
165.869,68.3504,0.013400
165.901,68.3566,0.013400
165.931,68.3628,0.013400
165.962,68.3692,0.013381
165.993,68.3750,0.013381
166.023,68.3811,0.013381
166.054,68.3873,0.013381
166.086,68.3937,0.013381
166.117,68.4000,0.013381
166.148,68.4060,0.013381
166.178,68.4122,0.013381
166.210,68.4184,0.013371
166.240,68.4246,0.013371
166.271,68.4307,0.013371
166.302,68.4369,0.013371
166.333,68.4432,0.013371
166.364,68.4493,0.013371
166.395,68.4556,0.013371
166.426,68.4616,0.013371
166.458,68.4681,0.013371
166.489,68.4742,0.013371
166.521,68.4805,0.013390
166.551,68.4866,0.013390
166.581,68.4928,0.013390
166.613,68.4990,0.013390
166.645,68.5055,0.013390
166.675,68.5115,0.013390
166.707,68.5180,0.013390
166.739,68.5242,0.013400
166.771,68.5306,0.013400
166.802,68.5368,0.013400
166.833,68.5432,0.013400
166.864,68.5492,0.013400
166.896,68.5558,0.013400
166.926,68.5616,0.013400
166.958,68.5680,0.013400
166.989,68.5742,0.013437
167.020,68.5805,0.013437
167.051,68.5868,0.013437
167.081,68.5928,0.013437
167.115,68.5995,0.013437
167.142,68.6049,0.013437
167.174,68.6115,0.013437
167.205,68.6175,0.013437
167.236,68.6238,0.013409
167.267,68.6299,0.013409
167.298,68.6361,0.013409
167.329,68.6423,0.013409
167.360,68.6486,0.013409
167.391,68.6547,0.013409
167.422,68.6607,0.013409
167.452,68.6669,0.013409
167.483,68.6731,0.013371
167.515,68.6796,0.013371
167.547,68.6858,0.013371
167.577,68.6919,0.013371
167.608,68.6983,0.013371
167.638,68.7041,0.013371
167.669,68.7103,0.013371
167.700,68.7165,0.013371
167.732,68.7228,0.013390
167.763,68.7291,0.013390
167.794,68.7352,0.013390
167.825,68.7416,0.013390
167.857,68.7478,0.013390
167.888,68.7541,0.013390
167.919,68.7605,0.013390
167.950,68.7665,0.013390
167.981,68.7727,0.013362
168.012,68.7788,0.013362
168.043,68.7850,0.013362
168.073,68.7912,0.013362
168.104,68.7973,0.013362
168.135,68.8036,0.013362
168.166,68.8096,0.013362
168.197,68.8159,0.013362
168.228,68.8220,0.013353
168.259,68.8284,0.013353
168.291,68.8346,0.013353
168.322,68.8409,0.013353
168.354,68.8475,0.013353
168.384,68.8533,0.013353
168.416,68.8598,0.013353
168.446,68.8657,0.013353
168.479,68.8723,0.013400
168.509,68.8784,0.013400
168.540,68.8844,0.013400
168.571,68.8907,0.013400
168.602,68.8969,0.013400
168.633,68.9032,0.013400
168.663,68.9093,0.013400
168.695,68.9154,0.013400
168.725,68.9216,0.013400
168.756,68.9278,0.013400
168.788,68.9341,0.013400
168.819,68.9403,0.013400
168.850,68.9467,0.013400
168.882,68.9529,0.013400
168.914,68.9593,0.013400
168.944,68.9653,0.013400
168.975,68.9717,0.013400
169.007,68.9779,0.013400
169.039,68.9844,0.013400
169.071,68.9906,0.013400
169.103,68.9971,0.013400
169.134,69.0033,0.013400
169.164,69.0094,0.013400
169.195,69.0154,0.013400
169.226,69.0216,0.013371
169.257,69.0281,0.013371
169.288,69.0339,0.013371
169.318,69.0401,0.013371
169.349,69.0462,0.013371
169.379,69.0523,0.013371
169.411,69.0586,0.013371
169.442,69.0648,0.013371
169.473,69.0711,0.013362
169.503,69.0771,0.013362
169.534,69.0832,0.013362
169.565,69.0896,0.013362
169.597,69.0958,0.013362
169.628,69.1020,0.013362
169.659,69.1083,0.013362
169.691,69.1147,0.013362
169.721,69.1207,0.013362
169.753,69.1272,0.013362
169.782,69.1329,0.013362
169.813,69.1391,0.013362
169.844,69.1453,0.013362
169.876,69.1516,0.013362
169.905,69.1576,0.013362
169.937,69.1639,0.013362
169.967,69.1699,0.013466
169.998,69.1763,0.013466
170.030,69.1825,0.013466
170.062,69.1890,0.013466
170.093,69.1952,0.013466
170.125,69.2016,0.013466
170.156,69.2077,0.013466
170.188,69.2141,0.013466
170.220,69.2205,0.013475
170.250,69.2264,0.013475
170.281,69.2327,0.013475
170.312,69.2388,0.013475
170.343,69.2453,0.013475
170.375,69.2515,0.013475
170.406,69.2577,0.013475
170.436,69.2637,0.013475
170.467,69.2699,0.013466
170.498,69.2759,0.013466
170.530,69.2825,0.013466
170.561,69.2885,0.013466
170.593,69.2951,0.013466
170.624,69.3013,0.013466
170.655,69.3074,0.013466
170.685,69.3137,0.013466
170.716,69.3197,0.013466
170.747,69.3259,0.013447
170.780,69.3325,0.013447
170.810,69.3384,0.013447
170.841,69.3446,0.013447
170.872,69.3509,0.013447
170.903,69.3571,0.013447
170.934,69.3633,0.013447
170.966,69.3695,0.013390
170.997,69.3757,0.013390
171.028,69.3821,0.013390
171.059,69.3883,0.013390
171.090,69.3943,0.013390
171.121,69.4007,0.013390
171.153,69.4070,0.013390
171.183,69.4131,0.013390
171.215,69.4194,0.013409
171.246,69.4258,0.013409
171.277,69.4318,0.013409
171.309,69.4382,0.013409
171.340,69.4444,0.013409
171.371,69.4506,0.013409
171.402,69.4571,0.013409
171.434,69.4632,0.013409
171.465,69.4694,0.013400
171.495,69.4754,0.013400
171.526,69.4817,0.013400
171.556,69.4879,0.013400
171.587,69.4938,0.013400
171.617,69.4999,0.013400
171.649,69.5062,0.013400
171.680,69.5124,0.013400
171.712,69.5189,0.013418
171.741,69.5248,0.013418
171.772,69.5308,0.013418
171.802,69.5370,0.013418
171.834,69.5433,0.013418
171.865,69.5492,0.013418
171.895,69.5556,0.013418
171.926,69.5616,0.013418
171.956,69.5678,0.013418
171.987,69.5739,0.013400
172.020,69.5804,0.013400
172.049,69.5862,0.013400
172.080,69.5927,0.013400
172.111,69.5987,0.013400
172.143,69.6052,0.013400
172.175,69.6114,0.013400
172.206,69.6178,0.013400
172.237,69.6238,0.013362
172.268,69.6301,0.013362
172.299,69.6362,0.013362
172.330,69.6425,0.013362
172.361,69.6488,0.013362
172.392,69.6549,0.013362
172.424,69.6612,0.013362
172.455,69.6674,0.013362
172.486,69.6736,0.013371
172.517,69.6801,0.013371
172.548,69.6862,0.013371
172.579,69.6922,0.013371
172.610,69.6983,0.013371
172.642,69.7049,0.013371
172.673,69.7110,0.013371
172.704,69.7174,0.013371
172.736,69.7236,0.013409
172.767,69.7299,0.013409
172.798,69.7360,0.013409
172.830,69.7426,0.013409
172.862,69.7488,0.013409
172.893,69.7551,0.013409
172.925,69.7614,0.013409
172.957,69.7679,0.013409
172.989,69.7741,0.013409
173.019,69.7803,0.013409
173.050,69.7864,0.013409
173.081,69.7927,0.013409
173.112,69.7990,0.013409
173.144,69.8052,0.013409
173.174,69.8114,0.013409
173.205,69.8175,0.013371
173.237,69.8238,0.013371
173.267,69.8299,0.013371
173.298,69.8361,0.013371
173.329,69.8423,0.013371
173.359,69.8484,0.013371
173.391,69.8546,0.013371
173.422,69.8609,0.013371
173.453,69.8670,0.013362
173.485,69.8734,0.013362
173.515,69.8795,0.013362
173.546,69.8857,0.013362
173.577,69.8920,0.013362
173.608,69.8981,0.013362
173.639,69.9043,0.013362
173.672,69.9109,0.013362
173.702,69.9167,0.013362
173.733,69.9230,0.013390
173.764,69.9293,0.013390
173.796,69.9356,0.013390
173.825,69.9415,0.013390
173.855,69.9475,0.013390
173.887,69.9538,0.013390
173.919,69.9603,0.013390
173.949,69.9665,0.013390
173.980,69.9725,0.013409
174.012,69.9789,0.013409
174.042,69.9848,0.013409
174.073,69.9910,0.013409
174.105,69.9975,0.013409
174.137,70.0038,0.013409
174.169,70.0102,0.013409
174.199,70.0162,0.013409
174.230,70.0224,0.013437
174.262,70.0288,0.013437
174.293,70.0350,0.013437
174.324,70.0412,0.013437
174.355,70.0473,0.013437
174.385,70.0536,0.013437
174.416,70.0596,0.013437
174.447,70.0659,0.013437
174.478,70.0720,0.013466
174.509,70.0782,0.013466
174.540,70.0844,0.013466
174.571,70.0906,0.013466
174.602,70.0971,0.013466
174.633,70.1030,0.013466
174.664,70.1092,0.013466
174.695,70.1155,0.013466
174.726,70.1216,0.013428
174.757,70.1279,0.013428
174.789,70.1341,0.013428
174.819,70.1403,0.013428
174.849,70.1464,0.013428
174.879,70.1522,0.013428
174.911,70.1587,0.013428
174.942,70.1648,0.013428
174.974,70.1712,0.013437
175.005,70.1773,0.013437
175.037,70.1839,0.013437
175.068,70.1899,0.013437
175.099,70.1964,0.013437
175.130,70.2025,0.013437
175.161,70.2088,0.013437
175.193,70.2150,0.013437
175.224,70.2215,0.013466
175.256,70.2277,0.013466
175.287,70.2337,0.013466
175.318,70.2401,0.013466
175.348,70.2460,0.013466
175.380,70.2525,0.013466
175.410,70.2584,0.013466
175.442,70.2649,0.013447
175.473,70.2711,0.013447
175.504,70.2773,0.013447
175.535,70.2833,0.013447
175.566,70.2895,0.013447
175.597,70.2957,0.013447
175.628,70.3021,0.013447
175.658,70.3080,0.013447
175.689,70.3142,0.013447
175.720,70.3203,0.013400
175.751,70.3267,0.013400
175.782,70.3329,0.013400
175.813,70.3389,0.013400
175.844,70.3451,0.013400
175.874,70.3513,0.013400
175.906,70.3575,0.013400
175.936,70.3638,0.013400
175.967,70.3699,0.013390
175.999,70.3762,0.013390
176.030,70.3823,0.013390
176.061,70.3886,0.013390
176.092,70.3947,0.013390
176.124,70.4013,0.013390
176.155,70.4074,0.013390
176.186,70.4137,0.013390
176.217,70.4200,0.013353
176.247,70.4257,0.013353
176.276,70.4317,0.013353
176.307,70.4377,0.013353
176.338,70.4441,0.013353
176.369,70.4503,0.013353
176.400,70.4565,0.013353
176.431,70.4626,0.013353
176.462,70.4689,0.013390
176.493,70.4750,0.013390
176.524,70.4813,0.013390
176.555,70.4874,0.013390
176.586,70.4937,0.013390
176.618,70.4999,0.013390
176.648,70.5061,0.013390
176.679,70.5123,0.013390
176.711,70.5186,0.013390
176.742,70.5248,0.013437
176.773,70.5310,0.013437
176.804,70.5371,0.013437
176.834,70.5433,0.013437
176.866,70.5496,0.013437
176.896,70.5557,0.013437
176.928,70.5619,0.013437
176.958,70.5680,0.013437
176.990,70.5743,0.013437
177.021,70.5806,0.013362
177.051,70.5867,0.013362
177.082,70.5929,0.013362
177.113,70.5990,0.013362
177.144,70.6053,0.013362
177.176,70.6116,0.013362
177.208,70.6176,0.013362
177.238,70.6227,0.013353
177.269,70.6270,0.013353
177.299,70.6306,0.013353
177.330,70.6337,0.013353
177.363,70.6359,0.013353
177.394,70.6374,0.013353
177.425,70.6382,0.013353
177.456,70.6383,0.013353
177.487,70.6383,0.013437
177.518,70.6383,0.013437
177.549,70.6383,0.013437
177.579,70.6383,0.013437
177.611,70.6383,0.013437
177.642,70.6383,0.013437
177.672,70.6383,0.013437
177.703,70.6383,0.013437
177.735,70.6383,0.013447
177.767,70.6383,0.013447
177.799,70.6383,0.013447
177.831,70.6383,0.013447
177.862,70.6383,0.013447
177.892,70.6383,0.013447
177.924,70.6383,0.013447
177.955,70.6383,0.013447
177.986,70.6383,0.013437
178.017,70.6383,0.013437
178.048,70.6383,0.013437
178.078,70.6383,0.013437
178.109,70.6383,0.013437
178.140,70.6383,0.013437
178.171,70.6383,0.013437
178.203,70.6383,0.013437
178.233,70.6383,0.013428
178.264,70.6383,0.013428
178.295,70.6383,0.013428
178.326,70.6383,0.013428
178.357,70.6383,0.013428
178.388,70.6383,0.013428
178.419,70.6383,0.013428
178.450,70.6383,0.013428
178.480,70.6383,0.013409
178.511,70.6383,0.013409
178.542,70.6383,0.013409
178.573,70.6383,0.013409
178.605,70.6383,0.013409
178.636,70.6383,0.013409
178.666,70.6383,0.013409
178.699,70.6383,0.013409
178.729,70.6383,0.013409
178.761,70.6383,0.013428
178.791,70.6383,0.013428
178.822,70.6383,0.013428
178.854,70.6383,0.013428
178.883,70.6383,0.013428
178.915,70.6383,0.013428
178.947,70.6383,0.013428
178.978,70.6383,0.013428
179.009,70.6383,0.013437
179.040,70.6383,0.013437
179.072,70.6383,0.013437
179.103,70.6383,0.013437
179.135,70.6383,0.013437
179.165,70.6383,0.013437
179.196,70.6383,0.013400
179.227,70.6383,0.013400
179.258,70.6383,0.013400
179.290,70.6383,0.013400
179.320,70.6383,0.013400
179.351,70.6383,0.013400
179.382,70.6383,0.013400
179.414,70.6383,0.013400
179.446,70.6383,0.013400
179.477,70.6383,0.013400
179.510,70.6383,0.013428
179.538,70.6383,0.013428
179.569,70.6383,0.013428
179.600,70.6383,0.013428
179.631,70.6383,0.013428
179.663,70.6383,0.013428
179.694,70.6383,0.013428
179.725,70.6383,0.013428
179.756,70.6383,0.013447
179.788,70.6383,0.013447
179.818,70.6383,0.013447
179.849,70.6383,0.013447
179.880,70.6383,0.013447
179.910,70.6383,0.013447
179.941,70.6383,0.013447
179.973,70.6383,0.013447
180.004,70.6383,0.013371
180.035,70.6383,0.013371
180.066,70.6383,0.013371
180.098,70.6383,0.013371
180.129,70.6383,0.013371
180.160,70.6383,0.013371
180.191,70.6383,0.013371
180.223,70.6383,0.013371
180.254,70.6383,0.013371
180.286,70.6383,0.013371
180.316,70.6383,0.013371
180.347,70.6383,0.013371
180.378,70.6383,0.013371
180.409,70.6383,0.013371
180.441,70.6383,0.013371
180.472,70.6383,0.013371
180.503,70.6383,0.013400
180.534,70.6383,0.013400
180.565,70.6383,0.013400
180.596,70.6383,0.013400
180.626,70.6383,0.013400
180.657,70.6383,0.013400
180.688,70.6383,0.013400
180.719,70.6383,0.013381
180.751,70.6383,0.013381
180.781,70.6383,0.013381
180.812,70.6383,0.013381
180.844,70.6383,0.013381
180.874,70.6383,0.013381
180.906,70.6383,0.013381
180.936,70.6383,0.013381
180.968,70.6383,0.013381
180.998,70.6383,0.013381
181.029,70.6383,0.013381
181.060,70.6383,0.013381
181.091,70.6383,0.013381
181.121,70.6383,0.013381
181.152,70.6383,0.013381
181.183,70.6383,0.013381
181.214,70.6383,0.013418
181.246,70.6383,0.013418
181.276,70.6383,0.013418
181.308,70.6383,0.013418
181.339,70.6383,0.013418
181.370,70.6383,0.013418
181.400,70.6383,0.013418
181.432,70.6383,0.013418
181.461,70.6383,0.013418
181.493,70.6383,0.013428
181.525,70.6383,0.013428
181.556,70.6383,0.013428
181.587,70.6383,0.013428
181.618,70.6383,0.013428
181.650,70.6383,0.013428
181.682,70.6383,0.013428
181.712,70.6380,0.013428
181.744,70.6372,0.013390
181.775,70.6356,0.013390
181.805,70.6332,0.013390
181.836,70.6302,0.013390
181.867,70.6264,0.013390
181.898,70.6218,0.013390
181.930,70.6163,0.013390
181.960,70.6106,0.013390
181.990,70.6044,0.013484
182.022,70.5982,0.013484
182.054,70.5918,0.013484
182.085,70.5857,0.013484
182.116,70.5793,0.013484
182.147,70.5732,0.013484
182.178,70.5670,0.013484
182.209,70.5609,0.013494
182.240,70.5545,0.013494
182.271,70.5485,0.013494
182.302,70.5422,0.013494
182.333,70.5360,0.013494
182.365,70.5296,0.013494
182.397,70.5231,0.013494
182.428,70.5171,0.013494
182.458,70.5109,0.013362
182.492,70.5042,0.013362
182.521,70.4984,0.013362
182.551,70.4922,0.013362
182.582,70.4862,0.013362
182.613,70.4799,0.013362
182.644,70.4737,0.013362
182.676,70.4673,0.013362
182.708,70.4611,0.013362
182.739,70.4547,0.013390
182.770,70.4487,0.013390
182.802,70.4422,0.013390
182.831,70.4363,0.013390
182.864,70.4298,0.013390
182.894,70.4237,0.013390
182.926,70.4174,0.013390
182.958,70.4111,0.013390
182.988,70.4050,0.013418
183.019,70.3988,0.013418
183.051,70.3925,0.013418
183.080,70.3864,0.013418
183.112,70.3802,0.013418
183.143,70.3740,0.013418
183.174,70.3678,0.013418
183.204,70.3617,0.013418
183.235,70.3556,0.013400
183.267,70.3493,0.013400
183.298,70.3430,0.013400
183.330,70.3365,0.013400
183.361,70.3305,0.013400
183.391,70.3243,0.013400
183.423,70.3182,0.013400
183.454,70.3119,0.013400
183.484,70.3057,0.013400
183.515,70.2995,0.013400
183.546,70.2934,0.013400
183.577,70.2871,0.013400
183.609,70.2809,0.013400
183.640,70.2745,0.013400
183.670,70.2687,0.013400
183.702,70.2623,0.013390
183.733,70.2561,0.013390
183.763,70.2500,0.013390
183.795,70.2438,0.013390
183.825,70.2376,0.013390
183.856,70.2314,0.013390
183.888,70.2250,0.013390
183.919,70.2188,0.013390
183.950,70.2126,0.013390
183.981,70.2064,0.013400
184.013,70.2001,0.013400
184.043,70.1939,0.013400
184.074,70.1878,0.013400
184.105,70.1818,0.013400
184.136,70.1753,0.013400
184.167,70.1692,0.013400
184.198,70.1629,0.013400
184.230,70.1566,0.013409
184.260,70.1505,0.013409
184.291,70.1446,0.013409
184.322,70.1381,0.013409
184.352,70.1322,0.013409
184.384,70.1256,0.013409
184.416,70.1193,0.013409
184.446,70.1133,0.013409
184.478,70.1071,0.013381
184.509,70.1007,0.013381
184.541,70.0946,0.013381
184.571,70.0882,0.013381
184.603,70.0822,0.013381
184.634,70.0757,0.013381
184.665,70.0696,0.013381
184.696,70.0634,0.013381
184.726,70.0572,0.013381
184.758,70.0510,0.013381
184.788,70.0450,0.013381
184.820,70.0386,0.013381
184.852,70.0321,0.013381
184.882,70.0262,0.013381
184.915,70.0197,0.013381
184.945,70.0137,0.013381
184.976,70.0075,0.013381
185.006,70.0014,0.013381
185.038,69.9950,0.013381
185.069,69.9888,0.013381
185.100,69.9826,0.013381
185.131,69.9764,0.013381
185.163,69.9702,0.013381
185.194,69.9637,0.013381
185.225,69.9577,0.013381
185.256,69.9513,0.013381
185.288,69.9451,0.013381
185.318,69.9389,0.013381
185.349,69.9328,0.013381
185.379,69.9268,0.013381
185.411,69.9203,0.013381
185.441,69.9144,0.013381
185.475,69.9077,0.013437
185.504,69.9018,0.013437
185.536,69.8954,0.013437
185.565,69.8897,0.013437
185.597,69.8831,0.013437
185.627,69.8772,0.013437
185.658,69.8710,0.013437
185.688,69.8649,0.013437
185.720,69.8587,0.013437
185.750,69.8526,0.013437
185.781,69.8465,0.013437
185.812,69.8402,0.013437
185.843,69.8341,0.013437
185.875,69.8277,0.013437
185.905,69.8217,0.013437
185.936,69.8153,0.013437
185.967,69.8093,0.013428
185.997,69.8030,0.013428
186.029,69.7969,0.013428
186.061,69.7903,0.013428
186.093,69.7840,0.013428
186.123,69.7778,0.013428
186.154,69.7717,0.013428
186.185,69.7654,0.013428
186.216,69.7595,0.013400
186.247,69.7533,0.013400
186.278,69.7471,0.013400
186.309,69.7410,0.013400
186.340,69.7345,0.013400
186.370,69.7283,0.013400
186.402,69.7223,0.013400
186.432,69.7163,0.013400
186.463,69.7099,0.013400
186.494,69.7038,0.013381
186.526,69.6975,0.013381
186.556,69.6914,0.013381
186.588,69.6850,0.013381
186.621,69.6784,0.013381
186.651,69.6724,0.013381
186.682,69.6662,0.013381
186.714,69.6599,0.013381
186.744,69.6538,0.013400
186.776,69.6475,0.013400
186.807,69.6411,0.013400
186.839,69.6349,0.013400
186.870,69.6286,0.013400
186.902,69.6223,0.013400
186.932,69.6162,0.013400
186.963,69.6100,0.013371
186.994,69.6038,0.013371
187.025,69.5975,0.013371
187.057,69.5913,0.013371
187.088,69.5850,0.013371
187.120,69.5786,0.013371
187.149,69.5728,0.013371
187.180,69.5666,0.013371
187.211,69.5603,0.013371
187.242,69.5541,0.013306
187.273,69.5480,0.013306
187.305,69.5417,0.013306
187.336,69.5354,0.013306
187.366,69.5294,0.013306
187.398,69.5231,0.013306
187.430,69.5165,0.013306
187.460,69.5105,0.013371
187.491,69.5043,0.013371
187.522,69.4981,0.013371
187.553,69.4921,0.013371
187.584,69.4859,0.013371
187.616,69.4795,0.013371
187.647,69.4733,0.013371
187.678,69.4670,0.013371
187.709,69.4608,0.013371
187.740,69.4546,0.013428
187.771,69.4485,0.013428
187.802,69.4422,0.013428
187.834,69.4360,0.013428
187.865,69.4297,0.013428
187.896,69.4234,0.013428
187.928,69.4170,0.013428
187.960,69.4107,0.013428
187.991,69.4044,0.013390
188.022,69.3982,0.013390
188.052,69.3922,0.013390
188.083,69.3859,0.013390
188.115,69.3796,0.013390
188.144,69.3737,0.013390
188.176,69.3673,0.013390
188.206,69.3613,0.013390
188.238,69.3549,0.013428
188.269,69.3487,0.013428
188.301,69.3424,0.013428
188.331,69.3364,0.013428
188.362,69.3302,0.013428
188.393,69.3240,0.013428
188.424,69.3177,0.013428
188.456,69.3114,0.013428
188.488,69.3049,0.013466
188.520,69.2987,0.013466
188.551,69.2923,0.013466
188.581,69.2864,0.013466
188.612,69.2801,0.013466
188.643,69.2739,0.013466
188.676,69.2675,0.013466
188.706,69.2614,0.013466
188.738,69.2549,0.013428
188.768,69.2490,0.013428
188.801,69.2424,0.013428
188.831,69.2365,0.013428
188.864,69.2298,0.013428
188.894,69.2238,0.013428
188.925,69.2176,0.013428
188.957,69.2113,0.013428
188.989,69.2050,0.013428
189.019,69.1988,0.013428
189.050,69.1924,0.013428
189.081,69.1865,0.013428
189.111,69.1805,0.013428
189.142,69.1742,0.013428
189.174,69.1677,0.013428
189.204,69.1619,0.013428
189.235,69.1557,0.013466
189.265,69.1495,0.013466
189.298,69.1431,0.013466
189.327,69.1372,0.013466
189.358,69.1310,0.013466
189.389,69.1248,0.013466
189.419,69.1190,0.013466
189.450,69.1127,0.013409
189.482,69.1062,0.013409
189.512,69.1003,0.013409
189.542,69.0942,0.013409
189.572,69.0881,0.013409
189.603,69.0819,0.013409
189.634,69.0758,0.013409
189.665,69.0695,0.013409
189.696,69.0633,0.013409
189.728,69.0571,0.013371
189.758,69.0510,0.013371
189.790,69.0447,0.013371
189.820,69.0386,0.013371
189.851,69.0326,0.013371
189.883,69.0260,0.013371
189.913,69.0200,0.013371
189.943,69.0140,0.013437
189.974,69.0079,0.013437
190.006,69.0014,0.013437
190.036,68.9954,0.013437
190.069,68.9889,0.013437
190.099,68.9828,0.013437
190.130,68.9768,0.013437
190.161,68.9704,0.013437
190.193,68.9640,0.013437
190.223,68.9579,0.013428
190.255,68.9517,0.013428
190.286,68.9455,0.013428
190.317,68.9393,0.013428
190.347,68.9333,0.013428
190.377,68.9271,0.013428
190.408,68.9209,0.013428
190.439,68.9149,0.013428
190.470,68.9087,0.013456
190.501,68.9026,0.013456
190.531,68.8965,0.013456
190.563,68.8901,0.013456
190.593,68.8840,0.013456
190.623,68.8779,0.013456
190.655,68.8717,0.013456
190.686,68.8653,0.013456
190.717,68.8591,0.013447
190.749,68.8529,0.013447
190.779,68.8468,0.013447
190.811,68.8404,0.013447
190.842,68.8342,0.013447
190.874,68.8278,0.013447
190.904,68.8218,0.013447
190.936,68.8155,0.013447
190.968,68.8092,0.013447
190.998,68.8031,0.013381
191.029,68.7967,0.013381
191.060,68.7907,0.013381
191.091,68.7845,0.013381
191.122,68.7782,0.013381
191.154,68.7719,0.013381
191.184,68.7659,0.013381
191.216,68.7596,0.013371
191.246,68.7535,0.013371
191.277,68.7473,0.013371
191.308,68.7411,0.013371
191.338,68.7350,0.013371
191.370,68.7288,0.013371
191.401,68.7224,0.013371
191.432,68.7164,0.013371
191.464,68.7099,0.013371
191.494,68.7038,0.013400
191.524,68.6978,0.013400
191.555,68.6916,0.013400
191.587,68.6854,0.013400
191.618,68.6791,0.013400
191.649,68.6728,0.013400
191.681,68.6666,0.013400
191.712,68.6602,0.013400
191.743,68.6540,0.013418
191.774,68.6478,0.013418
191.806,68.6416,0.013418
191.837,68.6352,0.013418
191.867,68.6290,0.013418
191.899,68.6229,0.013418
191.930,68.6168,0.013418
191.960,68.6106,0.013418
191.992,68.6044,0.013447
192.024,68.5980,0.013447
192.055,68.5917,0.013447
192.087,68.5852,0.013447
192.118,68.5791,0.013447
192.149,68.5729,0.013447
192.179,68.5666,0.013447
192.210,68.5608,0.013447
192.240,68.5547,0.013409
192.272,68.5484,0.013409
192.302,68.5423,0.013409
192.333,68.5361,0.013409
192.364,68.5300,0.013409
192.395,68.5236,0.013409
192.425,68.5177,0.013409
192.455,68.5115,0.013409
192.487,68.5053,0.013390
192.518,68.4989,0.013390
192.550,68.4928,0.013390
192.580,68.4865,0.013390
192.612,68.4804,0.013390
192.643,68.4741,0.013390
192.673,68.4680,0.013390
192.704,68.4618,0.013390
192.735,68.4556,0.013466
192.766,68.4495,0.013466
192.796,68.4435,0.013466
192.828,68.4371,0.013466
192.859,68.4309,0.013466
192.890,68.4247,0.013466
192.920,68.4186,0.013466
192.951,68.4123,0.013466
192.982,68.4062,0.013466
193.014,68.4000,0.013466
193.044,68.3941,0.013466
193.075,68.3876,0.013466
193.107,68.3813,0.013466
193.138,68.3751,0.013466
193.169,68.3690,0.013466
193.200,68.3626,0.013466
193.231,68.3565,0.013437
193.262,68.3503,0.013437
193.294,68.3439,0.013437
193.325,68.3377,0.013437
193.356,68.3312,0.013437
193.387,68.3253,0.013437
193.418,68.3192,0.013437
193.449,68.3130,0.013437
193.480,68.3067,0.013418
193.511,68.3005,0.013418
193.542,68.2942,0.013418
193.571,68.2885,0.013418
193.602,68.2822,0.013418
193.633,68.2761,0.013418
193.664,68.2699,0.013418
193.696,68.2635,0.013418
193.727,68.2573,0.013400
193.757,68.2512,0.013400
193.788,68.2450,0.013400
193.820,68.2387,0.013400
193.851,68.2324,0.013400
193.881,68.2264,0.013400
193.913,68.2201,0.013400
193.944,68.2139,0.013400
193.975,68.2076,0.013428
194.007,68.2014,0.013428
194.038,68.1949,0.013428
194.069,68.1887,0.013428
194.101,68.1826,0.013428
194.131,68.1766,0.013428
194.162,68.1704,0.013428
194.193,68.1640,0.013428
194.224,68.1578,0.013447
194.255,68.1517,0.013447
194.286,68.1455,0.013447
194.317,68.1392,0.013447
194.349,68.1329,0.013447
194.380,68.1266,0.013447
194.410,68.1205,0.013447
194.442,68.1143,0.013447
194.473,68.1081,0.013428
194.504,68.1020,0.013428
194.536,68.0954,0.013428
194.566,68.0895,0.013428
194.598,68.0829,0.013428
194.628,68.0770,0.013428
194.661,68.0705,0.013428
194.691,68.0644,0.013428
194.722,68.0582,0.013400
194.753,68.0520,0.013400
194.784,68.0460,0.013400
194.815,68.0396,0.013400
194.847,68.0333,0.013400
194.879,68.0269,0.013400
194.910,68.0208,0.013400
194.941,68.0145,0.013400
194.972,68.0084,0.013390
195.002,68.0022,0.013390
195.035,67.9956,0.013390
195.065,67.9896,0.013390
195.096,67.9836,0.013390
195.126,67.9774,0.013390
195.157,67.9712,0.013390
195.188,67.9651,0.013390
195.219,67.9590,0.013390
195.251,67.9526,0.013390
195.281,67.9465,0.013390
195.312,67.9404,0.013390
195.342,67.9342,0.013390
195.373,67.9280,0.013390
195.405,67.9218,0.013390
195.436,67.9156,0.013390
195.467,67.9093,0.013343
195.498,67.9031,0.013343
195.530,67.8969,0.013343
195.561,67.8903,0.013343
195.592,67.8844,0.013343
195.623,67.8780,0.013343
195.654,67.8718,0.013343
195.685,67.8657,0.013343
195.716,67.8592,0.013343
195.749,67.8530,0.013362
195.779,67.8469,0.013362
195.809,67.8408,0.013362
195.840,67.8346,0.013362
195.871,67.8285,0.013362
195.902,67.8223,0.013362
195.933,67.8161,0.013362
195.964,67.8101,0.013418
195.995,67.8037,0.013418
196.026,67.7975,0.013418
196.057,67.7912,0.013418
196.087,67.7854,0.013418
196.118,67.7789,0.013418
196.149,67.7729,0.013418
196.181,67.7665,0.013418
196.211,67.7603,0.013400
196.243,67.7540,0.013400
196.273,67.7479,0.013400
196.304,67.7418,0.013400
196.336,67.7354,0.013400
196.367,67.7292,0.013400
196.398,67.7230,0.013400
196.429,67.7168,0.013400
196.460,67.7105,0.013381
196.491,67.7045,0.013381
196.523,67.6981,0.013381
196.554,67.6920,0.013381
196.585,67.6857,0.013381
196.616,67.6796,0.013381
196.646,67.6734,0.013381
196.678,67.6671,0.013381
196.709,67.6609,0.013390
196.740,67.6547,0.013390
196.771,67.6485,0.013390
196.802,67.6423,0.013390
196.833,67.6363,0.013390
196.864,67.6300,0.013390
196.894,67.6239,0.013390
196.925,67.6177,0.013390
196.956,67.6116,0.013418
196.988,67.6060,0.013418
197.020,67.6012,0.013418
197.051,67.5971,0.013418
197.083,67.5939,0.013418
197.114,67.5913,0.013418
197.145,67.5895,0.013418
197.176,67.5884,0.013418
197.208,67.5882,0.013343
197.239,67.5882,0.013343
197.270,67.5882,0.013343
197.302,67.5882,0.013343
197.333,67.5882,0.013343
197.364,67.5882,0.013343
197.394,67.5882,0.013343
197.426,67.5882,0.013343
197.456,67.5882,0.013343
197.487,67.5882,0.013343
197.519,67.5882,0.013343
197.550,67.5882,0.013343
197.581,67.5882,0.013343
197.612,67.5884,0.013343
197.643,67.5895,0.013343
197.674,67.5913,0.013343
197.705,67.5938,0.013381
197.736,67.5970,0.013381
197.768,67.6010,0.013381
197.799,67.6058,0.013381
197.831,67.6113,0.013381
197.861,67.6175,0.013381
197.892,67.6234,0.013381
197.923,67.6297,0.013381
197.954,67.6359,0.013381
197.985,67.6421,0.013334
198.018,67.6487,0.013334
198.047,67.6544,0.013334
198.078,67.6607,0.013334
198.110,67.6671,0.013334
198.141,67.6734,0.013334
198.173,67.6796,0.013334
198.203,67.6858,0.013353
198.235,67.6919,0.013353
198.266,67.6983,0.013353
198.296,67.7043,0.013353
198.328,67.7107,0.013353
198.359,67.7169,0.013353
198.391,67.7231,0.013353
198.421,67.7293,0.013353
198.453,67.7355,0.013400
198.485,67.7420,0.013400
198.514,67.7479,0.013400
198.546,67.7543,0.013400
198.578,67.7607,0.013400
198.607,67.7664,0.013400
198.637,67.7725,0.013400
198.668,67.7786,0.013400
198.699,67.7849,0.013400
198.730,67.7911,0.013400
198.760,67.7970,0.013400
198.792,67.8035,0.013400
198.823,67.8097,0.013400
198.855,67.8160,0.013400
198.886,67.8222,0.013400
198.917,67.8285,0.013400
198.948,67.8347,0.013381
198.979,67.8408,0.013381
199.011,67.8473,0.013381
199.042,67.8535,0.013381
199.073,67.8595,0.013381
199.104,67.8659,0.013381
199.134,67.8718,0.013381
199.165,67.8780,0.013381
199.195,67.8840,0.013343
199.226,67.8903,0.013343
199.256,67.8963,0.013343
199.288,67.9026,0.013343
199.319,67.9088,0.013343
199.350,67.9152,0.013343
199.382,67.9213,0.013343
199.412,67.9273,0.013343
199.443,67.9336,0.013343
199.475,67.9400,0.013353
199.507,67.9462,0.013353
199.536,67.9523,0.013353
199.568,67.9585,0.013353
199.599,67.9648,0.013353
199.631,67.9713,0.013353
199.661,67.9774,0.013353
199.692,67.9833,0.013353
199.723,67.9895,0.013409
199.753,67.9957,0.013409
199.784,68.0018,0.013409
199.816,68.0083,0.013409
199.847,68.0145,0.013409
199.878,68.0207,0.013409
199.909,68.0267,0.013409
199.940,68.0329,0.013409
199.971,68.0393,0.013428
200.002,68.0453,0.013428
200.033,68.0517,0.013428
200.064,68.0579,0.013428
200.095,68.0639,0.013428
200.126,68.0703,0.013428
200.157,68.0767,0.013428
200.189,68.0829,0.013428
200.221,68.0892,0.013456
200.251,68.0953,0.013456
200.282,68.1015,0.013456
200.313,68.1077,0.013456
200.344,68.1139,0.013456
200.376,68.1202,0.013456
200.406,68.1262,0.013456
200.438,68.1328,0.013456
200.470,68.1391,0.013447
200.501,68.1453,0.013447
200.533,68.1515,0.013447
200.564,68.1577,0.013447
200.594,68.1638,0.013447
200.625,68.1699,0.013447
200.656,68.1763,0.013447
200.686,68.1823,0.013447
200.718,68.1885,0.013418
200.748,68.1947,0.013418
200.780,68.2010,0.013418
200.811,68.2071,0.013418
200.841,68.2131,0.013418
200.872,68.2193,0.013418
200.903,68.2257,0.013418
200.933,68.2316,0.013418
200.965,68.2381,0.013418
200.997,68.2443,0.013400
201.028,68.2506,0.013400
201.059,68.2569,0.013400
201.091,68.2631,0.013400
201.121,68.2693,0.013400
201.153,68.2755,0.013400
201.183,68.2816,0.013400
201.215,68.2880,0.013400
201.245,68.2940,0.013400
201.276,68.3003,0.013418
201.308,68.3065,0.013418
201.339,68.3130,0.013418
201.370,68.3191,0.013418
201.401,68.3251,0.013418
201.432,68.3315,0.013418
201.463,68.3377,0.013418
201.495,68.3440,0.013418
201.526,68.3502,0.013418
201.557,68.3563,0.013418
201.586,68.3622,0.013418
201.618,68.3687,0.013418
201.649,68.3749,0.013418
201.681,68.3811,0.013418
201.712,68.3874,0.013418
201.743,68.3935,0.013381
201.774,68.3999,0.013381
201.806,68.4062,0.013381
201.837,68.4126,0.013381
201.869,68.4186,0.013381
201.898,68.4246,0.013381
201.929,68.4309,0.013381
201.960,68.4371,0.013381
201.991,68.4432,0.013353
202.023,68.4495,0.013353
202.053,68.4556,0.013353
202.084,68.4619,0.013353
202.116,68.4683,0.013353
202.149,68.4748,0.013353
202.179,68.4809,0.013353
202.209,68.4869,0.013353
202.240,68.4932,0.013353
202.271,68.4991,0.013353
202.302,68.5053,0.013353
202.333,68.5115,0.013353
202.364,68.5177,0.013353
202.395,68.5241,0.013353
202.426,68.5303,0.013353
202.457,68.5365,0.013353
202.487,68.5423,0.013371
202.518,68.5487,0.013371
202.550,68.5548,0.013371
202.581,68.5611,0.013371
202.612,68.5673,0.013371
202.643,68.5737,0.013371
202.674,68.5798,0.013371
202.706,68.5863,0.013371
202.737,68.5924,0.013362
202.768,68.5986,0.013362
202.799,68.6048,0.013362
202.830,68.6110,0.013362
202.862,68.6175,0.013362
202.893,68.6237,0.013362
202.924,68.6300,0.013362
202.958,68.6366,0.013371
202.986,68.6423,0.013371
203.019,68.6488,0.013371
203.049,68.6547,0.013371
203.079,68.6609,0.013371
203.110,68.6669,0.013371
203.141,68.6733,0.013371
203.171,68.6791,0.013371
203.202,68.6855,0.013362
203.233,68.6915,0.013362
203.263,68.6978,0.013362
203.293,68.7038,0.013362
203.325,68.7100,0.013362
203.356,68.7163,0.013362
203.387,68.7224,0.013362
203.418,68.7287,0.013362
203.450,68.7352,0.013362
203.480,68.7410,0.013362
203.511,68.7472,0.013362
203.542,68.7534,0.013400
203.572,68.7593,0.013400
203.603,68.7655,0.013400
203.634,68.7717,0.013400
203.665,68.7779,0.013400
203.697,68.7844,0.013400
203.729,68.7907,0.013400
203.760,68.7970,0.013466
203.791,68.8031,0.013466
203.821,68.8093,0.013466
203.852,68.8154,0.013466
203.884,68.8217,0.013466
203.915,68.8279,0.013466
203.946,68.8341,0.013466
203.978,68.8406,0.013409
204.008,68.8465,0.013409
204.038,68.8527,0.013409
204.070,68.8588,0.013409
204.101,68.8650,0.013409
204.132,68.8715,0.013409
204.163,68.8775,0.013409
204.193,68.8836,0.013409
204.225,68.8899,0.013324
204.256,68.8961,0.013324
204.287,68.9023,0.013324
204.320,68.9090,0.013324
204.351,68.9151,0.013324
204.383,68.9216,0.013324
204.414,68.9279,0.013324
204.446,68.9342,0.013324
204.476,68.9402,0.013362
204.507,68.9465,0.013362
204.539,68.9528,0.013362
204.570,68.9590,0.013362
204.602,68.9655,0.013362
204.633,68.9715,0.013362
204.665,68.9780,0.013362
204.695,68.9841,0.013362
204.727,68.9903,0.013400
204.758,68.9966,0.013400
204.789,69.0028,0.013400
204.820,69.0089,0.013400
204.851,69.0152,0.013400
204.882,69.0213,0.013400
204.913,69.0276,0.013400
204.944,69.0339,0.013400
204.975,69.0399,0.013409
205.006,69.0461,0.013409
205.036,69.0523,0.013409
205.068,69.0585,0.013409
205.099,69.0649,0.013409
205.131,69.0711,0.013409
205.161,69.0773,0.013409
205.192,69.0835,0.013409
205.224,69.0897,0.013409
205.256,69.0961,0.013418
205.286,69.1021,0.013418
205.316,69.1083,0.013418
205.347,69.1143,0.013418
205.379,69.1206,0.013418
205.410,69.1269,0.013418
205.442,69.1334,0.013418
205.473,69.1395,0.013428
205.504,69.1457,0.013428
205.534,69.1517,0.013428
205.565,69.1581,0.013428
205.595,69.1640,0.013428
205.627,69.1704,0.013428
205.658,69.1767,0.013428
205.689,69.1828,0.013428
205.720,69.1891,0.013390
205.751,69.1953,0.013390
205.782,69.2015,0.013390
205.814,69.2078,0.013390
205.844,69.2139,0.013390
205.876,69.2201,0.013390
205.907,69.2264,0.013390
205.938,69.2325,0.013390
205.969,69.2388,0.013418
206.001,69.2453,0.013418
206.032,69.2516,0.013418
206.064,69.2578,0.013418
206.096,69.2640,0.013418
206.126,69.2701,0.013418
206.156,69.2761,0.013418
206.187,69.2826,0.013418
206.218,69.2884,0.013428
206.248,69.2945,0.013428
206.279,69.3008,0.013428
206.310,69.3070,0.013428
206.340,69.3130,0.013428
206.372,69.3194,0.013428
206.403,69.3256,0.013428
206.435,69.3320,0.013428
206.467,69.3383,0.013418
206.498,69.3445,0.013418
206.529,69.3507,0.013418
206.561,69.3571,0.013418
206.592,69.3633,0.013418
206.624,69.3698,0.013418
206.655,69.3759,0.013418
206.687,69.3822,0.013418
206.718,69.3886,0.013437
206.748,69.3947,0.013437
206.779,69.4008,0.013437
206.811,69.4071,0.013437
206.841,69.4132,0.013437
206.872,69.4195,0.013437
206.903,69.4256,0.013437
206.934,69.4319,0.013447
206.965,69.4380,0.013447
206.997,69.4444,0.013447
207.028,69.4505,0.013447
207.059,69.4570,0.013447
207.091,69.4630,0.013447
207.122,69.4695,0.013447
207.153,69.4756,0.013447
207.183,69.4817,0.013447
207.214,69.4876,0.013456
207.245,69.4939,0.013456
207.275,69.5000,0.013456
207.306,69.5062,0.013456
207.338,69.5127,0.013456
207.369,69.5189,0.013456
207.400,69.5249,0.013456
207.431,69.5311,0.013456
207.462,69.5373,0.013390
207.492,69.5434,0.013390
207.523,69.5495,0.013390
207.554,69.5557,0.013390
207.585,69.5620,0.013390
207.617,69.5683,0.013390
207.648,69.5744,0.013390
207.678,69.5806,0.013390
207.709,69.5867,0.013381
207.740,69.5931,0.013381
207.771,69.5992,0.013381
207.802,69.6054,0.013381
207.834,69.6116,0.013381
207.865,69.6180,0.013381
207.895,69.6240,0.013381
207.926,69.6302,0.013381
207.956,69.6363,0.013381
207.988,69.6428,0.013390
208.019,69.6487,0.013390
208.050,69.6549,0.013390
208.080,69.6611,0.013390
208.112,69.6672,0.013390
208.143,69.6738,0.013390
208.176,69.6801,0.013390
208.206,69.6863,0.013390
208.238,69.6925,0.013418
208.270,69.6989,0.013418
208.301,69.7050,0.013418
208.332,69.7115,0.013418
208.363,69.7174,0.013418
208.394,69.7236,0.013418
208.424,69.7298,0.013418
208.455,69.7359,0.013418
208.485,69.7420,0.013418
208.517,69.7483,0.013381
208.548,69.7545,0.013381
208.579,69.7607,0.013381
208.610,69.7669,0.013381
208.642,69.7734,0.013381
208.672,69.7793,0.013381
208.702,69.7854,0.013381
208.734,69.7917,0.013343
208.764,69.7978,0.013343
208.795,69.8039,0.013343
208.826,69.8101,0.013343
208.856,69.8161,0.013343
208.887,69.8225,0.013343
208.919,69.8288,0.013343
208.950,69.8350,0.013343
208.981,69.8413,0.013371
209.012,69.8474,0.013371
209.043,69.8536,0.013371
209.074,69.8598,0.013371
209.106,69.8660,0.013371
209.136,69.8722,0.013371
209.167,69.8785,0.013371
209.198,69.8845,0.013371
209.229,69.8909,0.013362
209.261,69.8970,0.013362
209.293,69.9036,0.013362
209.324,69.9097,0.013362
209.355,69.9161,0.013362
209.387,69.9223,0.013362
209.418,69.9285,0.013362
209.449,69.9346,0.013362
209.480,69.9408,0.013409
209.511,69.9472,0.013409
209.541,69.9532,0.013409
209.572,69.9593,0.013409
209.603,69.9658,0.013409
209.634,69.9717,0.013409
209.666,69.9781,0.013409
209.697,69.9843,0.013409
209.729,69.9908,0.013371
209.759,69.9967,0.013371
209.791,70.0030,0.013371
209.821,70.0094,0.013371
209.852,70.0153,0.013371
209.883,70.0216,0.013371
209.914,70.0277,0.013371
209.946,70.0341,0.013371
209.978,70.0406,0.013343
210.009,70.0467,0.013343
210.040,70.0529,0.013343
210.071,70.0592,0.013343
210.103,70.0656,0.013343
210.134,70.0718,0.013343
210.164,70.0778,0.013343
210.196,70.0842,0.013343
210.227,70.0905,0.013362
210.257,70.0962,0.013362
210.288,70.1024,0.013362
210.319,70.1086,0.013362
210.349,70.1148,0.013362
210.381,70.1211,0.013362
210.411,70.1272,0.013362
210.443,70.1335,0.013362
210.476,70.1402,0.013315
210.507,70.1463,0.013315
210.539,70.1526,0.013315
210.570,70.1588,0.013315
210.601,70.1650,0.013315
210.632,70.1713,0.013315
210.663,70.1777,0.013315
210.694,70.1837,0.013362
210.725,70.1898,0.013362
210.756,70.1960,0.013362
210.787,70.2022,0.013362
210.818,70.2087,0.013362
210.850,70.2151,0.013362
210.880,70.2211,0.013362
210.912,70.2273,0.013362
210.943,70.2337,0.013362
210.974,70.2397,0.013418
211.005,70.2460,0.013418
211.036,70.2521,0.013418
211.067,70.2584,0.013418
211.099,70.2646,0.013418
211.130,70.2709,0.013418
211.159,70.2768,0.013418
211.190,70.2828,0.013400
211.221,70.2890,0.013400
211.252,70.2954,0.013400
211.283,70.3017,0.013400
211.314,70.3079,0.013400
211.345,70.3140,0.013400
211.376,70.3202,0.013400
211.407,70.3264,0.013400
211.439,70.3327,0.013400
211.470,70.3389,0.013390
211.500,70.3450,0.013390
211.531,70.3511,0.013390
211.562,70.3573,0.013390
211.593,70.3636,0.013390
211.624,70.3699,0.013390
211.655,70.3760,0.013390
211.687,70.3823,0.013390
211.717,70.3883,0.013437
211.749,70.3946,0.013437
211.781,70.4010,0.013437
211.812,70.4072,0.013437
211.842,70.4134,0.013437
211.873,70.4195,0.013437
211.904,70.4258,0.013437
211.936,70.4320,0.013437
211.967,70.4384,0.013447
211.998,70.4444,0.013447
212.029,70.4508,0.013447
212.060,70.4568,0.013447
212.091,70.4632,0.013447
212.121,70.4692,0.013447
212.152,70.4755,0.013447
212.184,70.4817,0.013447
212.214,70.4877,0.013371
212.245,70.4939,0.013371
212.276,70.5001,0.013371
212.308,70.5067,0.013371
212.339,70.5127,0.013371
212.370,70.5189,0.013371
212.401,70.5252,0.013371
212.432,70.5313,0.013371
212.464,70.5377,0.013381
212.494,70.5438,0.013381
212.526,70.5502,0.013381
212.557,70.5563,0.013381
212.588,70.5625,0.013381
212.619,70.5682,0.013381
212.651,70.5734,0.013381
212.681,70.5776,0.013381
212.713,70.5812,0.013381
212.743,70.5840,0.013456
212.776,70.5862,0.013456
212.806,70.5876,0.013456
212.838,70.5882,0.013456
212.869,70.5882,0.013456
212.899,70.5882,0.013456
212.930,70.5882,0.013456
212.961,70.5882,0.013475
212.993,70.5882,0.013475
213.023,70.5882,0.013475
