Elapsed Time (s),Position (mm),Force (N)
-0.016,82.8882,-0.074319
0.017,82.8882,-0.074319
0.048,82.8882,-0.074319
0.079,82.8882,-0.074319
0.110,82.8882,-0.073369
0.142,82.8882,-0.073369
0.173,82.8882,-0.073369
0.204,82.8882,-0.073369
0.234,82.8882,-0.073369
0.265,82.8882,-0.073369
0.296,82.8882,-0.073369
0.327,82.8882,-0.073369
0.358,82.8882,-0.072324
0.388,82.8882,-0.072324
0.420,82.8882,-0.072324
0.451,82.8882,-0.072324
0.482,82.8882,-0.072324
0.513,82.8882,-0.072324
0.545,82.8882,-0.072324
0.576,82.8882,-0.072324
0.608,82.8882,-0.071402
0.639,82.8882,-0.071402
0.670,82.8882,-0.071402
0.700,82.8882,-0.071402
0.731,82.8882,-0.071402
0.762,82.8882,-0.071402
0.792,82.8882,-0.071402
0.823,82.8882,-0.071402
0.854,82.8882,-0.070527
0.885,82.8882,-0.070527
0.917,82.8882,-0.070527
0.948,82.8882,-0.070527
0.979,82.8882,-0.070527
1.010,82.8882,-0.070527
1.040,82.8882,-0.070527
1.072,82.8882,-0.070527
1.102,82.8882,-0.070527
1.133,82.8882,-0.069718
1.165,82.8882,-0.069718
1.194,82.8882,-0.069718
1.226,82.8882,-0.069718
1.257,82.8882,-0.069718
1.288,82.8882,-0.069718
1.319,82.8882,-0.069718
1.350,82.8882,-0.069718
1.381,82.8882,-0.069718
1.411,82.8882,-0.068908
1.443,82.8882,-0.068908
1.473,82.8882,-0.068908
1.505,82.8882,-0.068908
1.537,82.8882,-0.068908
1.568,82.8882,-0.068908
1.599,82.8882,-0.068908
1.630,82.8882,-0.068908
1.661,82.8882,-0.068146
1.693,82.8882,-0.068146
1.724,82.8882,-0.068146
1.756,82.8882,-0.068146
1.788,82.8882,-0.068146
1.819,82.8882,-0.068146
1.850,82.8882,-0.068146
1.880,82.8882,-0.067403
1.913,82.8882,-0.067403
1.941,82.8882,-0.067403
1.972,82.8882,-0.067403
2.003,82.8882,-0.067403
2.033,82.8882,-0.067403
2.064,82.8882,-0.067403
2.095,82.8882,-0.067403
2.126,82.8882,-0.067403
2.157,82.8882,-0.066650
2.189,82.8882,-0.066650
2.220,82.8882,-0.066650
2.251,82.8882,-0.066650
2.282,82.8882,-0.066650
2.314,82.8882,-0.066650
2.347,82.8882,-0.066650
2.377,82.8882,-0.066650
2.409,82.8882,-0.065973
2.441,82.8882,-0.065973
2.471,82.8882,-0.065973
2.502,82.8882,-0.065973
2.533,82.8882,-0.065973
2.563,82.8882,-0.065973
2.595,82.8882,-0.065973
2.625,82.8882,-0.065973
2.655,82.8882,-0.065257
2.686,82.8882,-0.065257
2.717,82.8882,-0.065257
2.748,82.8882,-0.065257
2.779,82.8882,-0.065257
2.811,82.8882,-0.065257
2.842,82.8882,-0.065257
2.872,82.8882,-0.065257
2.903,82.8882,-0.064561
2.934,82.8882,-0.064561
2.965,82.8882,-0.064561
2.996,82.8882,-0.064561
3.027,82.8882,-0.064561
3.057,82.8882,-0.064561
3.088,82.8882,-0.064561
3.120,82.8882,-0.064561
3.151,82.8882,-0.063902
3.182,82.8882,-0.063902
3.213,82.8882,-0.063902
3.244,82.8882,-0.063902
3.276,82.8882,-0.063902
3.307,82.8882,-0.063902
3.338,82.8882,-0.063902
3.370,82.8882,-0.063262
3.401,82.8882,-0.063262
3.432,82.8882,-0.063262
3.462,82.8882,-0.063262
3.493,82.8882,-0.063262
3.524,82.8882,-0.063262
3.555,82.8882,-0.063262
3.585,82.8882,-0.063262
3.616,82.8882,-0.063262
3.648,82.8882,-0.062594
3.679,82.8882,-0.062594
3.709,82.8882,-0.062594
3.740,82.8882,-0.062594
3.771,82.8882,-0.062594
3.802,82.8882,-0.062594
3.834,82.8882,-0.062594
3.865,82.8882,-0.061945
3.896,82.8882,-0.061945
3.928,82.8882,-0.061945
3.960,82.8882,-0.061945
3.991,82.8882,-0.061945
4.022,82.8882,-0.061945
4.053,82.8882,-0.061945
4.084,82.8882,-0.061945
4.116,82.8882,-0.061343
4.147,82.8881,-0.061343
4.179,82.8873,-0.061343
4.210,82.8859,-0.061343
4.242,82.8836,-0.061343
4.273,82.8805,-0.061343
4.304,82.8769,-0.061343
4.335,82.8723,-0.061343
4.367,82.8671,-0.060430
4.398,82.8612,-0.060430
4.429,82.8550,-0.060430
4.461,82.8485,-0.060430
4.492,82.8424,-0.060430
4.524,82.8360,-0.060430
4.555,82.8299,-0.060430
4.586,82.8235,-0.060430
4.617,82.8175,-0.055800
4.648,82.8112,-0.055800
4.678,82.8052,-0.055800
4.708,82.7990,-0.055800
4.741,82.7927,-0.055800
4.774,82.7861,-0.055800
4.803,82.7803,-0.055800
4.835,82.7739,-0.055800
4.865,82.7678,-0.046720
4.896,82.7617,-0.046720
4.926,82.7556,-0.046720
4.957,82.7494,-0.046720
4.988,82.7431,-0.046720
5.019,82.7372,-0.046720
5.050,82.7308,-0.046720
5.081,82.7246,-0.046720
5.111,82.7183,-0.036793
5.143,82.7123,-0.036793
5.174,82.7061,-0.036793
5.205,82.6998,-0.036793
5.235,82.6937,-0.036793
5.266,82.6875,-0.036793
5.298,82.6813,-0.036793
5.329,82.6751,-0.036793
5.361,82.6688,-0.027100
5.390,82.6627,-0.027100
5.421,82.6568,-0.027100
5.452,82.6505,-0.027100
5.484,82.6441,-0.027100
5.515,82.6379,-0.027100
5.546,82.6316,-0.027100
5.576,82.6257,-0.027100
5.608,82.6192,-0.027100
5.639,82.6133,-0.027100
5.670,82.6068,-0.017512
5.700,82.6007,-0.017512
5.731,82.5945,-0.017512
5.762,82.5884,-0.017512
5.793,82.5822,-0.017512
5.823,82.5763,-0.017512
5.855,82.5697,-0.017512
5.887,82.5635,-0.008027
5.919,82.5569,-0.008027
5.950,82.5509,-0.008027
5.981,82.5444,-0.008027
6.013,82.5382,-0.008027
6.044,82.5320,-0.008027
6.076,82.5258,-0.008027
6.108,82.5194,-0.008027
6.139,82.5129,0.001374
6.170,82.5067,0.001374
6.201,82.5008,0.001374
6.232,82.4944,0.001374
6.264,82.4882,0.001374
6.294,82.4819,0.001374
6.325,82.4760,0.001374
6.356,82.4696,0.001374
6.388,82.4634,0.010887
6.418,82.4571,0.010887
6.450,82.4509,0.010887
6.481,82.4446,0.010887
6.512,82.4385,0.010887
6.543,82.4322,0.010887
6.574,82.4260,0.010887
6.605,82.4198,0.010887
6.636,82.4138,0.020391
6.666,82.4076,0.020391
6.698,82.4013,0.020391
6.729,82.3951,0.020391
6.760,82.3888,0.020391
6.791,82.3827,0.020391
6.822,82.3765,0.020391
6.852,82.3704,0.020391
6.884,82.3641,0.029886
6.915,82.3579,0.029886
6.948,82.3513,0.029886
6.977,82.3455,0.029886
7.008,82.3393,0.029886
7.039,82.3330,0.029886
7.070,82.3268,0.029886
7.102,82.3206,0.029886
7.133,82.3142,0.039465
7.165,82.3079,0.039465
7.196,82.3017,0.039465
7.227,82.2953,0.039465
7.259,82.2892,0.039465
7.290,82.2829,0.039465
7.321,82.2768,0.039465
7.352,82.2705,0.049119
7.382,82.2645,0.049119
7.414,82.2582,0.049119
7.447,82.2516,0.049119
7.476,82.2456,0.049119
7.507,82.2394,0.049119
7.539,82.2332,0.049119
7.570,82.2268,0.049119
7.601,82.2206,0.049119
7.632,82.2143,0.059028
7.663,82.2082,0.059028
7.695,82.2017,0.059028
7.726,82.1957,0.059028
7.758,82.1892,0.059028
7.789,82.1830,0.059028
7.820,82.1767,0.059028
7.852,82.1706,0.069191
7.884,82.1640,0.069191
7.915,82.1580,0.069191
7.945,82.1519,0.069191
7.977,82.1456,0.069191
8.007,82.1395,0.069191
8.037,82.1333,0.069191
8.069,82.1271,0.069191
8.100,82.1206,0.079579
8.131,82.1147,0.079579
8.162,82.1082,0.079579
8.193,82.1023,0.079579
8.224,82.0958,0.079579
8.255,82.0897,0.079579
8.286,82.0835,0.079579
8.316,82.0776,0.079579
8.347,82.0713,0.090259
8.377,82.0656,0.090259
8.408,82.0592,0.090259
8.440,82.0529,0.090259
8.471,82.0467,0.090259
8.501,82.0405,0.090259
8.533,82.0342,0.090259
8.564,82.0281,0.090259
8.596,82.0218,0.101203
8.627,82.0156,0.101203
8.658,82.0093,0.101203
8.689,82.0031,0.101203
8.720,81.9969,0.101203
8.752,81.9905,0.101203
8.783,81.9842,0.101203
8.815,81.9778,0.101203
8.844,81.9719,0.101203
8.874,81.9661,0.112542
8.905,81.9598,0.112542
8.937,81.9536,0.112542
8.968,81.9472,0.112542
8.998,81.9413,0.112542
9.028,81.9352,0.112542
9.060,81.9289,0.112542
9.091,81.9227,0.124220
9.122,81.9165,0.124220
9.153,81.9103,0.124220
9.184,81.9042,0.124220
9.215,81.8980,0.124220
9.246,81.8918,0.124220
9.276,81.8855,0.124220
9.308,81.8792,0.124220
9.338,81.8733,0.124220
9.369,81.8671,0.136123
9.400,81.8609,0.136123
9.432,81.8546,0.136123
9.462,81.8483,0.136123
9.493,81.8423,0.136123
9.524,81.8360,0.136123
9.557,81.8297,0.136123
9.586,81.8237,0.136123
9.616,81.8175,0.148346
9.647,81.8114,0.148346
9.680,81.8050,0.148346
9.709,81.7990,0.148346
9.742,81.7925,0.148346
9.771,81.7866,0.148346
9.803,81.7803,0.148346
9.833,81.7742,0.148346
9.865,81.7679,0.160909
9.896,81.7617,0.160909
9.929,81.7553,0.160909
9.958,81.7493,0.160909
9.989,81.7430,0.160909
10.020,81.7369,0.160909
10.051,81.7306,0.160909
10.082,81.7246,0.160909
10.113,81.7183,0.160909
10.144,81.7120,0.173791
10.175,81.7058,0.173791
10.206,81.6994,0.173791
10.238,81.6934,0.173791
10.268,81.6870,0.173791
10.299,81.6811,0.173791
10.330,81.6748,0.173791
10.361,81.6686,0.173791
10.392,81.6622,0.187087
10.424,81.6562,0.187087
10.454,81.6498,0.187087
10.486,81.6438,0.187087
10.517,81.6373,0.187087
10.549,81.6311,0.187087
10.580,81.6249,0.187087
10.611,81.6187,0.187087
10.642,81.6126,0.200769
10.673,81.6063,0.200769
10.704,81.6002,0.200769
10.735,81.5939,0.200769
10.766,81.5877,0.200769
10.798,81.5814,0.200769
10.828,81.5753,0.200769
10.858,81.5692,0.200769
10.888,81.5633,0.214865
10.919,81.5571,0.214865
10.951,81.5509,0.214865
10.982,81.5445,0.214865
11.013,81.5383,0.214865
11.044,81.5320,0.214865
11.075,81.5258,0.214865
11.106,81.5197,0.214865
11.138,81.5134,0.229431
11.169,81.5071,0.229431
11.200,81.5008,0.229431
11.232,81.4946,0.229431
11.262,81.4885,0.229431
11.293,81.4823,0.229431
11.324,81.4761,0.229431
11.355,81.4698,0.229431
11.386,81.4637,0.244336
11.417,81.4576,0.244336
11.447,81.4515,0.244336
11.479,81.4452,0.244336
11.510,81.4390,0.244336
11.542,81.4325,0.244336
11.573,81.4265,0.244336
11.603,81.4203,0.244336
11.634,81.4141,0.259627
11.666,81.4076,0.259627
11.697,81.4015,0.259627
11.728,81.3953,0.259627
11.759,81.3893,0.259627
11.790,81.3828,0.259627
11.821,81.3769,0.259627
11.852,81.3704,0.275257
11.883,81.3643,0.275257
11.915,81.3580,0.275257
11.945,81.3519,0.275257
11.976,81.3456,0.275257
12.009,81.3392,0.275257
12.039,81.3331,0.275257
12.069,81.3269,0.275257
12.100,81.3209,0.275257
12.130,81.3150,0.291235
12.161,81.3085,0.291235
12.192,81.3026,0.291235
12.222,81.2965,0.291235
12.253,81.2902,0.291235
12.284,81.2841,0.291235
12.316,81.2778,0.291235
12.346,81.2717,0.291235
12.378,81.2651,0.307524
12.409,81.2592,0.307524
12.440,81.2527,0.307524
12.472,81.2465,0.307524
12.503,81.2402,0.307524
12.535,81.2341,0.307524
12.565,81.2278,0.307524
12.596,81.2218,0.324170
12.628,81.2153,0.324170
12.659,81.2092,0.324170
12.690,81.2027,0.324170
12.722,81.1965,0.324170
12.754,81.1901,0.324170
12.784,81.1841,0.324170
12.815,81.1781,0.324170
12.846,81.1717,0.324170
12.877,81.1655,0.341192
12.908,81.1592,0.341192
12.939,81.1531,0.341192
12.970,81.1469,0.341192
13.001,81.1407,0.341192
13.031,81.1346,0.341192
13.063,81.1283,0.341192
13.094,81.1221,0.341192
13.125,81.1159,0.341192
13.156,81.1097,0.358516
13.188,81.1033,0.358516
13.219,81.0972,0.358516
13.250,81.0909,0.358516
13.282,81.0847,0.358516
13.313,81.0783,0.358516
13.343,81.0724,0.358516
13.374,81.0661,0.358516
13.407,81.0595,0.376272
13.437,81.0534,0.376272
13.469,81.0470,0.376272
13.499,81.0411,0.376272
13.530,81.0349,0.376272
13.561,81.0286,0.376272
13.592,81.0227,0.376272
13.623,81.0163,0.376272
13.654,81.0102,0.394546
13.684,81.0040,0.394546
13.715,80.9978,0.394546
13.747,80.9914,0.394546
13.778,80.9853,0.394546
13.809,80.9791,0.394546
13.841,80.9728,0.394546
13.873,80.9663,0.413215
13.903,80.9603,0.413215
13.934,80.9541,0.413215
13.964,80.9481,0.413215
13.995,80.9419,0.413215
14.026,80.9356,0.413215
14.057,80.9296,0.413215
14.089,80.9233,0.413215
14.120,80.9170,0.432138
14.151,80.9107,0.432138
14.181,80.9047,0.432138
14.212,80.8985,0.432138
14.243,80.8923,0.432138
14.274,80.8862,0.432138
14.305,80.8800,0.432138
14.337,80.8736,0.432138
14.368,80.8674,0.432138
14.398,80.8613,0.451400
14.429,80.8551,0.451400
14.463,80.8484,0.451400
14.492,80.8424,0.451400
14.522,80.8365,0.451400
14.553,80.8302,0.451400
14.585,80.8240,0.451400
14.616,80.8176,0.471086
14.648,80.8112,0.471086
14.679,80.8052,0.471086
14.709,80.7993,0.471086
14.739,80.7931,0.471086
14.770,80.7869,0.471086
14.802,80.7806,0.471086
14.833,80.7744,0.471086
14.864,80.7682,0.471086
14.896,80.7617,0.491072
14.927,80.7555,0.491072
14.959,80.7492,0.491072
14.990,80.7430,0.491072
15.021,80.7367,0.491072
15.052,80.7306,0.491072
15.083,80.7244,0.491072
15.114,80.7180,0.511294
15.145,80.7120,0.511294
15.177,80.7056,0.511294
15.207,80.6997,0.511294
15.237,80.6935,0.511294
15.268,80.6873,0.511294
15.299,80.6812,0.511294
15.329,80.6751,0.511294
15.360,80.6689,0.511294
15.392,80.6625,0.531836
15.423,80.6563,0.531836
15.454,80.6501,0.531836
15.485,80.6440,0.531836
15.516,80.6377,0.531836
15.547,80.6316,0.531836
15.579,80.6250,0.531836
15.608,80.6193,0.531836
15.640,80.6130,0.552744
15.672,80.6066,0.552744
15.702,80.6005,0.552744
15.733,80.5943,0.552744
15.764,80.5882,0.552744
15.795,80.5820,0.552744
15.826,80.5757,0.552744
15.858,80.5693,0.552744
15.889,80.5633,0.573945
15.920,80.5569,0.573945
15.952,80.5506,0.573945
15.983,80.5444,0.573945
16.015,80.5381,0.573945
16.046,80.5318,0.573945
16.077,80.5256,0.573945
16.108,80.5194,0.573945
16.139,80.5132,0.595230
16.170,80.5070,0.595230
16.200,80.5008,0.595230
16.231,80.4947,0.595230
16.261,80.4887,0.595230
16.292,80.4827,0.595230
16.324,80.4761,0.595230
16.354,80.4701,0.595230
16.386,80.4638,0.616364
16.416,80.4577,0.616364
16.447,80.4514,0.616364
16.477,80.4456,0.616364
16.509,80.4392,0.616364
16.540,80.4329,0.616364
16.572,80.4266,0.616364
16.602,80.4205,0.616364
16.633,80.4144,0.637123
16.664,80.4081,0.637123
16.694,80.4022,0.637123
16.725,80.3960,0.637123
16.760,80.3890,0.637123
16.786,80.3836,0.637123
16.818,80.3774,0.637123
16.849,80.3712,0.637123
16.879,80.3650,0.658013
16.911,80.3588,0.658013
16.942,80.3523,0.658013
16.973,80.3462,0.658013
17.004,80.3399,0.658013
17.036,80.3338,0.658013
17.068,80.3274,0.658013
17.098,80.3214,0.658013
17.129,80.3152,0.679749
17.160,80.3089,0.679749
17.191,80.3027,0.679749
17.222,80.2965,0.679749
17.253,80.2903,0.679749
17.285,80.2841,0.679749
17.318,80.2774,0.679749
17.348,80.2714,0.700639
17.378,80.2652,0.700639
17.409,80.2593,0.700639
17.440,80.2527,0.700639
17.471,80.2468,0.700639
17.502,80.2404,0.700639
17.534,80.2341,0.700639
17.564,80.2280,0.700639
17.595,80.2218,0.700639
17.625,80.2158,0.721322
17.657,80.2097,0.721322
17.688,80.2032,0.721322
17.719,80.1972,0.721322
17.750,80.1908,0.721322
17.781,80.1847,0.721322
17.811,80.1787,0.721322
17.843,80.1723,0.721322
17.876,80.1656,0.744414
17.904,80.1601,0.744414
17.935,80.1539,0.744414
17.966,80.1478,0.744414
17.997,80.1415,0.744414
18.028,80.1353,0.744414
18.059,80.1289,0.744414
18.090,80.1229,0.744414
18.122,80.1165,0.769058
18.153,80.1103,0.769058
18.184,80.1040,0.769058
18.215,80.0979,0.769058
18.246,80.0917,0.769058
18.277,80.0855,0.769058
18.308,80.0793,0.769058
18.340,80.0729,0.794136
18.371,80.0668,0.794136
18.402,80.0605,0.794136
18.435,80.0540,0.794136
18.464,80.0481,0.794136
18.494,80.0420,0.794136
18.525,80.0359,0.794136
18.556,80.0296,0.794136
18.587,80.0235,0.794136
18.618,80.0173,0.819194
18.648,80.0112,0.819194
18.680,80.0048,0.819194
18.712,79.9986,0.819194
18.743,79.9923,0.819194
18.775,79.9861,0.819194
18.806,79.9796,0.819194
18.836,79.9738,0.819194
18.868,79.9671,0.844412
18.897,79.9616,0.844412
18.928,79.9553,0.844412
18.960,79.9490,0.844412
18.991,79.9428,0.844412
19.022,79.9365,0.844412
19.054,79.9301,0.844412
19.086,79.9238,0.870186
19.117,79.9175,0.870186
19.148,79.9114,0.870186
19.179,79.9053,0.870186
19.210,79.8990,0.870186
19.241,79.8929,0.870186
19.271,79.8867,0.870186
19.302,79.8805,0.870186
19.333,79.8743,0.870186
19.366,79.8677,0.895903
19.396,79.8617,0.895903
19.426,79.8565,0.895903
19.457,79.8517,0.895903
19.488,79.8477,0.895903
19.519,79.8443,0.895903
19.550,79.8417,0.895903
19.581,79.8397,0.895903
19.612,79.8386,0.895903
19.643,79.8382,0.918402
19.674,79.8382,0.918402
19.704,79.8382,0.918402
19.736,79.8384,0.918402
19.767,79.8391,0.918402
19.798,79.8407,0.918402
19.829,79.8428,0.918402
19.861,79.8460,0.918402
19.893,79.8498,0.927116
19.924,79.8544,0.927116
19.956,79.8597,0.927116
19.988,79.8656,0.927116
20.019,79.8722,0.927116
20.050,79.8782,0.927116
20.080,79.8841,0.927116
20.112,79.8906,0.914121
20.142,79.8965,0.914121
20.173,79.9026,0.914121
20.204,79.9090,0.914121
20.235,79.9151,0.914121
20.266,79.9216,0.914121
20.298,79.9276,0.914121
20.328,79.9340,0.914121
20.359,79.9399,0.914121
20.393,79.9466,0.880659
20.422,79.9526,0.880659
20.455,79.9592,0.880659
20.485,79.9651,0.880659
20.515,79.9713,0.880659
20.546,79.9774,0.880659
20.578,79.9837,0.880659
20.608,79.9898,0.840037
20.639,79.9959,0.840037
20.671,80.0023,0.840037
20.700,80.0083,0.840037
20.732,80.0146,0.840037
20.763,80.0207,0.840037
20.794,80.0270,0.840037
20.825,80.0331,0.840037
20.856,80.0393,0.840037
20.887,80.0455,0.803160
20.918,80.0517,0.803160
20.949,80.0579,0.803160
20.981,80.0644,0.803160
21.012,80.0706,0.803160
21.043,80.0767,0.803160
21.074,80.0829,0.803160
21.105,80.0893,0.803160
21.136,80.0953,0.768832
21.166,80.1014,0.768832
21.197,80.1076,0.768832
21.228,80.1138,0.768832
21.260,80.1200,0.768832
21.291,80.1265,0.768832
21.322,80.1325,0.768832
21.353,80.1389,0.736406
21.384,80.1449,0.736406
21.415,80.1513,0.736406
21.447,80.1575,0.736406
21.478,80.1638,0.736406
21.508,80.1697,0.736406
21.540,80.1762,0.736406
21.570,80.1821,0.736406
21.601,80.1886,0.736406
21.633,80.1947,0.705410
21.664,80.2009,0.705410
21.695,80.2071,0.705410
21.725,80.2132,0.705410
21.756,80.2194,0.705410
21.787,80.2256,0.705410
21.817,80.2315,0.705410
21.847,80.2376,0.705410
21.881,80.2443,0.675967
21.910,80.2502,0.675967
21.941,80.2563,0.675967
21.972,80.2626,0.675967
22.003,80.2688,0.675967
22.035,80.2753,0.675967
22.067,80.2815,0.675967
22.098,80.2877,0.675967
22.130,80.2943,0.647803
22.161,80.3002,0.647803
22.193,80.3067,0.647803
22.224,80.3129,0.647803
22.254,80.3188,0.647803
22.284,80.3251,0.647803
22.316,80.3313,0.647803
22.347,80.3377,0.620646
22.378,80.3440,0.620646
22.410,80.3501,0.620646
22.441,80.3563,0.620646
22.472,80.3625,0.620646
22.503,80.3686,0.620646
22.534,80.3750,0.620646
22.565,80.3811,0.620646
22.596,80.3873,0.620646
22.626,80.3934,0.594449
22.657,80.3997,0.594449
22.688,80.4058,0.594449
22.719,80.4120,0.594449
22.750,80.4180,0.594449
22.780,80.4241,0.594449
22.812,80.4306,0.594449
22.842,80.4366,0.594449
22.872,80.4425,0.569221
22.904,80.4488,0.569221
22.937,80.4555,0.569221
22.966,80.4613,0.569221
22.997,80.4675,0.569221
23.028,80.4737,0.569221
23.059,80.4799,0.569221
23.090,80.4861,0.569221
23.120,80.4921,0.544972
23.151,80.4984,0.544972
23.182,80.5045,0.544972
23.213,80.5107,0.544972
23.244,80.5168,0.544972
23.275,80.5232,0.544972
23.307,80.5297,0.544972
23.338,80.5356,0.544972
23.369,80.5419,0.521457
23.400,80.5483,0.521457
23.431,80.5542,0.521457
23.462,80.5605,0.521457
23.493,80.5667,0.521457
23.524,80.5731,0.521457
23.555,80.5793,0.521457
23.586,80.5853,0.498675
23.617,80.5917,0.498675
23.649,80.5979,0.498675
23.679,80.6042,0.498675
23.711,80.6104,0.498675
23.743,80.6167,0.498675
23.774,80.6229,0.498675
23.804,80.6290,0.498675
23.835,80.6352,0.498675
23.867,80.6415,0.476694
23.896,80.6475,0.476694
23.928,80.6536,0.476694
23.959,80.6598,0.476694
23.990,80.6661,0.476694
24.021,80.6724,0.476694
24.052,80.6786,0.476694
24.084,80.6848,0.476694
24.115,80.6911,0.476694
24.146,80.6973,0.455352
24.179,80.7039,0.455352
24.209,80.7100,0.455352
24.241,80.7164,0.455352
24.272,80.7225,0.455352
24.303,80.7290,0.455352
24.335,80.7350,0.455352
24.367,80.7416,0.455352
24.398,80.7476,0.434660
24.430,80.7543,0.434660
24.462,80.7605,0.434660
24.493,80.7667,0.434660
24.523,80.7727,0.434660
24.554,80.7789,0.434660
24.585,80.7851,0.434660
24.616,80.7915,0.434660
24.648,80.7977,0.414692
24.678,80.8039,0.414692
24.709,80.8098,0.414692
24.740,80.8160,0.414692
24.771,80.8225,0.414692
24.802,80.8284,0.414692
24.833,80.8346,0.414692
24.863,80.8407,0.414692
24.895,80.8472,0.395374
24.926,80.8534,0.395374
24.957,80.8596,0.395374
24.988,80.8658,0.395374
25.019,80.8720,0.395374
25.050,80.8782,0.395374
25.081,80.8842,0.395374
25.112,80.8904,0.376724
25.143,80.8968,0.376724
25.174,80.9030,0.376724
25.205,80.9092,0.376724
25.236,80.9155,0.376724
25.267,80.9216,0.376724
25.298,80.9276,0.376724
25.329,80.9340,0.376724
25.360,80.9401,0.358676
25.391,80.9465,0.358676
25.422,80.9525,0.358676
25.453,80.9588,0.358676
25.484,80.9649,0.358676
25.514,80.9711,0.358676
25.546,80.9773,0.358676
25.577,80.9836,0.358676
25.609,80.9899,0.341060
25.638,80.9959,0.341060
25.669,81.0019,0.341060
25.701,81.0084,0.341060
25.732,81.0143,0.341060
25.763,81.0209,0.341060
25.795,81.0270,0.341060
25.826,81.0333,0.341060
25.857,81.0394,0.323953
25.888,81.0457,0.323953
25.918,81.0518,0.323953
25.949,81.0580,0.323953
25.980,81.0642,0.323953
26.011,81.0704,0.323953
26.042,81.0765,0.323953
26.074,81.0829,0.323953
26.104,81.0889,0.323953
26.136,81.0953,0.307392
26.166,81.1013,0.307392
26.196,81.1074,0.307392
26.227,81.1136,0.307392
26.258,81.1196,0.307392
26.289,81.1260,0.307392
26.320,81.1322,0.307392
26.352,81.1384,0.291339
26.383,81.1447,0.291339
26.414,81.1509,0.291339
26.446,81.1573,0.291339
26.478,81.1635,0.291339
26.508,81.1697,0.291339
26.540,81.1759,0.291339
26.570,81.1821,0.291339
26.601,81.1885,0.275822
26.633,81.1947,0.275822
26.663,81.2007,0.275822
26.694,81.2071,0.275822
26.726,81.2132,0.275822
26.756,81.2195,0.275822
26.787,81.2254,0.275822
26.817,81.2315,0.275822
26.848,81.2377,0.275822
26.880,81.2440,0.275822
26.910,81.2501,0.260766
26.941,81.2563,0.260766
26.972,81.2624,0.260766
27.004,81.2687,0.260766
27.035,81.2750,0.260766
27.066,81.2812,0.260766
27.097,81.2877,0.260766
27.128,81.2936,0.246077
27.159,81.2998,0.246077
27.189,81.3059,0.246077
27.220,81.3120,0.246077
27.251,81.3183,0.246077
27.282,81.3244,0.246077
27.311,81.3304,0.246077
27.343,81.3367,0.246077
27.373,81.3428,0.231915
27.405,81.3492,0.231915
27.436,81.3554,0.231915
27.468,81.3617,0.231915
27.499,81.3678,0.231915
27.529,81.3739,0.231915
27.560,81.3801,0.231915
27.591,81.3864,0.231915
27.622,81.3925,0.218309
27.653,81.3988,0.218309
27.684,81.4049,0.218309
27.715,81.4112,0.218309
27.746,81.4173,0.218309
27.777,81.4236,0.218309
27.808,81.4297,0.218309
27.839,81.4360,0.218309
27.870,81.4420,0.205050
27.902,81.4485,0.205050
27.933,81.4547,0.205050
27.964,81.4611,0.205050
27.996,81.4673,0.205050
28.028,81.4737,0.205050
28.059,81.4798,0.205050
28.090,81.4863,0.205050
28.122,81.4925,0.192432
28.155,81.4991,0.192432
28.185,81.5050,0.192432
28.216,81.5114,0.192432
28.247,81.5174,0.192432
28.277,81.5236,0.192432
28.308,81.5297,0.192432
28.339,81.5360,0.192432
28.370,81.5422,0.180133
28.401,81.5484,0.180133
28.432,81.5545,0.180133
28.462,81.5605,0.180133
28.493,81.5669,0.180133
28.525,81.5731,0.180133
28.557,81.5795,0.180133
28.587,81.5855,0.180133
28.618,81.5918,0.167806
28.650,81.5982,0.167806
28.681,81.6043,0.167806
28.712,81.6106,0.167806
28.743,81.6167,0.167806
28.774,81.6228,0.167806
28.806,81.6291,0.167806
28.837,81.6356,0.167806
28.868,81.6415,0.167806
28.900,81.6481,0.155846
28.930,81.6541,0.155846
28.961,81.6603,0.155846
28.992,81.6667,0.155846
29.024,81.6728,0.155846
29.055,81.6792,0.155846
29.087,81.6854,0.155846
29.118,81.6918,0.144338
29.148,81.6977,0.144338
29.180,81.7042,0.144338
29.211,81.7102,0.144338
29.242,81.7166,0.144338
29.273,81.7228,0.144338
29.304,81.7290,0.144338
29.336,81.7353,0.144338
29.367,81.7416,0.133234
29.398,81.7477,0.133234
29.429,81.7539,0.133234
29.460,81.7601,0.133234
29.491,81.7663,0.133234
29.522,81.7724,0.133234
29.553,81.7786,0.133234
29.583,81.7847,0.133234
29.614,81.7910,0.122319
29.645,81.7972,0.122319
29.676,81.8033,0.122319
29.708,81.8097,0.122319
29.739,81.8159,0.122319
29.770,81.8221,0.122319
29.801,81.8282,0.122319
29.833,81.8348,0.122319
29.864,81.8407,0.111648
29.894,81.8469,0.111648
29.925,81.8531,0.111648
29.956,81.8593,0.111648
29.987,81.8659,0.111648
30.019,81.8718,0.111648
30.049,81.8782,0.111648
30.080,81.8841,0.111648
30.111,81.8904,0.101391
30.144,81.8969,0.101391
30.173,81.9028,0.101391
30.205,81.9089,0.101391
30.237,81.9155,0.101391
30.267,81.9213,0.101391
30.298,81.9277,0.101391
30.329,81.9339,0.101391
30.359,81.9399,0.101391
30.390,81.9463,0.091520
30.422,81.9525,0.091520
30.452,81.9585,0.091520
30.484,81.9650,0.091520
30.515,81.9711,0.091520
30.547,81.9774,0.091520
30.576,81.9832,0.091520
30.607,81.9897,0.091520
30.639,81.9957,0.081950
30.669,82.0019,0.081950
30.701,82.0081,0.081950
30.733,82.0146,0.081950
30.762,82.0205,0.081950
30.793,82.0267,0.081950
30.825,82.0331,0.081950
30.856,82.0393,0.081950
30.885,82.0451,0.072456
30.917,82.0514,0.072456
30.947,82.0575,0.072456
30.978,82.0637,0.072456
31.010,82.0702,0.072456
31.040,82.0761,0.072456
31.071,82.0822,0.072456
31.102,82.0885,0.072456
31.133,82.0947,0.063084
31.164,82.1008,0.063084
31.195,82.1070,0.063084
31.226,82.1132,0.063084
31.257,82.1194,0.063084
31.287,82.1257,0.063084
31.319,82.1318,0.063084
31.350,82.1382,0.063084
31.382,82.1444,0.054003
31.413,82.1509,0.054003
31.444,82.1568,0.054003
31.475,82.1632,0.054003
31.506,82.1692,0.054003
31.537,82.1754,0.054003
31.568,82.1817,0.054003
31.600,82.1880,0.054003
31.630,82.1944,0.054003
31.661,82.2003,0.045026
31.693,82.2066,0.045026
31.724,82.2129,0.045026
31.755,82.2191,0.045026
31.785,82.2252,0.045026
31.817,82.2315,0.045026
31.848,82.2377,0.045026
31.879,82.2440,0.036181
31.911,82.2502,0.036181
31.942,82.2567,0.036181
31.973,82.2626,0.036181
32.004,82.2687,0.036181
32.035,82.2752,0.036181
32.066,82.2812,0.036181
32.097,82.2874,0.036181
32.128,82.2935,0.027552
32.159,82.3000,0.027552
32.190,82.3060,0.027552
32.221,82.3121,0.027552
32.253,82.3187,0.027552
32.282,82.3246,0.027552
32.314,82.3310,0.027552
32.345,82.3369,0.027552
32.375,82.3429,0.019036
32.407,82.3493,0.019036
32.438,82.3555,0.019036
32.468,82.3619,0.019036
32.499,82.3678,0.019036
32.531,82.3743,0.019036
32.563,82.3806,0.019036
32.593,82.3867,0.010633
32.624,82.3929,0.010633
32.654,82.3988,0.010633
32.685,82.4050,0.010633
32.716,82.4112,0.010633
32.746,82.4173,0.010633
32.779,82.4237,0.010633
32.809,82.4298,0.010633
32.840,82.4360,0.010633
32.871,82.4422,0.002249
32.902,82.4484,0.002249
32.933,82.4549,0.002249
32.964,82.4610,0.002249
32.997,82.4674,0.002249
33.027,82.4735,0.002249
33.059,82.4798,0.002249
33.089,82.4860,0.002249
33.119,82.4920,-0.006060
33.151,82.4982,-0.006060
33.182,82.5045,-0.006060
33.213,82.5107,-0.006060
33.244,82.5170,-0.006060
33.275,82.5231,-0.006060
33.305,82.5293,-0.006060
33.336,82.5354,-0.006060
33.368,82.5417,-0.014331
33.400,82.5480,-0.014331
33.430,82.5541,-0.014331
33.461,82.5604,-0.014331
33.492,82.5666,-0.014331
33.523,82.5728,-0.014331
33.554,82.5790,-0.014331
33.586,82.5852,-0.014331
33.617,82.5913,-0.022715
33.648,82.5975,-0.022715
33.678,82.6037,-0.022715
33.710,82.6102,-0.022715
33.740,82.6161,-0.022715
33.773,82.6227,-0.022715
33.804,82.6288,-0.022715
33.835,82.6350,-0.031043
33.865,82.6413,-0.031043
33.897,82.6474,-0.031043
33.928,82.6538,-0.031043
33.959,82.6599,-0.031043
33.990,82.6662,-0.031043
34.021,82.6723,-0.031043
34.053,82.6787,-0.031043
34.085,82.6849,-0.031043
34.116,82.6914,-0.039324
34.147,82.6975,-0.039324
34.178,82.7038,-0.039324
34.209,82.7099,-0.039324
34.240,82.7161,-0.039324
34.270,82.7220,-0.039324
34.301,82.7282,-0.039324
34.332,82.7344,-0.039324
34.363,82.7406,-0.039324
34.394,82.7469,-0.047652
34.426,82.7533,-0.047652
34.457,82.7595,-0.047652
34.487,82.7654,-0.047652
34.519,82.7719,-0.047652
34.550,82.7782,-0.047652
34.580,82.7843,-0.047652
34.611,82.7904,-0.047652
34.643,82.7967,-0.056092
34.675,82.8030,-0.056092
34.705,82.8091,-0.056092
34.736,82.8150,-0.056092
34.767,82.8206,-0.056092
34.798,82.8252,-0.056092
34.829,82.8292,-0.056092
34.860,82.8325,-0.056092
34.891,82.8350,-0.056092
34.923,82.8369,-0.064486
34.953,82.8379,-0.064486
34.984,82.8382,-0.064486
35.016,82.8382,-0.064486
35.047,82.8382,-0.064486
35.078,82.8382,-0.064486
35.109,82.8382,-0.064486
35.140,82.8382,-0.070367
35.173,82.8382,-0.070367
35.203,82.8382,-0.070367
35.233,82.8382,-0.070367
35.264,82.8382,-0.070367
35.295,82.8382,-0.070367
35.326,82.8382,-0.070367
35.357,82.8382,-0.070367
35.389,82.8382,-0.071581
35.420,82.8382,-0.071581
35.452,82.8382,-0.071581
35.483,82.8382,-0.071581
35.514,82.8382,-0.071581
35.545,82.8382,-0.071581
35.577,82.8382,-0.071581
35.609,82.8382,-0.071581
35.640,82.8382,-0.070508
35.670,82.8382,-0.070508
35.700,82.8382,-0.070508
35.732,82.8382,-0.070508
35.763,82.8382,-0.070508
35.793,82.8382,-0.070508
35.824,82.8382,-0.070508
35.855,82.8382,-0.070508
35.886,82.8382,-0.069511
35.918,82.8382,-0.069511
35.949,82.8382,-0.069511
35.980,82.8382,-0.069511
36.011,82.8382,-0.069511
36.041,82.8382,-0.069511
36.071,82.8382,-0.069511
36.103,82.8382,-0.069511
36.134,82.8382,-0.068617
36.166,82.8382,-0.068617
36.196,82.8382,-0.068617
36.227,82.8382,-0.068617
36.258,82.8382,-0.068617
36.289,82.8382,-0.068617
36.321,82.8382,-0.068617
36.354,82.8382,-0.068617
36.384,82.8382,-0.067770
36.416,82.8382,-0.067770
36.447,82.8382,-0.067770
36.479,82.8382,-0.067770
36.510,82.8382,-0.067770
36.541,82.8382,-0.067770
36.572,82.8382,-0.067770
36.604,82.8382,-0.067770
36.635,82.8382,-0.066942
36.666,82.8382,-0.066942
36.696,82.8382,-0.066942
36.727,82.8382,-0.066942
36.758,82.8382,-0.066942
36.789,82.8382,-0.066942
36.819,82.8382,-0.066942
36.850,82.8382,-0.066942
36.880,82.8382,-0.066942
36.912,82.8382,-0.066180
36.944,82.8382,-0.066180
36.975,82.8382,-0.066180
37.006,82.8382,-0.066180
37.036,82.8382,-0.066180
37.067,82.8382,-0.066180
37.098,82.8382,-0.066180
37.129,82.8382,-0.065455
37.160,82.8382,-0.065455
37.192,82.8382,-0.065455
37.223,82.8382,-0.065455
37.254,82.8382,-0.065455
37.285,82.8382,-0.065455
37.316,82.8382,-0.065455
37.348,82.8382,-0.065455
37.379,82.8382,-0.065455
37.410,82.8382,-0.064655
37.441,82.8382,-0.064655
37.471,82.8382,-0.064655
37.502,82.8382,-0.064655
37.533,82.8382,-0.064655
37.565,82.8382,-0.064655
37.596,82.8382,-0.064655
37.629,82.8382,-0.064655
37.659,82.8382,-0.063884
37.691,82.8382,-0.063884
37.722,82.8382,-0.063884
37.753,82.8382,-0.063884
37.783,82.8382,-0.063884
37.814,82.8382,-0.063884
37.845,82.8382,-0.063884
37.877,82.8382,-0.063884
37.909,82.8382,-0.063178
37.939,82.8382,-0.063178
37.969,82.8382,-0.063178
38.000,82.8382,-0.063178
38.031,82.8382,-0.063178
38.063,82.8382,-0.063178
38.094,82.8382,-0.063178
38.125,82.8382,-0.063178
38.157,82.8382,-0.062491
38.189,82.8382,-0.062491
38.220,82.8382,-0.062491
38.252,82.8382,-0.062491
38.282,82.8382,-0.062491
38.314,82.8382,-0.062491
38.345,82.8382,-0.062491
38.377,82.8382,-0.061832
38.408,82.8382,-0.061832
38.439,82.8382,-0.061832
38.470,82.8382,-0.061832
38.500,82.8382,-0.061832
38.532,82.8382,-0.061832
38.563,82.8382,-0.061832
38.596,82.8382,-0.061832
38.625,82.8382,-0.061155
38.656,82.8382,-0.061155
38.686,82.8382,-0.061155
38.717,82.8382,-0.061155
38.748,82.8382,-0.061155
38.779,82.8382,-0.061155
38.810,82.8382,-0.061155
38.841,82.8382,-0.061155
38.871,82.8382,-0.060487
38.903,82.8382,-0.060487
38.934,82.8382,-0.060487
38.966,82.8382,-0.060487
38.997,82.8382,-0.060487
39.029,82.8382,-0.060487
39.060,82.8382,-0.060487
39.091,82.8382,-0.060487
39.123,82.8382,-0.059837
39.154,82.8382,-0.059837
39.184,82.8382,-0.059837
39.215,82.8382,-0.059837
39.246,82.8382,-0.059837
39.277,82.8382,-0.059837
39.308,82.8382,-0.059837
39.339,82.8382,-0.059244
39.370,82.8382,-0.059244
39.400,82.8382,-0.059244
39.431,82.8382,-0.059244
39.462,82.8382,-0.059244
39.492,82.8382,-0.059244
39.524,82.8382,-0.059244
39.556,82.8382,-0.059244
39.588,82.8382,-0.059244
39.619,82.8382,-0.058614
39.651,82.8376,-0.058614
39.681,82.8365,-0.058614
39.712,82.8344,-0.058614
39.742,82.8319,-0.058614
39.773,82.8284,-0.058614
39.804,82.8242,-0.058614
39.835,82.8195,-0.058614
39.867,82.8137,-0.057504
39.897,82.8077,-0.057504
39.927,82.8015,-0.057504
39.959,82.7953,-0.057504
39.990,82.7889,-0.057504
40.022,82.7828,-0.057504
40.052,82.7766,-0.057504
40.083,82.7705,-0.057504
40.114,82.7641,-0.057504
40.145,82.7581,-0.052441
40.176,82.7518,-0.052441
40.208,82.7456,-0.052441
40.239,82.7394,-0.052441
40.270,82.7331,-0.052441
40.301,82.7269,-0.052441
40.332,82.7207,-0.052441
40.363,82.7143,-0.052441
40.395,82.7081,-0.043069
40.426,82.7017,-0.043069
40.457,82.6956,-0.043069
40.488,82.6893,-0.043069
40.519,82.6833,-0.043069
40.549,82.6771,-0.043069
40.581,82.6709,-0.043069
40.612,82.6646,-0.033057
40.642,82.6585,-0.033057
40.673,82.6523,-0.033057
40.705,82.6462,-0.033057
40.735,82.6402,-0.033057
40.766,82.6340,-0.033057
40.796,82.6279,-0.033057
40.827,82.6214,-0.033057
40.858,82.6155,-0.023205
40.889,82.6093,-0.023205
40.921,82.6030,-0.023205
40.951,82.5968,-0.023205
40.982,82.5906,-0.023205
41.013,82.5846,-0.023205
41.044,82.5784,-0.023205
41.074,82.5722,-0.023205
41.106,82.5660,-0.013513
41.137,82.5597,-0.013513
41.168,82.5536,-0.013513
41.199,82.5471,-0.013513
41.230,82.5411,-0.013513
41.260,82.5350,-0.013513
41.292,82.5288,-0.013513
41.323,82.5226,-0.013513
41.354,82.5164,-0.003867
41.385,82.5101,-0.003867
41.416,82.5040,-0.003867
41.447,82.4975,-0.003867
41.478,82.4916,-0.003867
41.508,82.4853,-0.003867
41.539,82.4792,-0.003867
41.569,82.4731,-0.003867
41.600,82.4670,0.005834
41.632,82.4607,0.005834
41.663,82.4545,0.005834
41.693,82.4483,0.005834
41.724,82.4422,0.005834
41.756,82.4359,0.005834
41.787,82.4298,0.005834
41.818,82.4236,0.005834
41.849,82.4173,0.005834
41.880,82.4111,0.015442
41.911,82.4049,0.015442
41.942,82.3987,0.015442
41.975,82.3922,0.015442
42.003,82.3863,0.015442
42.035,82.3801,0.015442
42.065,82.3740,0.015442
42.096,82.3678,0.015442
42.127,82.3616,0.025077
42.159,82.3553,0.025077
42.189,82.3491,0.025077
42.221,82.3429,0.025077
42.251,82.3369,0.025077
42.282,82.3307,0.025077
42.313,82.3244,0.025077
42.344,82.3181,0.025077
42.375,82.3121,0.034873
42.406,82.3059,0.034873
42.437,82.2997,0.034873
42.468,82.2934,0.034873
42.499,82.2872,0.034873
42.530,82.2811,0.034873
42.561,82.2748,0.034873
42.592,82.2686,0.034873
42.623,82.2625,0.034873
42.654,82.2564,0.044687
42.684,82.2502,0.044687
42.716,82.2438,0.044687
42.747,82.2377,0.044687
42.779,82.2314,0.044687
42.810,82.2249,0.044687
42.841,82.2189,0.044687
42.872,82.2128,0.054662
42.903,82.2065,0.054662
42.934,82.2004,0.054662
42.965,82.1941,0.054662
42.995,82.1881,0.054662
43.027,82.1815,0.054662
43.058,82.1754,0.054662
43.090,82.1691,0.054662
43.121,82.1629,0.064937
43.151,82.1567,0.064937
43.183,82.1505,0.064937
43.213,82.1444,0.064937
43.244,82.1382,0.064937
43.275,82.1320,0.064937
43.306,82.1260,0.064937
43.337,82.1196,0.064937
43.368,82.1134,0.075458
43.400,82.1071,0.075458
43.431,82.1009,0.075458
43.462,82.0946,0.075458
43.493,82.0884,0.075458
43.525,82.0822,0.075458
43.555,82.0761,0.075458
43.586,82.0699,0.075458
43.617,82.0637,0.086251
43.648,82.0575,0.086251
43.678,82.0513,0.086251
43.708,82.0453,0.086251
43.740,82.0391,0.086251
43.771,82.0328,0.086251
43.801,82.0269,0.086251
43.832,82.0205,0.086251
43.863,82.0145,0.097260
43.894,82.0083,0.097260
43.926,82.0019,0.097260
43.957,81.9956,0.097260
43.988,81.9894,0.097260
44.019,81.9833,0.097260
44.050,81.9770,0.097260
44.081,81.9708,0.097260
44.112,81.9647,0.097260
44.143,81.9584,0.108627
44.175,81.9522,0.108627
44.206,81.9458,0.108627
44.237,81.9397,0.108627
44.269,81.9332,0.108627
44.299,81.9273,0.108627
44.330,81.9212,0.108627
44.361,81.9149,0.108627
44.392,81.9088,0.120361
44.423,81.9023,0.120361
44.454,81.8963,0.120361
44.486,81.8898,0.120361
44.516,81.8837,0.120361
44.547,81.8777,0.120361
44.578,81.8715,0.120361
44.610,81.8651,0.132321
44.640,81.8591,0.132321
44.671,81.8527,0.132321
44.703,81.8465,0.132321
44.734,81.8402,0.132321
44.766,81.8340,0.132321
44.796,81.8279,0.132321
44.826,81.8219,0.132321
44.858,81.8155,0.144573
44.888,81.8095,0.144573
44.919,81.8033,0.144573
44.950,81.7971,0.144573
44.981,81.7907,0.144573
45.012,81.7847,0.144573
45.044,81.7785,0.144573
45.074,81.7722,0.144573
45.106,81.7660,0.157201
45.137,81.7595,0.157201
45.169,81.7533,0.157201
45.200,81.7471,0.157201
45.232,81.7409,0.157201
45.263,81.7345,0.157201
45.293,81.7283,0.157201
45.324,81.7224,0.157201
45.354,81.7162,0.157201
45.384,81.7102,0.157201
45.415,81.7040,0.170149
45.446,81.6978,0.170149
45.478,81.6915,0.170149
45.510,81.6852,0.170149
45.540,81.6789,0.170149
45.572,81.6727,0.170149
45.603,81.6665,0.183558
45.634,81.6604,0.183558
45.664,81.6544,0.183558
45.694,81.6481,0.183558
45.726,81.6419,0.183558
45.756,81.6359,0.183558
45.787,81.6297,0.183558
45.818,81.6235,0.183558
45.849,81.6173,0.183558
45.881,81.6110,0.183558
45.911,81.6049,0.197372
45.941,81.5989,0.197372
45.973,81.5925,0.197372
46.003,81.5866,0.197372
46.034,81.5804,0.197372
46.065,81.5742,0.197372
46.096,81.5677,0.197372
46.127,81.5618,0.211534
46.158,81.5556,0.211534
46.188,81.5495,0.211534
46.220,81.5431,0.211534
46.251,81.5371,0.211534
46.283,81.5305,0.211534
46.314,81.5245,0.211534
46.344,81.5181,0.211534
46.375,81.5122,0.211534
46.406,81.5060,0.226147
46.437,81.4998,0.226147
46.468,81.4933,0.226147
46.499,81.4875,0.226147
46.529,81.4813,0.226147
46.560,81.4750,0.226147
46.592,81.4686,0.226147
46.623,81.4626,0.241099
46.655,81.4561,0.241099
46.686,81.4500,0.241099
46.717,81.4437,0.241099
46.748,81.4374,0.241099
46.779,81.4312,0.241099
46.809,81.4252,0.241099
46.841,81.4189,0.241099
46.871,81.4128,0.256400
46.902,81.4066,0.256400
46.933,81.4006,0.256400
46.965,81.3941,0.256400
46.995,81.3880,0.256400
47.026,81.3817,0.256400
47.057,81.3759,0.256400
47.088,81.3695,0.256400
47.118,81.3635,0.272048
47.150,81.3570,0.272048
47.180,81.3512,0.272048
47.212,81.3447,0.272048
47.242,81.3388,0.272048
47.274,81.3322,0.272048
47.305,81.3261,0.272048
47.336,81.3199,0.272048
47.367,81.3135,0.288017
47.399,81.3073,0.288017
47.430,81.3012,0.288017
47.461,81.2949,0.288017
47.492,81.2888,0.288017
47.523,81.2825,0.288017
47.554,81.2763,0.288017
47.585,81.2701,0.288017
47.616,81.2640,0.304324
47.646,81.2579,0.304324
47.677,81.2517,0.304324
47.709,81.2453,0.304324
47.740,81.2391,0.304324
47.772,81.2326,0.304324
47.803,81.2265,0.304324
47.834,81.2203,0.304324
47.866,81.2140,0.320989
47.896,81.2078,0.320989
47.927,81.2019,0.320989
47.958,81.1957,0.320989
47.988,81.1895,0.320989
48.019,81.1833,0.320989
48.050,81.1768,0.320989
48.081,81.1710,0.320989
48.113,81.1644,0.338021
48.142,81.1586,0.338021
48.175,81.1521,0.338021
48.205,81.1461,0.338021
48.236,81.1399,0.338021
48.268,81.1335,0.338021
48.300,81.1272,0.338021
48.329,81.1212,0.338021
48.361,81.1146,0.355439
48.391,81.1090,0.355439
48.422,81.1028,0.355439
48.453,81.0966,0.355439
48.486,81.0900,0.355439
48.516,81.0839,0.355439
48.547,81.0777,0.355439
48.578,81.0715,0.355439
48.608,81.0654,0.355439
48.640,81.0591,0.373251
48.671,81.0530,0.373251
48.701,81.0468,0.373251
48.732,81.0406,0.373251
48.763,81.0346,0.373251
48.794,81.0284,0.373251
48.825,81.0223,0.373251
48.856,81.0161,0.373251
48.886,81.0100,0.391488
48.920,81.0033,0.391488
48.949,80.9974,0.391488
48.980,80.9910,0.391488
49.011,80.9849,0.391488
49.042,80.9787,0.391488
49.073,80.9724,0.391488
49.104,80.9663,0.391488
49.134,80.9603,0.410138
49.166,80.9539,0.410138
49.197,80.9476,0.410138
49.228,80.9414,0.410138
49.260,80.9352,0.410138
49.290,80.9291,0.410138
49.321,80.9231,0.410138
49.351,80.9170,0.410138
49.382,80.9108,0.429099
49.413,80.9043,0.429099
49.444,80.8983,0.429099
49.476,80.8918,0.429099
49.507,80.8859,0.429099
49.538,80.8797,0.429099
49.569,80.8735,0.429099
49.600,80.8672,0.429099
49.631,80.8608,0.448361
49.662,80.8547,0.448361
49.694,80.8484,0.448361
49.725,80.8422,0.448361
49.756,80.8360,0.448361
49.787,80.8297,0.448361
49.817,80.8237,0.448361
49.848,80.8175,0.448361
49.880,80.8113,0.467962
49.910,80.8051,0.467962
49.942,80.7988,0.467962
49.973,80.7926,0.467962
50.003,80.7865,0.467962
50.034,80.7802,0.467962
50.064,80.7745,0.467962
50.095,80.7683,0.467962
50.126,80.7620,0.487911
50.158,80.7556,0.487911
50.189,80.7493,0.487911
50.220,80.7432,0.487911
50.250,80.7369,0.487911
50.282,80.7307,0.487911
50.313,80.7246,0.487911
50.344,80.7184,0.487911
50.375,80.7122,0.508161
50.406,80.7060,0.508161
50.437,80.6998,0.508161
50.468,80.6936,0.508161
50.499,80.6874,0.508161
50.530,80.6812,0.508161
50.560,80.6751,0.508161
50.591,80.6689,0.508161
50.622,80.6629,0.528655
50.654,80.6564,0.528655
50.684,80.6503,0.528655
50.716,80.6440,0.528655
50.747,80.6377,0.528655
50.778,80.6315,0.528655
50.809,80.6254,0.528655
50.840,80.6192,0.528655
50.872,80.6128,0.549442
50.902,80.6068,0.549442
50.933,80.6006,0.549442
50.964,80.5944,0.549442
50.995,80.5882,0.549442
51.025,80.5820,0.549442
51.057,80.5758,0.549442
51.089,80.5695,0.549442
51.119,80.5633,0.570501
51.151,80.5569,0.570501
51.181,80.5509,0.570501
51.212,80.5447,0.570501
51.243,80.5386,0.570501
51.274,80.5323,0.570501
51.306,80.5261,0.570501
51.336,80.5200,0.570501
51.367,80.5137,0.591579
51.398,80.5075,0.591579
51.429,80.5011,0.591579
51.460,80.4952,0.591579
51.491,80.4887,0.591579
51.522,80.4828,0.591579
51.552,80.4766,0.591579
51.583,80.4705,0.591579
51.614,80.4643,0.612488
51.645,80.4580,0.612488
51.676,80.4520,0.612488
51.707,80.4457,0.612488
51.739,80.4394,0.612488
51.770,80.4330,0.612488
51.801,80.4270,0.612488
51.832,80.4208,0.612488
51.863,80.4144,0.612488
51.894,80.4084,0.612488
51.925,80.4022,0.633283
51.957,80.3956,0.633283
51.986,80.3899,0.633283
52.017,80.3838,0.633283
52.048,80.3776,0.633283
52.079,80.3713,0.633283
52.110,80.3652,0.633283
52.142,80.3589,0.654361
52.173,80.3526,0.654361
52.204,80.3464,0.654361
52.236,80.3399,0.654361
52.268,80.3336,0.654361
52.299,80.3274,0.654361
52.329,80.3213,0.654361
52.360,80.3151,0.654361
52.391,80.3090,0.676023
52.422,80.3028,0.676023
52.452,80.2967,0.676023
52.483,80.2904,0.676023
52.514,80.2845,0.676023
52.546,80.2779,0.676023
52.576,80.2721,0.676023
52.608,80.2656,0.676023
52.638,80.2595,0.698597
52.671,80.2531,0.698597
52.700,80.2471,0.698597
52.731,80.2408,0.698597
52.763,80.2346,0.698597
52.795,80.2280,0.698597
52.826,80.2220,0.698597
52.857,80.2158,0.698597
52.889,80.2094,0.720757
52.920,80.2031,0.720757
52.951,80.1970,0.720757
52.981,80.1910,0.720757
53.012,80.1847,0.720757
53.043,80.1784,0.720757
53.074,80.1723,0.720757
53.105,80.1661,0.720757
53.136,80.1598,0.742861
53.167,80.1537,0.742861
53.199,80.1473,0.742861
53.231,80.1410,0.742861
53.262,80.1346,0.742861
53.292,80.1287,0.742861
53.324,80.1224,0.742861
53.355,80.1160,0.742861
53.386,80.1097,0.766979
53.418,80.1036,0.766979
53.449,80.0972,0.766979
53.481,80.0909,0.766979
53.512,80.0848,0.766979
53.543,80.0786,0.766979
53.573,80.0725,0.766979
53.604,80.0663,0.792197
53.636,80.0601,0.792197
53.667,80.0538,0.792197
53.699,80.0472,0.792197
53.730,80.0411,0.792197
53.760,80.0351,0.792197
53.791,80.0289,0.792197
53.823,80.0224,0.792197
53.854,80.0163,0.792197
53.884,80.0102,0.817660
53.916,80.0039,0.817660
53.947,79.9977,0.817660
53.978,79.9916,0.817660
54.010,79.9851,0.817660
54.041,79.9791,0.817660
54.072,79.9727,0.817660
54.104,79.9665,0.843453
54.136,79.9599,0.843453
54.166,79.9539,0.843453
54.198,79.9475,0.843453
54.228,79.9415,0.843453
54.259,79.9355,0.843453
54.289,79.9291,0.843453
54.320,79.9232,0.843453
54.352,79.9167,0.869443
54.382,79.9108,0.869443
54.414,79.9043,0.869443
54.446,79.8979,0.869443
54.476,79.8918,0.869443
54.507,79.8859,0.869443
54.540,79.8793,0.869443
54.570,79.8733,0.869443
54.601,79.8670,0.869443
54.631,79.8610,0.894539
54.662,79.8548,0.894539
54.693,79.8486,0.894539
54.724,79.8424,0.894539
54.757,79.8359,0.894539
54.786,79.8299,0.894539
54.818,79.8237,0.894539
54.849,79.8174,0.919616
54.879,79.8116,0.919616
54.910,79.8059,0.919616
54.940,79.8014,0.919616
54.971,79.7973,0.919616
55.002,79.7942,0.919616
55.033,79.7915,0.919616
55.063,79.7897,0.919616
55.095,79.7886,0.919616
55.126,79.7882,0.943404
55.158,79.7882,0.943404
55.188,79.7882,0.943404
55.219,79.7882,0.943404
55.250,79.7882,0.943404
55.281,79.7882,0.943404
55.313,79.7882,0.943404
55.344,79.7890,0.952343
55.376,79.7905,0.952343
55.406,79.7925,0.952343
55.438,79.7954,0.952343
55.468,79.7989,0.952343
55.498,79.8031,0.952343
55.529,79.8081,0.952343
55.560,79.8139,0.952343
55.592,79.8202,0.952343
55.622,79.8263,0.943931
55.654,79.8326,0.943931
55.685,79.8388,0.943931
55.716,79.8452,0.943931
55.747,79.8512,0.943931
55.779,79.8576,0.943931
55.810,79.8639,0.943931
55.842,79.8702,0.915777
55.873,79.8766,0.915777
55.904,79.8828,0.915777
55.935,79.8888,0.915777
55.965,79.8949,0.915777
55.997,79.9012,0.915777
56.027,79.9072,0.915777
56.059,79.9136,0.915777
56.090,79.9198,0.915777
56.120,79.9259,0.874053
56.151,79.9320,0.874053
56.182,79.9382,0.874053
56.214,79.9446,0.874053
56.245,79.9508,0.874053
56.275,79.9569,0.874053
56.306,79.9630,0.874053
56.338,79.9696,0.874053
56.369,79.9756,0.835360
56.400,79.9820,0.835360
56.432,79.9884,0.835360
56.462,79.9942,0.835360
56.493,80.0006,0.835360
56.524,80.0068,0.835360
56.556,80.0131,0.835360
56.586,80.0192,0.835360
56.617,80.0254,0.799584
56.649,80.0316,0.799584
56.679,80.0378,0.799584
56.710,80.0439,0.799584
56.742,80.0503,0.799584
56.773,80.0564,0.799584
56.805,80.0628,0.799584
56.837,80.0692,0.799584
56.868,80.0756,0.765906
56.898,80.0816,0.765906
56.928,80.0874,0.765906
56.959,80.0936,0.765906
56.991,80.1000,0.765906
57.022,80.1064,0.765906
57.053,80.1126,0.765906
57.085,80.1188,0.733658
57.115,80.1248,0.733658
57.148,80.1314,0.733658
57.178,80.1374,0.733658
57.209,80.1434,0.733658
57.239,80.1498,0.733658
57.270,80.1559,0.733658
57.302,80.1622,0.733658
57.333,80.1685,0.733658
57.365,80.1747,0.733658
57.396,80.1810,0.702709
57.427,80.1872,0.702709
57.458,80.1934,0.702709
57.490,80.1998,0.702709
57.522,80.2062,0.702709
57.552,80.2123,0.702709
57.583,80.2184,0.702709
57.614,80.2248,0.702709
57.645,80.2309,0.673059
57.677,80.2372,0.673059
57.708,80.2434,0.673059
57.740,80.2497,0.673059
57.770,80.2558,0.673059
57.801,80.2620,0.673059
57.831,80.2681,0.673059
57.863,80.2744,0.673059
57.894,80.2807,0.644651
57.926,80.2871,0.644651
57.957,80.2933,0.644651
57.988,80.2995,0.644651
58.019,80.3055,0.644651
58.050,80.3119,0.644651
58.081,80.3181,0.644651
58.112,80.3244,0.644651
58.143,80.3304,0.617381
58.174,80.3368,0.617381
58.205,80.3429,0.617381
58.236,80.3491,0.617381
58.267,80.3552,0.617381
58.298,80.3614,0.617381
58.329,80.3676,0.617381
58.360,80.3739,0.617381
58.391,80.3800,0.590996
58.422,80.3863,0.590996
58.454,80.3926,0.590996
58.486,80.3989,0.590996
58.518,80.4055,0.590996
58.547,80.4113,0.590996
58.578,80.4173,0.590996
58.609,80.4236,0.565598
58.640,80.4297,0.565598
58.671,80.4359,0.565598
58.702,80.4421,0.565598
58.733,80.4484,0.565598
58.764,80.4545,0.565598
58.794,80.4607,0.565598
58.825,80.4668,0.565598
58.856,80.4730,0.565598
58.887,80.4793,0.541189
58.918,80.4856,0.541189
58.949,80.4917,0.541189
58.981,80.4980,0.541189
59.012,80.5041,0.541189
59.043,80.5104,0.541189
59.073,80.5166,0.541189
59.105,80.5228,0.541189
59.136,80.5292,0.517542
59.167,80.5354,0.517542
59.198,80.5414,0.517542
59.229,80.5475,0.517542
59.259,80.5537,0.517542
59.290,80.5598,0.517542
59.322,80.5664,0.517542
59.353,80.5724,0.494676
59.385,80.5790,0.494676
59.416,80.5850,0.494676
59.448,80.5915,0.494676
59.479,80.5975,0.494676
59.510,80.6037,0.494676
59.540,80.6098,0.494676
59.571,80.6160,0.494676
59.601,80.6222,0.472572
59.633,80.6284,0.472572
59.663,80.6346,0.472572
59.694,80.6405,0.472572
59.725,80.6467,0.472572
59.756,80.6531,0.472572
59.788,80.6594,0.472572
59.819,80.6657,0.472572
59.850,80.6718,0.472572
59.881,80.6781,0.472572
59.913,80.6843,0.451156
59.944,80.6906,0.451156
59.976,80.6970,0.451156
60.007,80.7033,0.451156
60.037,80.7092,0.451156
60.068,80.7156,0.451156
60.099,80.7216,0.451156
60.131,80.7281,0.430388
60.163,80.7343,0.430388
60.194,80.7406,0.430388
60.225,80.7468,0.430388
60.257,80.7531,0.430388
60.286,80.7590,0.430388
60.317,80.7653,0.430388
60.349,80.7715,0.430388
60.380,80.7777,0.430388
60.411,80.7839,0.410345
60.442,80.7904,0.410345
60.473,80.7964,0.410345
60.504,80.8026,0.410345
60.535,80.8087,0.410345
60.565,80.8148,0.410345
60.597,80.8212,0.410345
60.628,80.8274,0.391027
60.658,80.8334,0.391027
60.690,80.8398,0.391027
60.720,80.8458,0.391027
60.752,80.8521,0.391027
60.783,80.8584,0.391027
60.813,80.8646,0.391027
60.845,80.8708,0.391027
60.874,80.8767,0.372357
60.906,80.8830,0.372357
60.937,80.8891,0.372357
60.968,80.8954,0.372357
60.998,80.9014,0.372357
61.029,80.9076,0.372357
61.060,80.9138,0.372357
61.092,80.9202,0.372357
61.123,80.9264,0.354140
61.154,80.9326,0.354140
61.185,80.9387,0.354140
61.215,80.9448,0.354140
61.246,80.9510,0.354140
61.277,80.9574,0.354140
61.308,80.9634,0.354140
61.339,80.9697,0.354140
61.369,80.9756,0.354140
61.400,80.9820,0.336431
61.432,80.9880,0.336431
61.464,80.9946,0.336431
61.494,81.0007,0.336431
61.525,81.0069,0.336431
61.556,81.0130,0.336431
61.588,81.0194,0.336431
61.618,81.0254,0.319295
61.650,81.0317,0.319295
61.681,81.0380,0.319295
61.712,81.0442,0.319295
61.743,81.0504,0.319295
61.774,81.0566,0.319295
61.805,81.0627,0.319295
61.836,81.0690,0.319295
61.867,81.0752,0.302677
61.898,81.0814,0.302677
61.930,81.0878,0.302677
61.959,81.0936,0.302677
61.991,81.1000,0.302677
62.021,81.1060,0.302677
62.053,81.1122,0.302677
62.083,81.1185,0.302677
62.114,81.1246,0.286605
62.146,81.1312,0.286605
62.177,81.1372,0.286605
62.208,81.1433,0.286605
62.239,81.1495,0.286605
62.270,81.1557,0.286605
62.300,81.1619,0.286605
62.331,81.1679,0.286605
62.362,81.1742,0.286605
62.393,81.1803,0.286605
62.424,81.1866,0.271023
62.455,81.1928,0.271023
62.486,81.1991,0.271023
62.517,81.2052,0.271023
62.549,81.2117,0.271023
62.580,81.2179,0.271023
62.612,81.2242,0.271023
62.643,81.2303,0.256023
62.674,81.2367,0.256023
62.705,81.2428,0.256023
62.736,81.2489,0.256023
62.767,81.2551,0.256023
62.798,81.2613,0.256023
62.829,81.2677,0.256023
62.860,81.2738,0.256023
62.890,81.2798,0.241476
62.922,81.2861,0.241476
62.952,81.2923,0.241476
62.984,81.2986,0.241476
63.015,81.3047,0.241476
63.045,81.3108,0.241476
63.075,81.3168,0.241476
63.107,81.3233,0.241476
63.139,81.3295,0.227295
63.170,81.3358,0.227295
63.201,81.3420,0.227295
63.233,81.3483,0.227295
63.263,81.3544,0.227295
63.294,81.3606,0.227295
63.324,81.3666,0.227295
63.356,81.3730,0.227295
63.387,81.3791,0.213594
63.418,81.3853,0.213594
63.449,81.3916,0.213594
63.481,81.3978,0.213594
63.512,81.4040,0.213594
63.543,81.4105,0.213594
63.573,81.4164,0.213594
63.605,81.4226,0.213594
63.635,81.4288,0.200289
63.667,81.4352,0.200289
63.698,81.4414,0.200289
63.729,81.4477,0.200289
63.760,81.4538,0.200289
63.791,81.4601,0.200289
63.823,81.4663,0.200289
63.854,81.4725,0.200289
63.884,81.4788,0.187341
63.916,81.4849,0.187341
63.946,81.4910,0.187341
63.977,81.4972,0.187341
64.008,81.5034,0.187341
64.039,81.5096,0.187341
64.069,81.5156,0.187341
64.099,81.5217,0.187341
64.131,81.5280,0.174741
64.162,81.5341,0.174741
64.193,81.5403,0.174741
64.225,81.5468,0.174741
64.256,81.5532,0.174741
64.286,81.5592,0.174741
64.318,81.5654,0.174741
64.350,81.5718,0.162555
64.380,81.5777,0.162555
64.411,81.5841,0.162555
64.441,81.5899,0.162555
64.472,81.5963,0.162555
64.504,81.6026,0.162555
64.535,81.6089,0.162555
64.567,81.6151,0.162555
64.598,81.6214,0.150718
64.629,81.6275,0.150718
64.661,81.6340,0.150718
64.691,81.6400,0.150718
64.722,81.6462,0.150718
64.753,81.6523,0.150718
64.783,81.6584,0.150718
64.815,81.6646,0.150718
64.845,81.6708,0.150718
64.877,81.6772,0.139623
64.908,81.6833,0.139623
64.939,81.6896,0.139623
64.970,81.6959,0.139623
65.001,81.7019,0.139623
65.031,81.7080,0.139623
65.062,81.7142,0.139623
65.093,81.7203,0.139623
65.124,81.7266,0.128755
65.155,81.7327,0.128755
65.186,81.7391,0.128755
65.218,81.7455,0.128755
65.248,81.7515,0.128755
65.279,81.7575,0.128755
65.311,81.7638,0.128755
65.342,81.7701,0.128755
65.373,81.7762,0.117793
65.404,81.7825,0.117793
65.434,81.7886,0.117793
65.466,81.7949,0.117793
65.498,81.8013,0.117793
65.529,81.8076,0.117793
65.560,81.8138,0.117793
65.591,81.8201,0.117793
65.622,81.8261,0.107272
65.652,81.8322,0.107272
65.684,81.8386,0.107272
65.715,81.8448,0.107272
65.747,81.8513,0.107272
65.778,81.8573,0.107272
65.809,81.8637,0.107272
65.840,81.8697,0.107272
65.871,81.8762,0.097053
65.903,81.8823,0.097053
65.933,81.8885,0.097053
65.965,81.8948,0.097053
65.995,81.9010,0.097053
66.027,81.9071,0.097053
66.057,81.9133,0.097053
66.089,81.9195,0.097053
66.120,81.9259,0.086947
66.151,81.9319,0.086947
66.182,81.9382,0.086947
66.213,81.9444,0.086947
66.244,81.9505,0.086947
66.275,81.9568,0.086947
66.305,81.9630,0.086947
66.336,81.9691,0.077104
66.368,81.9753,0.077104
66.399,81.9816,0.077104
66.430,81.9877,0.077104
66.461,81.9941,0.077104
66.493,82.0003,0.077104
66.524,82.0065,0.077104
66.555,82.0127,0.077104
66.587,82.0192,0.077104
66.617,82.0251,0.067572
66.649,82.0315,0.067572
66.680,82.0378,0.067572
66.712,82.0441,0.067572
66.745,82.0508,0.067572
66.775,82.0566,0.067572
66.806,82.0631,0.067572
66.837,82.0690,0.067572
66.868,82.0752,0.058200
66.898,82.0814,0.058200
66.930,82.0878,0.058200
66.960,82.0940,0.058200
66.991,82.0999,0.058200
67.021,82.1061,0.058200
67.052,82.1121,0.058200
67.083,82.1184,0.058200
67.113,82.1244,0.049044
67.146,82.1310,0.049044
67.177,82.1372,0.049044
67.207,82.1433,0.049044
67.239,82.1497,0.049044
67.270,82.1557,0.049044
67.301,82.1621,0.049044
67.332,82.1681,0.049044
67.364,82.1745,0.049044
67.395,82.1807,0.040058
67.427,82.1871,0.040058
67.457,82.1932,0.040058
67.488,82.1993,0.040058
67.519,82.2056,0.040058
67.551,82.2119,0.040058
67.582,82.2180,0.040058
67.613,82.2243,0.040058
67.644,82.2304,0.031165
67.674,82.2366,0.031165
67.706,82.2428,0.031165
67.737,82.2492,0.031165
67.767,82.2552,0.031165
67.798,82.2614,0.031165
67.828,82.2676,0.031165
67.859,82.2736,0.031165
67.890,82.2798,0.022414
67.921,82.2858,0.022414
67.951,82.2919,0.022414
67.984,82.2985,0.022414
68.013,82.3043,0.022414
68.044,82.3108,0.022414
68.075,82.3168,0.022414
68.107,82.3232,0.022414
68.138,82.3294,0.013842
68.169,82.3357,0.013842
68.201,82.3419,0.013842
68.232,82.3483,0.013842
68.265,82.3548,0.013842
68.295,82.3609,0.013842
68.327,82.3672,0.013842
68.358,82.3735,0.013842
68.390,82.3797,0.005317
68.421,82.3860,0.005317
68.453,82.3922,0.005317
68.483,82.3984,0.005317
68.514,82.4044,0.005317
68.544,82.4106,0.005317
68.575,82.4168,0.005317
68.605,82.4229,0.005317
68.637,82.4291,-0.003162
68.668,82.4353,-0.003162
68.699,82.4416,-0.003162
68.729,82.4474,-0.003162
68.760,82.4539,-0.003162
68.791,82.4600,-0.003162
68.823,82.4664,-0.003162
68.853,82.4724,-0.011612
68.886,82.4789,-0.011612
68.915,82.4846,-0.011612
68.946,82.4911,-0.011612
68.978,82.4972,-0.011612
69.008,82.5034,-0.011612
69.040,82.5097,-0.011612
69.071,82.5160,-0.011612
69.102,82.5223,-0.020052
69.133,82.5283,-0.020052
69.165,82.5347,-0.020052
69.196,82.5409,-0.020052
69.226,82.5471,-0.020052
69.258,82.5535,-0.020052
69.290,82.5599,-0.020052
69.322,82.5661,-0.020052
69.353,82.5724,-0.028437
69.384,82.5785,-0.028437
69.415,82.5849,-0.028437
69.446,82.5911,-0.028437
69.478,82.5975,-0.028437
69.509,82.6036,-0.028437
69.540,82.6098,-0.028437
69.570,82.6159,-0.028437
69.601,82.6218,-0.028437
69.632,82.6281,-0.036811
69.663,82.6342,-0.036811
69.694,82.6405,-0.036811
69.725,82.6467,-0.036811
69.756,82.6531,-0.036811
69.786,82.6590,-0.036811
69.818,82.6655,-0.036811
69.848,82.6714,-0.045327
69.880,82.6777,-0.045327
69.912,82.6842,-0.045327
69.942,82.6903,-0.045327
69.974,82.6963,-0.045327
70.005,82.7028,-0.045327
70.036,82.7089,-0.045327
70.067,82.7153,-0.045327
70.098,82.7214,-0.045327
70.129,82.7275,-0.045327
70.160,82.7336,-0.053956
70.190,82.7399,-0.053956
70.222,82.7462,-0.053956
70.252,82.7522,-0.053956
70.285,82.7586,-0.053956
70.315,82.7647,-0.053956
70.346,82.7701,-0.053956
70.378,82.7751,-0.053956
70.409,82.7791,-0.062529
70.439,82.7823,-0.062529
70.471,82.7849,-0.062529
70.501,82.7868,-0.062529
70.532,82.7879,-0.062529
70.563,82.7882,-0.062529
70.594,82.7882,-0.062529
70.625,82.7882,-0.069699
70.655,82.7882,-0.069699
70.686,82.7882,-0.069699
70.717,82.7882,-0.069699
70.748,82.7882,-0.069699
70.780,82.7882,-0.069699
70.810,82.7882,-0.069699
70.841,82.7882,-0.069699
70.871,82.7882,-0.069699
70.903,82.7882,-0.072381
70.934,82.7882,-0.072381
70.965,82.7882,-0.072381
70.997,82.7882,-0.072381
71.028,82.7882,-0.072381
71.059,82.7882,-0.072381
71.091,82.7882,-0.072381
71.122,82.7882,-0.072381
71.154,82.7882,-0.071590
71.183,82.7882,-0.071590
71.214,82.7882,-0.071590
71.246,82.7882,-0.071590
71.279,82.7882,-0.071590
71.308,82.7882,-0.071590
71.339,82.7882,-0.071590
71.369,82.7882,-0.071590
71.400,82.7882,-0.070527
71.432,82.7882,-0.070527
71.462,82.7882,-0.070527
71.493,82.7882,-0.070527
71.525,82.7882,-0.070527
71.556,82.7882,-0.070527
71.587,82.7882,-0.070527
71.618,82.7882,-0.070527
71.650,82.7882,-0.069529
71.681,82.7882,-0.069529
71.712,82.7882,-0.069529
71.743,82.7882,-0.069529
71.774,82.7882,-0.069529
71.805,82.7882,-0.069529
71.837,82.7882,-0.069529
71.868,82.7882,-0.068579
71.898,82.7882,-0.068579
71.929,82.7882,-0.068579
71.960,82.7882,-0.068579
71.991,82.7882,-0.068579
72.022,82.7882,-0.068579
72.054,82.7882,-0.068579
72.085,82.7882,-0.068579
72.116,82.7882,-0.068579
72.149,82.7882,-0.067685
72.179,82.7882,-0.067685
72.210,82.7882,-0.067685
72.241,82.7882,-0.067685
72.273,82.7882,-0.067685
72.303,82.7882,-0.067685
72.333,82.7882,-0.067685
72.364,82.7882,-0.066895
72.395,82.7882,-0.066895
72.425,82.7882,-0.066895
72.457,82.7882,-0.066895
72.487,82.7882,-0.066895
72.518,82.7882,-0.066895
72.549,82.7882,-0.066895
72.581,82.7882,-0.066895
72.611,82.7882,-0.066895
72.642,82.7882,-0.066085
72.673,82.7882,-0.066085
72.704,82.7882,-0.066085
72.735,82.7882,-0.066085
72.766,82.7882,-0.066085
72.796,82.7882,-0.066085
72.827,82.7882,-0.066085
72.858,82.7882,-0.065201
72.888,82.7882,-0.065201
72.918,82.7882,-0.065201
72.949,82.7882,-0.065201
72.981,82.7882,-0.065201
73.011,82.7882,-0.065201
73.042,82.7882,-0.065201
73.072,82.7882,-0.065201
73.104,82.7882,-0.064401
73.136,82.7882,-0.064401
73.166,82.7882,-0.064401
73.196,82.7882,-0.064401
73.228,82.7882,-0.064401
73.258,82.7882,-0.064401
73.289,82.7882,-0.064401
73.320,82.7882,-0.064401
73.351,82.7882,-0.063611
73.382,82.7882,-0.063611
73.413,82.7882,-0.063611
73.444,82.7882,-0.063611
73.475,82.7882,-0.063611
73.506,82.7882,-0.063611
73.537,82.7882,-0.063611
73.568,82.7882,-0.063611
73.599,82.7882,-0.062830
73.630,82.7882,-0.062830
73.661,82.7882,-0.062830
73.693,82.7882,-0.062830
73.724,82.7882,-0.062830
73.756,82.7882,-0.062830
73.786,82.7882,-0.062830
73.817,82.7882,-0.062830
73.848,82.7882,-0.062830
73.879,82.7882,-0.062143
73.911,82.7882,-0.062143
73.942,82.7882,-0.062143
73.973,82.7882,-0.062143
74.005,82.7882,-0.062143
74.036,82.7882,-0.062143
74.067,82.7882,-0.062143
74.098,82.7882,-0.062143
74.129,82.7882,-0.061437
74.160,82.7882,-0.061437
74.191,82.7882,-0.061437
74.223,82.7882,-0.061437
74.253,82.7882,-0.061437
74.285,82.7882,-0.061437
74.316,82.7882,-0.061437
74.347,82.7882,-0.060675
74.378,82.7882,-0.060675
74.410,82.7882,-0.060675
74.441,82.7882,-0.060675
74.472,82.7882,-0.060675
74.503,82.7882,-0.060675
74.535,82.7882,-0.060675
74.568,82.7882,-0.060675
74.598,82.7882,-0.059903
74.628,82.7882,-0.059903
74.659,82.7882,-0.059903
74.690,82.7882,-0.059903
74.721,82.7882,-0.059903
74.752,82.7882,-0.059903
74.784,82.7882,-0.059903
74.815,82.7882,-0.059903
74.845,82.7882,-0.059903
74.877,82.7882,-0.059235
74.908,82.7882,-0.059235
74.939,82.7882,-0.059235
74.971,82.7882,-0.059235
75.002,82.7882,-0.059235
75.034,82.7882,-0.059235
75.066,82.7882,-0.059235
75.097,82.7882,-0.058605
75.128,82.7882,-0.058605
75.160,82.7882,-0.058605
75.191,82.7882,-0.058605
75.222,82.7882,-0.058605
75.252,82.7882,-0.058605
75.283,82.7882,-0.058605
75.314,82.7880,-0.058605
75.345,82.7870,-0.058605
75.377,82.7853,-0.057955
75.407,82.7829,-0.057955
75.438,82.7798,-0.057955
75.469,82.7760,-0.057955
75.499,82.7714,-0.057955
75.530,82.7662,-0.057955
75.562,82.7598,-0.057955
75.593,82.7538,-0.057955
75.625,82.7474,-0.057955
75.654,82.7415,-0.056017
75.686,82.7350,-0.056017
75.716,82.7290,-0.056017
75.748,82.7228,-0.056017
75.778,82.7167,-0.056017
75.810,82.7104,-0.056017
75.841,82.7043,-0.056017
75.872,82.6980,-0.056017
75.903,82.6918,-0.049421
75.934,82.6857,-0.049421
75.965,82.6795,-0.049421
75.996,82.6733,-0.049421
76.027,82.6668,-0.049421
76.058,82.6609,-0.049421
76.089,82.6546,-0.049421
76.121,82.6481,-0.049421
76.151,82.6421,-0.039249
76.182,82.6358,-0.039249
76.214,82.6295,-0.039249
76.245,82.6233,-0.039249
76.277,82.6168,-0.039249
76.308,82.6108,-0.039249
76.339,82.6047,-0.039249
76.369,82.5985,-0.029048
76.401,82.5923,-0.029048
76.431,82.5860,-0.029048
76.463,82.5798,-0.029048
76.494,82.5734,-0.029048
76.526,82.5672,-0.029048
76.557,82.5609,-0.029048
76.588,82.5548,-0.029048
76.619,82.5484,-0.029048
76.651,82.5422,-0.019093
76.681,82.5361,-0.019093
76.711,82.5300,-0.019093
76.743,82.5237,-0.019093
76.773,82.5178,-0.019093
76.804,82.5116,-0.019093
76.835,82.5054,-0.019093
76.866,82.4992,-0.009193
76.898,82.4926,-0.009193
76.929,82.4866,-0.009193
76.959,82.4805,-0.009193
76.990,82.4743,-0.009193
77.021,82.4679,-0.009193
77.052,82.4619,-0.009193
77.084,82.4554,-0.009193
77.115,82.4494,-0.009193
77.146,82.4430,0.000706
77.177,82.4369,0.000706
77.208,82.4307,0.000706
77.239,82.4244,0.000706
77.272,82.4179,0.000706
77.304,82.4116,0.000706
77.335,82.4053,0.000706
77.365,82.3994,0.010492
77.397,82.3929,0.010492
77.427,82.3870,0.010492
77.458,82.3806,0.010492
77.488,82.3746,0.010492
77.519,82.3687,0.010492
77.549,82.3624,0.010492
77.580,82.3563,0.010492
77.612,82.3500,0.010492
77.642,82.3440,0.020259
77.673,82.3377,0.020259
77.703,82.3318,0.020259
77.734,82.3255,0.020259
77.765,82.3194,0.020259
77.796,82.3132,0.020259
77.827,82.3070,0.020259
77.858,82.3007,0.020259
77.889,82.2944,0.030102
77.920,82.2883,0.030102
77.951,82.2822,0.030102
77.982,82.2759,0.030102
78.013,82.2698,0.030102
78.045,82.2634,0.030102
78.075,82.2573,0.030102
78.106,82.2511,0.030102
78.138,82.2448,0.040095
78.169,82.2386,0.040095
78.201,82.2323,0.040095
78.232,82.2259,0.040095
78.262,82.2198,0.040095
78.293,82.2138,0.040095
78.327,82.2071,0.040095
78.357,82.2010,0.040095
78.388,82.1949,0.050230
78.419,82.1885,0.050230
78.450,82.1823,0.050230
78.481,82.1761,0.050230
78.512,82.1699,0.050230
78.543,82.1638,0.050230
78.574,82.1576,0.050230
78.604,82.1515,0.050230
78.635,82.1453,0.060552
78.666,82.1390,0.060552
78.697,82.1329,0.060552
78.728,82.1267,0.060552
78.759,82.1205,0.060552
78.790,82.1144,0.060552
78.822,82.1081,0.060552
78.853,82.1018,0.060552
78.884,82.0956,0.071167
78.916,82.0891,0.071167
78.947,82.0829,0.071167
78.978,82.0767,0.071167
79.010,82.0704,0.071167
79.041,82.0642,0.071167
79.073,82.0576,0.071167
79.104,82.0515,0.081979
79.135,82.0453,0.081979
79.166,82.0391,0.081979
79.197,82.0331,0.081979
79.228,82.0269,0.081979
79.259,82.0205,0.081979
79.290,82.0143,0.081979
79.320,82.0084,0.081979
79.352,82.0021,0.081979
79.383,81.9959,0.092969
79.415,81.9894,0.092969
79.446,81.9832,0.092969
79.477,81.9769,0.092969
79.509,81.9706,0.092969
79.541,81.9642,0.092969
79.572,81.9579,0.092969
79.603,81.9517,0.092969
79.635,81.9454,0.104384
79.665,81.9394,0.104384
79.696,81.9332,0.104384
79.727,81.9270,0.104384
79.758,81.9206,0.104384
79.788,81.9146,0.104384
79.822,81.9081,0.104384
79.851,81.9021,0.104384
79.883,81.8957,0.116089
79.914,81.8895,0.116089
79.945,81.8831,0.116089
79.977,81.8769,0.116089
80.008,81.8706,0.116089
80.040,81.8644,0.116089
80.071,81.8581,0.116089
80.102,81.8519,0.116089
80.133,81.8457,0.128096
80.164,81.8393,0.128096
80.195,81.8334,0.128096
80.226,81.8271,0.128096
80.257,81.8210,0.128096
80.288,81.8148,0.128096
80.319,81.8086,0.128096
80.350,81.8023,0.140329
80.380,81.7963,0.140329
80.412,81.7901,0.140329
80.442,81.7840,0.140329
80.473,81.7777,0.140329
80.505,81.7713,0.140329
80.536,81.7653,0.140329
80.566,81.7590,0.140329
80.598,81.7528,0.140329
80.628,81.7466,0.152901
80.660,81.7405,0.152901
80.691,81.7340,0.152901
80.722,81.7280,0.152901
80.753,81.7216,0.152901
80.784,81.7156,0.152901
80.815,81.7094,0.152901
80.846,81.7033,0.165924
80.877,81.6970,0.165924
80.908,81.6909,0.165924
80.939,81.6843,0.165924
80.970,81.6782,0.165924
81.001,81.6723,0.165924
81.032,81.6661,0.165924
81.063,81.6599,0.165924
81.094,81.6537,0.165924
81.125,81.6474,0.165924
81.156,81.6412,0.179248
81.187,81.6351,0.179248
81.218,81.6289,0.179248
81.249,81.6227,0.179248
81.280,81.6164,0.179248
81.311,81.6102,0.179248
81.342,81.6039,0.179248
81.373,81.5976,0.193006
81.404,81.5915,0.193006
81.435,81.5853,0.193006
81.466,81.5793,0.193006
81.497,81.5731,0.193006
81.528,81.5667,0.193006
81.560,81.5605,0.193006
81.591,81.5541,0.193006
81.622,81.5480,0.207139
81.654,81.5416,0.207139
81.684,81.5355,0.207139
81.715,81.5293,0.207139
81.746,81.5232,0.207139
81.777,81.5169,0.207139
81.808,81.5107,0.207139
81.840,81.5044,0.207139
81.871,81.4982,0.221659
81.902,81.4918,0.221659
81.933,81.4858,0.221659
81.965,81.4793,0.221659
81.996,81.4732,0.221659
82.027,81.4670,0.221659
82.058,81.4610,0.221659
82.088,81.4547,0.221659
82.119,81.4485,0.236573
82.150,81.4423,0.236573
82.181,81.4361,0.236573
82.213,81.4297,0.236573
82.244,81.4236,0.236573
82.276,81.4172,0.236573
82.307,81.4108,0.236573
82.337,81.4049,0.236573
82.368,81.3988,0.251836
82.399,81.3925,0.251836
82.431,81.3863,0.251836
82.462,81.3801,0.251836
82.492,81.3740,0.251836
82.523,81.3678,0.251836
82.555,81.3615,0.251836
82.586,81.3550,0.251836
82.618,81.3487,0.267438
82.649,81.3425,0.267438
82.680,81.3363,0.267438
82.712,81.3299,0.267438
82.743,81.3238,0.267438
82.774,81.3176,0.267438
82.805,81.3113,0.267438
82.836,81.3051,0.267438
82.867,81.2989,0.283368
82.898,81.2929,0.283368
82.928,81.2866,0.283368
82.960,81.2805,0.283368
82.991,81.2742,0.283368
83.022,81.2680,0.283368
83.052,81.2618,0.283368
83.084,81.2557,0.283368
83.115,81.2492,0.299553
83.146,81.2433,0.299553
83.177,81.2367,0.299553
83.209,81.2308,0.299553
83.239,81.2246,0.299553
83.272,81.2180,0.299553
83.303,81.2119,0.299553
83.334,81.2055,0.299553
83.365,81.1995,0.299553
83.396,81.1932,0.316087
83.427,81.1869,0.316087
83.457,81.1810,0.316087
83.488,81.1748,0.316087
83.519,81.1686,0.316087
83.550,81.1624,0.316087
83.582,81.1560,0.316087
83.613,81.1499,0.333024
83.644,81.1435,0.333024
83.675,81.1374,0.333024
83.707,81.1312,0.333024
83.738,81.1248,0.333024
83.769,81.1186,0.333024
83.799,81.1124,0.333024
83.830,81.1064,0.333024
83.861,81.1002,0.350282
83.893,81.0938,0.350282
83.924,81.0878,0.350282
83.955,81.0814,0.350282
83.985,81.0752,0.350282
84.017,81.0689,0.350282
84.047,81.0631,0.350282
84.078,81.0566,0.350282
84.110,81.0506,0.367991
84.140,81.0442,0.367991
84.171,81.0382,0.367991
84.202,81.0318,0.367991
84.234,81.0256,0.367991
84.265,81.0194,0.367991
84.297,81.0131,0.367991
84.327,81.0070,0.367991
84.358,81.0009,0.386124
84.388,80.9947,0.386124
84.420,80.9883,0.386124
84.451,80.9821,0.386124
84.483,80.9756,0.386124
84.516,80.9692,0.386124
84.545,80.9634,0.386124
84.576,80.9570,0.386124
84.607,80.9511,0.386124
84.638,80.9446,0.404586
84.669,80.9387,0.404586
84.700,80.9324,0.404586
84.732,80.9260,0.404586
84.762,80.9198,0.404586
84.793,80.9138,0.404586
84.824,80.9074,0.404586
84.856,80.9012,0.404586
84.886,80.8952,0.423472
84.917,80.8890,0.423472
84.949,80.8826,0.423472
84.980,80.8764,0.423472
85.011,80.8702,0.423472
85.042,80.8640,0.423472
85.073,80.8578,0.423472
85.105,80.8515,0.423472
85.135,80.8454,0.442706
85.166,80.8392,0.442706
85.197,80.8331,0.442706
85.228,80.8269,0.442706
85.258,80.8207,0.442706
85.290,80.8144,0.442706
85.321,80.8083,0.442706
85.351,80.8020,0.442706
85.382,80.7961,0.462269
85.414,80.7896,0.462269
85.445,80.7834,0.462269
85.477,80.7771,0.462269
85.508,80.7708,0.462269
85.538,80.7647,0.462269
85.568,80.7589,0.462269
85.598,80.7528,0.462269
85.629,80.7467,0.462269
85.661,80.7401,0.482029
85.692,80.7339,0.482029
85.722,80.7280,0.482029
85.753,80.7219,0.482029
85.783,80.7156,0.482029
85.813,80.7099,0.482029
85.845,80.7033,0.482029
85.877,80.6971,0.502072
85.909,80.6906,0.502072
85.938,80.6849,0.502072
85.969,80.6785,0.502072
86.000,80.6724,0.502072
86.032,80.6661,0.502072
86.062,80.6599,0.502072
86.093,80.6537,0.522529
86.124,80.6476,0.522529
86.155,80.6414,0.522529
86.187,80.6350,0.522529
86.218,80.6288,0.522529
86.248,80.6229,0.522529
86.279,80.6167,0.522529
86.310,80.6104,0.522529
86.341,80.6042,0.522529
86.372,80.5979,0.543288
86.404,80.5915,0.543288
86.436,80.5851,0.543288
86.468,80.5789,0.543288
86.499,80.5727,0.543288
86.530,80.5664,0.543288
86.561,80.5600,0.543288
86.592,80.5541,0.564243
86.623,80.5478,0.564243
86.654,80.5417,0.564243
86.684,80.5355,0.564243
86.715,80.5293,0.564243
86.747,80.5230,0.564243
86.778,80.5169,0.564243
86.809,80.5106,0.564243
86.839,80.5046,0.564243
86.870,80.4983,0.564243
86.903,80.4918,0.585180
86.933,80.4859,0.585180
86.964,80.4797,0.585180
86.996,80.4732,0.585180
87.027,80.4672,0.585180
87.058,80.4605,0.585180
87.089,80.4547,0.585180
87.120,80.4484,0.606080
87.151,80.4423,0.606080
87.183,80.4359,0.606080
87.214,80.4296,0.606080
87.245,80.4235,0.606080
87.276,80.4173,0.606080
87.308,80.4107,0.606080
87.337,80.4050,0.606080
87.369,80.3987,0.627120
87.400,80.3924,0.627120
87.431,80.3863,0.627120
87.462,80.3800,0.627120
87.493,80.3739,0.627120
87.524,80.3676,0.627120
87.555,80.3615,0.627120
87.587,80.3550,0.627120
87.618,80.3490,0.648283
87.649,80.3424,0.648283
87.680,80.3363,0.648283
87.713,80.3299,0.648283
87.742,80.3240,0.648283
87.773,80.3178,0.648283
87.804,80.3116,0.648283
87.836,80.3052,0.648283
87.867,80.2991,0.669737
87.897,80.2929,0.669737
87.928,80.2868,0.669737
87.959,80.2804,0.669737
87.991,80.2743,0.669737
88.022,80.2680,0.669737
88.052,80.2620,0.669737
88.084,80.2556,0.669737
88.116,80.2491,0.692029
88.147,80.2429,0.692029
88.177,80.2370,0.692029
88.208,80.2308,0.692029
88.239,80.2246,0.692029
88.270,80.2185,0.692029
88.302,80.2120,0.692029
88.332,80.2060,0.692029
88.364,80.1996,0.692029
88.395,80.1936,0.715272
88.425,80.1875,0.715272
88.456,80.1813,0.715272
88.487,80.1751,0.715272
88.518,80.1689,0.715272
88.549,80.1627,0.715272
88.580,80.1566,0.715272
88.613,80.1498,0.715272
88.642,80.1441,0.738523
88.673,80.1379,0.738523
88.704,80.1315,0.738523
88.734,80.1255,0.738523
88.766,80.1191,0.738523
88.798,80.1128,0.738523
88.830,80.1065,0.738523
88.860,80.1002,0.738523
88.891,80.0941,0.761784
88.922,80.0880,0.761784
88.953,80.0818,0.761784
88.984,80.0756,0.761784
89.015,80.0694,0.761784
89.046,80.0632,0.761784
89.077,80.0570,0.761784
89.108,80.0508,0.761784
89.140,80.0446,0.786128
89.171,80.0383,0.786128
89.202,80.0322,0.786128
89.232,80.0260,0.786128
89.264,80.0198,0.786128
89.295,80.0135,0.786128
89.326,80.0071,0.786128
89.357,80.0011,0.786128
89.388,79.9950,0.811299
89.420,79.9884,0.811299
89.451,79.9823,0.811299
89.482,79.9761,0.811299
89.512,79.9701,0.811299
89.544,79.9637,0.811299
89.574,79.9577,0.811299
89.606,79.9512,0.811299
89.637,79.9450,0.836790
89.668,79.9388,0.836790
89.699,79.9326,0.836790
89.730,79.9263,0.836790
89.762,79.9201,0.836790
89.792,79.9140,0.836790
89.824,79.9077,0.836790
89.854,79.9016,0.836790
89.886,79.8952,0.862376
89.919,79.8887,0.862376
89.949,79.8823,0.862376
89.979,79.8766,0.862376
90.011,79.8701,0.862376
90.043,79.8639,0.862376
90.073,79.8578,0.862376
90.104,79.8516,0.862376
90.135,79.8453,0.888328
90.166,79.8392,0.888328
90.198,79.8328,0.888328
90.229,79.8267,0.888328
90.260,79.8205,0.888328
90.291,79.8142,0.888328
90.322,79.8081,0.888328
90.353,79.8018,0.888328
90.385,79.7956,0.914648
90.416,79.7892,0.914648
90.446,79.7833,0.914648
90.477,79.7771,0.914648
90.507,79.7706,0.914648
90.538,79.7649,0.914648
90.569,79.7590,0.914648
90.600,79.7538,0.914648
90.631,79.7494,0.939753
90.662,79.7458,0.939753
90.693,79.7429,0.939753
90.725,79.7406,0.939753
90.756,79.7391,0.939753
90.788,79.7384,0.939753
90.818,79.7383,0.939753
90.849,79.7383,0.958855
90.880,79.7383,0.958855
90.911,79.7383,0.958855
90.941,79.7383,0.958855
90.972,79.7389,0.958855
91.003,79.7402,0.958855
91.034,79.7422,0.958855
91.064,79.7450,0.958855
91.095,79.7486,0.958855
91.126,79.7525,0.962327
91.156,79.7574,0.962327
91.188,79.7633,0.962327
91.220,79.7695,0.962327
91.251,79.7758,0.962327
91.282,79.7820,0.962327
91.313,79.7882,0.962327
91.344,79.7943,0.943498
91.375,79.8005,0.943498
91.406,79.8070,0.943498
91.437,79.8131,0.943498
91.469,79.8194,0.943498
91.500,79.8257,0.943498
91.531,79.8318,0.943498
91.562,79.8381,0.943498
91.593,79.8442,0.943498
91.624,79.8505,0.943498
91.656,79.8567,0.906593
91.686,79.8630,0.906593
91.717,79.8689,0.906593
91.748,79.8753,0.906593
91.779,79.8814,0.906593
91.810,79.8878,0.906593
91.842,79.8940,0.906593
91.873,79.9004,0.906593
91.905,79.9066,0.865189
91.936,79.9129,0.865189
91.966,79.9188,0.865189
91.998,79.9253,0.865189
92.029,79.9314,0.865189
92.060,79.9376,0.865189
92.091,79.9439,0.865189
92.122,79.9500,0.865189
92.153,79.9564,0.827286
92.184,79.9625,0.827286
92.215,79.9686,0.827286
92.245,79.9745,0.827286
92.276,79.9807,0.827286
92.307,79.9869,0.827286
92.338,79.9931,0.827286
92.370,79.9995,0.791840
92.402,80.0059,0.791840
92.432,80.0120,0.791840
92.464,80.0183,0.791840
92.495,80.0246,0.791840
92.526,80.0307,0.791840
92.556,80.0368,0.791840
92.587,80.0429,0.791840
92.618,80.0492,0.758463
92.649,80.0555,0.758463
92.680,80.0615,0.758463
92.712,80.0679,0.758463
92.742,80.0740,0.758463
92.773,80.0803,0.758463
92.804,80.0864,0.758463
92.836,80.0928,0.758463
92.866,80.0987,0.726723
92.897,80.1051,0.726723
92.928,80.1112,0.726723
92.960,80.1178,0.726723
92.991,80.1239,0.726723
93.022,80.1301,0.726723
93.054,80.1364,0.726723
93.085,80.1426,0.726723
93.116,80.1489,0.696292
93.147,80.1550,0.696292
93.178,80.1613,0.696292
93.210,80.1675,0.696292
93.242,80.1738,0.696292
93.273,80.1803,0.696292
93.303,80.1861,0.696292
93.334,80.1923,0.696292
93.365,80.1986,0.667149
93.398,80.2052,0.667149
93.428,80.2112,0.667149
93.459,80.2174,0.667149
93.491,80.2237,0.667149
93.522,80.2299,0.667149
93.553,80.2361,0.667149
93.584,80.2423,0.667149
93.616,80.2487,0.667149
93.647,80.2549,0.639202
93.678,80.2611,0.639202
93.709,80.2675,0.639202
93.740,80.2738,0.639202
93.772,80.2801,0.639202
93.802,80.2860,0.639202
93.833,80.2922,0.639202
93.864,80.2985,0.639202
93.895,80.3046,0.612318
93.926,80.3109,0.612318
93.958,80.3171,0.612318
93.989,80.3234,0.612318
94.020,80.3295,0.612318
94.052,80.3361,0.612318
94.083,80.3423,0.612318
94.115,80.3486,0.612318
94.146,80.3547,0.586347
94.177,80.3609,0.586347
94.207,80.3671,0.586347
94.239,80.3734,0.586347
94.269,80.3795,0.586347
94.300,80.3857,0.586347
94.331,80.3917,0.586347
94.362,80.3981,0.586347
94.393,80.4043,0.561129
94.424,80.4105,0.561129
94.455,80.4165,0.561129
94.486,80.4229,0.561129
94.517,80.4290,0.561129
94.549,80.4353,0.561129
94.579,80.4414,0.561129
94.611,80.4477,0.561129
94.641,80.4540,0.536832
94.672,80.4600,0.536832
94.704,80.4663,0.536832
94.735,80.4726,0.536832
94.766,80.4787,0.536832
94.797,80.4850,0.536832
94.829,80.4912,0.536832
94.860,80.4974,0.536832
94.890,80.5037,0.513449
94.921,80.5098,0.513449
94.952,80.5160,0.513449
94.983,80.5223,0.513449
95.014,80.5284,0.513449
95.045,80.5346,0.513449
95.075,80.5406,0.513449
95.107,80.5470,0.513449
95.137,80.5530,0.490743
95.169,80.5593,0.490743
95.199,80.5655,0.490743
95.231,80.5718,0.490743
95.262,80.5780,0.490743
95.293,80.5842,0.490743
95.324,80.5903,0.490743
95.356,80.5969,0.468761
95.388,80.6031,0.468761
95.419,80.6093,0.468761
95.449,80.6154,0.468761
95.481,80.6217,0.468761
95.512,80.6279,0.468761
95.543,80.6341,0.468761
95.573,80.6403,0.468761
95.604,80.6464,0.447448
95.635,80.6526,0.447448
95.667,80.6589,0.447448
95.698,80.6652,0.447448
95.730,80.6715,0.447448
95.761,80.6780,0.447448
95.793,80.6841,0.447448
95.823,80.6901,0.447448
95.855,80.6965,0.426756
95.885,80.7027,0.426756
95.916,80.7089,0.426756
95.948,80.7152,0.426756
95.978,80.7212,0.426756
96.009,80.7272,0.426756
96.040,80.7334,0.426756
96.070,80.7396,0.426756
96.102,80.7458,0.426756
96.133,80.7523,0.426756
96.164,80.7584,0.406694
96.195,80.7646,0.406694
96.225,80.7706,0.406694
96.257,80.7770,0.406694
96.288,80.7832,0.406694
96.319,80.7895,0.406694
96.351,80.7957,0.406694
96.382,80.8020,0.387394
96.414,80.8085,0.387394
96.445,80.8145,0.387394
96.476,80.8209,0.387394
96.506,80.8268,0.387394
96.537,80.8329,0.387394
96.568,80.8392,0.387394
96.600,80.8455,0.387394
96.630,80.8516,0.387394
96.662,80.8581,0.368669
96.693,80.8641,0.368669
96.723,80.8702,0.368669
96.755,80.8766,0.368669
96.786,80.8829,0.368669
96.818,80.8892,0.368669
96.848,80.8952,0.368669
96.879,80.9014,0.368669
96.910,80.9074,0.350442
96.940,80.9136,0.350442
96.971,80.9197,0.350442
97.002,80.9259,0.350442
97.035,80.9324,0.350442
97.064,80.9384,0.350442
97.095,80.9446,0.350442
97.126,80.9507,0.350442
97.157,80.9570,0.333024
97.188,80.9631,0.333024
97.220,80.9697,0.333024
97.251,80.9756,0.333024
97.281,80.9818,0.333024
97.313,80.9880,0.333024
97.344,80.9945,0.333024
97.376,81.0007,0.316096
97.407,81.0069,0.316096
97.438,81.0131,0.316096
97.470,81.0196,0.316096
97.501,81.0259,0.316096
97.533,81.0321,0.316096
97.564,81.0382,0.316096
97.594,81.0444,0.316096
97.625,81.0506,0.299459
97.656,81.0569,0.299459
97.687,81.0628,0.299459
97.717,81.0690,0.299459
97.748,81.0751,0.299459
97.780,81.0817,0.299459
97.812,81.0879,0.299459
97.844,81.0945,0.299459
97.876,81.1007,0.283453
97.907,81.1071,0.283453
97.939,81.1133,0.283453
97.970,81.1195,0.283453
98.000,81.1255,0.283453
98.032,81.1319,0.283453
98.062,81.1380,0.283453
98.093,81.1441,0.283453
98.124,81.1503,0.267936
98.154,81.1565,0.267936
98.186,81.1629,0.267936
98.217,81.1690,0.267936
98.247,81.1751,0.267936
98.279,81.1813,0.267936
98.311,81.1877,0.267936
98.341,81.1939,0.267936
98.373,81.2001,0.252852
98.404,81.2063,0.252852
98.435,81.2127,0.252852
98.467,81.2190,0.252852
98.498,81.2252,0.252852
98.529,81.2315,0.252852
98.560,81.2376,0.252852
98.591,81.2439,0.252852
98.623,81.2500,0.238502
98.653,81.2562,0.238502
98.685,81.2624,0.238502
98.716,81.2688,0.238502
98.747,81.2748,0.238502
98.778,81.2811,0.238502
98.809,81.2873,0.238502
98.840,81.2935,0.238502
98.871,81.2997,0.224651
98.902,81.3060,0.224651
98.934,81.3122,0.224651
98.965,81.3187,0.224651
98.997,81.3248,0.224651
99.029,81.3313,0.224651
99.060,81.3374,0.224651
99.092,81.3439,0.224651
99.124,81.3503,0.211082
99.154,81.3563,0.211082
99.186,81.3627,0.211082
99.217,81.3690,0.211082
99.248,81.3754,0.211082
99.280,81.3815,0.211082
99.311,81.3877,0.211082
99.341,81.3939,0.197805
99.372,81.3999,0.197805
99.402,81.4061,0.197805
99.433,81.4121,0.197805
99.464,81.4185,0.197805
99.495,81.4245,0.197805
99.526,81.4308,0.197805
99.557,81.4370,0.197805
99.588,81.4431,0.197805
99.618,81.4492,0.184894
99.650,81.4556,0.184894
99.682,81.4619,0.184894
99.712,81.4681,0.184894
99.743,81.4742,0.184894
99.775,81.4805,0.184894
99.806,81.4866,0.184894
99.837,81.4931,0.184894
99.868,81.4991,0.172445
99.899,81.5054,0.172445
99.930,81.5116,0.172445
99.961,81.5178,0.172445
99.992,81.5240,0.172445
100.023,81.5302,0.172445
100.054,81.5364,0.172445
100.085,81.5426,0.172445
100.117,81.5488,0.160438
100.147,81.5550,0.160438
100.179,81.5613,0.160438
100.209,81.5674,0.160438
100.241,81.5738,0.160438
100.271,81.5798,0.160438
100.302,81.5860,0.160438
100.334,81.5924,0.160438
100.365,81.5985,0.148742
100.396,81.6048,0.148742
100.422,81.6100,0.148742
100.458,81.6172,0.148742
100.489,81.6233,0.148742
100.520,81.6296,0.148742
100.553,81.6362,0.148742
100.582,81.6420,0.148742
100.614,81.6483,0.137290
100.645,81.6544,0.137290
100.675,81.6606,0.137290
100.706,81.6668,0.137290
100.737,81.6729,0.137290
100.767,81.6791,0.137290
100.798,81.6852,0.137290
100.829,81.6914,0.137290
100.859,81.6973,0.137290
100.890,81.7037,0.126214
100.921,81.7097,0.126214
100.953,81.7162,0.126214
100.983,81.7223,0.126214
101.014,81.7283,0.126214
101.045,81.7344,0.126214
101.076,81.7406,0.126214
101.107,81.7468,0.126214
101.138,81.7530,0.115384
101.169,81.7594,0.115384
101.200,81.7654,0.115384
101.231,81.7716,0.115384
101.262,81.7778,0.115384
101.293,81.7843,0.115384
101.324,81.7904,0.115384
101.355,81.7967,0.115384
101.387,81.8029,0.104845
101.417,81.8090,0.104845
101.448,81.8153,0.104845
101.479,81.8212,0.104845
101.509,81.8278,0.104845
101.541,81.8336,0.104845
101.571,81.8398,0.104845
101.603,81.8462,0.104845
101.634,81.8524,0.094616
101.665,81.8586,0.094616
101.696,81.8646,0.094616
101.727,81.8710,0.094616
101.759,81.8772,0.094616
101.789,81.8835,0.094616
101.821,81.8896,0.094616
101.851,81.8959,0.094616
101.882,81.9019,0.084660
101.913,81.9081,0.084660
101.944,81.9144,0.084660
101.975,81.9207,0.084660
102.007,81.9270,0.084660
102.038,81.9331,0.084660
102.069,81.9393,0.084660
102.100,81.9455,0.084660
102.131,81.9516,0.075006
102.161,81.9578,0.075006
102.192,81.9640,0.075006
102.224,81.9702,0.075006
102.254,81.9764,0.075006
102.286,81.9827,0.075006
102.318,81.9893,0.075006
102.348,81.9951,0.075006
102.379,82.0013,0.065493
102.410,82.0075,0.065493
102.440,82.0136,0.065493
102.471,82.0198,0.065493
102.502,82.0260,0.065493
102.533,82.0321,0.065493
102.564,82.0384,0.065493
102.595,82.0444,0.065493
102.626,82.0508,0.056130
102.657,82.0569,0.056130
102.688,82.0632,0.056130
102.720,82.0695,0.056130
102.750,82.0757,0.056130
102.782,82.0818,0.056130
102.813,82.0883,0.056130
102.844,82.0943,0.046927
102.875,82.1005,0.046927
102.906,82.1067,0.046927
102.937,82.1129,0.046927
102.970,82.1194,0.046927
102.998,82.1251,0.046927
103.031,82.1318,0.046927
103.061,82.1376,0.046927
103.092,82.1438,0.046927
103.123,82.1501,0.046927
103.154,82.1562,0.037762
103.185,82.1624,0.037762
103.216,82.1688,0.037762
103.247,82.1748,0.037762
103.278,82.1813,0.037762
103.309,82.1874,0.037762
103.341,82.1936,0.037762
103.372,82.1999,0.028832
103.403,82.2062,0.028832
103.434,82.2123,0.028832
103.468,82.2190,0.028832
103.497,82.2249,0.028832
103.528,82.2313,0.028832
103.559,82.2372,0.028832
103.590,82.2435,0.028832
103.621,82.2496,0.020090
103.651,82.2559,0.020090
103.682,82.2619,0.020090
103.713,82.2682,0.020090
103.745,82.2745,0.020090
103.776,82.2809,0.020090
103.807,82.2869,0.020090
103.838,82.2933,0.020090
103.868,82.2991,0.011348
103.900,82.3055,0.011348
103.931,82.3118,0.011348
103.963,82.3182,0.011348
103.994,82.3243,0.011348
104.026,82.3306,0.011348
104.056,82.3367,0.011348
104.088,82.3431,0.011348
104.119,82.3493,0.002719
104.152,82.3558,0.002719
104.182,82.3621,0.002719
104.214,82.3683,0.002719
104.244,82.3743,0.002719
104.276,82.3807,0.002719
104.307,82.3868,0.002719
104.337,82.3930,0.002719
104.369,82.3993,-0.005702
104.400,82.4056,-0.005702
104.430,82.4116,-0.005702
104.461,82.4178,-0.005702
104.493,82.4241,-0.005702
104.524,82.4304,-0.005702
104.555,82.4365,-0.005702
104.587,82.4428,-0.005702
104.618,82.4492,-0.005702
104.649,82.4554,-0.014105
104.680,82.4614,-0.014105
104.710,82.4675,-0.014105
104.742,82.4738,-0.014105
104.773,82.4801,-0.014105
104.804,82.4865,-0.014105
104.835,82.4925,-0.014105
104.866,82.4988,-0.022650
104.896,82.5047,-0.022650
104.928,82.5111,-0.022650
104.959,82.5173,-0.022650
104.990,82.5235,-0.022650
105.021,82.5298,-0.022650
105.052,82.5359,-0.022650
105.083,82.5421,-0.022650
105.115,82.5484,-0.022650
105.146,82.5547,-0.031203
105.177,82.5610,-0.031203
105.209,82.5672,-0.031203
105.240,82.5736,-0.031203
105.271,82.5798,-0.031203
105.302,82.5860,-0.031203
105.333,82.5922,-0.031203
105.364,82.5984,-0.039719
105.396,82.6047,-0.039719
105.427,82.6110,-0.039719
105.457,82.6170,-0.039719
105.488,82.6232,-0.039719
105.519,82.6293,-0.039719
105.549,82.6355,-0.039719
105.581,82.6415,-0.039719
105.611,82.6477,-0.039719
105.642,82.6538,-0.048357
105.674,82.6603,-0.048357
105.705,82.6666,-0.048357
105.737,82.6729,-0.048357
105.767,82.6790,-0.048357
105.799,82.6852,-0.048357
105.829,82.6913,-0.048357
105.861,82.6977,-0.048357
105.891,82.7037,-0.057033
105.923,82.7101,-0.057033
105.953,82.7159,-0.057033
105.984,82.7213,-0.057033
106.014,82.7257,-0.057033
106.046,82.7298,-0.057033
106.078,82.7329,-0.057033
106.108,82.7354,-0.057033
106.139,82.7370,-0.065606
106.170,82.7380,-0.065606
106.200,82.7383,-0.065606
106.232,82.7383,-0.065606
106.262,82.7383,-0.065606
106.294,82.7383,-0.065606
106.325,82.7383,-0.065606
106.356,82.7383,-0.070932
106.387,82.7383,-0.070932
106.419,82.7383,-0.070932
106.451,82.7383,-0.070932
106.482,82.7383,-0.070932
106.514,82.7383,-0.070932
106.545,82.7383,-0.070932
106.576,82.7383,-0.070932
106.607,82.7383,-0.071402
106.639,82.7383,-0.071402
106.668,82.7383,-0.071402
106.700,82.7383,-0.071402
106.732,82.7383,-0.071402
106.762,82.7383,-0.071402
106.793,82.7383,-0.071402
106.825,82.7383,-0.071402
106.855,82.7383,-0.071402
106.886,82.7383,-0.070226
106.917,82.7383,-0.070226
106.949,82.7383,-0.070226
106.980,82.7383,-0.070226
107.010,82.7383,-0.070226
107.041,82.7383,-0.070226
107.073,82.7383,-0.070226
107.103,82.7383,-0.069153
107.134,82.7383,-0.069153
107.166,82.7383,-0.069153
107.196,82.7383,-0.069153
107.228,82.7383,-0.069153
107.258,82.7383,-0.069153
107.290,82.7383,-0.069153
107.321,82.7383,-0.069153
107.352,82.7383,-0.069153
107.383,82.7383,-0.068156
107.414,82.7383,-0.068156
107.446,82.7383,-0.068156
107.478,82.7383,-0.068156
107.509,82.7383,-0.068156
107.541,82.7383,-0.068156
107.572,82.7383,-0.068156
107.603,82.7383,-0.068156
107.634,82.7383,-0.067243
107.665,82.7383,-0.067243
107.696,82.7383,-0.067243
107.728,82.7383,-0.067243
107.759,82.7383,-0.067243
107.790,82.7383,-0.067243
107.821,82.7383,-0.067243
107.852,82.7383,-0.066330
107.883,82.7383,-0.066330
107.913,82.7383,-0.066330
107.944,82.7383,-0.066330
107.975,82.7383,-0.066330
108.006,82.7383,-0.066330
108.037,82.7383,-0.066330
108.068,82.7383,-0.066330
108.098,82.7383,-0.065399
108.130,82.7383,-0.065399
108.161,82.7383,-0.065399
108.193,82.7383,-0.065399
108.223,82.7383,-0.065399
108.255,82.7383,-0.065399
108.286,82.7383,-0.065399
108.318,82.7383,-0.065399
108.349,82.7383,-0.064552
108.380,82.7383,-0.064552
108.411,82.7383,-0.064552
108.442,82.7383,-0.064552
108.473,82.7383,-0.064552
108.505,82.7383,-0.064552
108.535,82.7383,-0.064552
108.565,82.7383,-0.064552
108.596,82.7383,-0.064552
108.628,82.7383,-0.063724
108.660,82.7383,-0.063724
108.690,82.7383,-0.063724
108.721,82.7383,-0.063724
108.752,82.7383,-0.063724
108.782,82.7383,-0.063724
108.813,82.7383,-0.063724
108.845,82.7383,-0.063724
108.875,82.7383,-0.062943
108.906,82.7383,-0.062943
108.938,82.7383,-0.062943
108.969,82.7383,-0.062943
109.000,82.7383,-0.062943
109.031,82.7383,-0.062943
109.062,82.7383,-0.062943
109.092,82.7383,-0.062943
109.123,82.7383,-0.062943
109.154,82.7383,-0.062162
109.186,82.7383,-0.062162
109.216,82.7383,-0.062162
109.247,82.7383,-0.062162
109.281,82.7383,-0.062162
109.309,82.7383,-0.062162
109.341,82.7383,-0.062162
109.372,82.7383,-0.061333
109.403,82.7383,-0.061333
109.434,82.7383,-0.061333
109.465,82.7383,-0.061333
109.496,82.7383,-0.061333
109.527,82.7383,-0.061333
109.559,82.7383,-0.061333
109.590,82.7383,-0.061333
109.620,82.7383,-0.060590
109.652,82.7383,-0.060590
109.683,82.7383,-0.060590
109.714,82.7383,-0.060590
109.745,82.7383,-0.060590
109.776,82.7383,-0.060590
109.807,82.7383,-0.060590
109.837,82.7383,-0.060590
109.869,82.7383,-0.059866
109.901,82.7383,-0.059866
109.931,82.7383,-0.059866
109.962,82.7383,-0.059866
109.994,82.7383,-0.059866
110.025,82.7383,-0.059866
110.057,82.7383,-0.059866
110.087,82.7383,-0.059866
110.118,82.7383,-0.059103
110.149,82.7383,-0.059103
110.179,82.7383,-0.059103
110.211,82.7383,-0.059103
110.242,82.7383,-0.059103
110.274,82.7383,-0.059103
110.304,82.7383,-0.059103
110.334,82.7383,-0.059103
110.365,82.7383,-0.058388
110.395,82.7383,-0.058388
110.425,82.7383,-0.058388
110.457,82.7383,-0.058388
110.489,82.7383,-0.058388
110.519,82.7383,-0.058388
110.550,82.7383,-0.058388
110.582,82.7383,-0.058388
110.612,82.7383,-0.057729
110.644,82.7383,-0.057729
110.675,82.7383,-0.057729
110.706,82.7380,-0.057729
110.737,82.7372,-0.057729
110.767,82.7355,-0.057729
110.798,82.7332,-0.057729
110.830,82.7301,-0.057729
110.861,82.7264,-0.057729
110.892,82.7216,-0.056901
110.922,82.7166,-0.056901
110.954,82.7104,-0.056901
110.985,82.7043,-0.056901
111.016,82.6980,-0.056901
111.047,82.6919,-0.056901
111.078,82.6856,-0.056901
111.110,82.6794,-0.056901
111.141,82.6732,-0.053006
111.172,82.6667,-0.053006
111.203,82.6608,-0.053006
111.235,82.6542,-0.053006
111.265,82.6482,-0.053006
111.297,82.6419,-0.053006
111.328,82.6358,-0.053006
111.358,82.6296,-0.053006
111.388,82.6237,-0.053006
111.419,82.6175,-0.044311
111.450,82.6111,-0.044311
111.481,82.6051,-0.044311
111.512,82.5989,-0.044311
111.544,82.5925,-0.044311
111.574,82.5863,-0.044311
111.605,82.5803,-0.044311
111.636,82.5739,-0.033819
111.668,82.5676,-0.033819
111.698,82.5617,-0.033819
111.729,82.5552,-0.033819
111.761,82.5490,-0.033819
111.792,82.5429,-0.033819
111.823,82.5366,-0.033819
111.854,82.5304,-0.033819
111.884,82.5241,-0.033819
111.915,82.5181,-0.023506
111.946,82.5120,-0.023506
111.977,82.5058,-0.023506
112.008,82.4998,-0.023506
112.039,82.4934,-0.023506
112.069,82.4874,-0.023506
112.101,82.4810,-0.023506
112.131,82.4750,-0.013371
112.161,82.4690,-0.013371
112.193,82.4627,-0.013371
112.224,82.4565,-0.013371
112.255,82.4503,-0.013371
112.287,82.4438,-0.013371
112.317,82.4379,-0.013371
112.349,82.4314,-0.013371
112.379,82.4255,-0.003340
112.411,82.4190,-0.003340
112.441,82.4131,-0.003340
112.472,82.4068,-0.003340
112.503,82.4007,-0.003340
112.533,82.3945,-0.003340
112.564,82.3884,-0.003340
112.595,82.3822,-0.003340
112.624,82.3764,0.006672
112.656,82.3697,0.006672
112.687,82.3638,0.006672
112.718,82.3576,0.006672
112.749,82.3514,0.006672
112.781,82.3450,0.006672
112.813,82.3387,0.006672
112.844,82.3325,0.006672
112.875,82.3263,0.016599
112.907,82.3198,0.016599
112.938,82.3137,0.016599
112.969,82.3073,0.016599
113.000,82.3012,0.016599
113.032,82.2949,0.016599
113.063,82.2888,0.016599
113.092,82.2827,0.016599
113.122,82.2769,0.026536
113.154,82.2705,0.026536
113.184,82.2645,0.026536
113.215,82.2583,0.026536
113.246,82.2521,0.026536
113.277,82.2459,0.026536
113.308,82.2397,0.026536
113.340,82.2332,0.026536
113.370,82.2270,0.036623
113.402,82.2208,0.036623
113.434,82.2145,0.036623
113.465,82.2083,0.036623
113.496,82.2022,0.036623
113.527,82.1958,0.036623
113.558,82.1898,0.036623
113.588,82.1835,0.036623
113.619,82.1772,0.046833
113.650,82.1711,0.046833
113.681,82.1650,0.046833
113.713,82.1587,0.046833
113.743,82.1526,0.046833
113.775,82.1462,0.046833
113.806,82.1401,0.046833
113.837,82.1338,0.046833
113.869,82.1276,0.057231
113.900,82.1214,0.057231
113.930,82.1153,0.057231
113.961,82.1090,0.057231
113.992,82.1026,0.057231
114.023,82.0966,0.057231
114.054,82.0906,0.057231
114.085,82.0842,0.057231
114.116,82.0781,0.067883
114.146,82.0720,0.067883
114.179,82.0656,0.067883
114.209,82.0595,0.067883
114.240,82.0534,0.067883
114.271,82.0472,0.067883
114.302,82.0409,0.067883
114.333,82.0348,0.067883
114.364,82.0286,0.078723
114.395,82.0223,0.078723
114.426,82.0162,0.078723
114.458,82.0096,0.078723
114.489,82.0036,0.078723
114.520,81.9972,0.078723
114.551,81.9909,0.078723
114.582,81.9849,0.078723
114.613,81.9787,0.089789
114.643,81.9727,0.089789
114.673,81.9663,0.089789
114.704,81.9604,0.089789
114.735,81.9543,0.089789
114.765,81.9481,0.089789
114.797,81.9419,0.089789
114.828,81.9356,0.089789
114.859,81.9294,0.101203
114.890,81.9232,0.101203
114.921,81.9171,0.101203
114.952,81.9108,0.101203
114.983,81.9047,0.101203
115.014,81.8985,0.101203
115.045,81.8922,0.101203
115.076,81.8861,0.101203
115.108,81.8797,0.112890
115.138,81.8736,0.112890
115.169,81.8674,0.112890
115.201,81.8612,0.112890
115.232,81.8547,0.112890
115.263,81.8486,0.112890
115.295,81.8423,0.112890
115.325,81.8362,0.112890
115.356,81.8300,0.112890
115.387,81.8240,0.124888
115.420,81.8173,0.124888
115.450,81.8112,0.124888
115.482,81.8049,0.124888
115.512,81.7987,0.124888
115.544,81.7925,0.124888
115.575,81.7863,0.124888
115.606,81.7801,0.124888
115.637,81.7740,0.137130
115.668,81.7677,0.137130
115.698,81.7617,0.137130
115.730,81.7551,0.137130
115.760,81.7492,0.137130
115.791,81.7430,0.137130
115.822,81.7368,0.137130
115.854,81.7303,0.137130
115.884,81.7244,0.149664
115.916,81.7181,0.149664
115.946,81.7121,0.149664
115.977,81.7056,0.149664
116.008,81.6997,0.149664
116.040,81.6934,0.149664
116.070,81.6873,0.149664
116.102,81.6810,0.149664
116.132,81.6746,0.162715
116.164,81.6686,0.162715
116.195,81.6622,0.162715
116.226,81.6560,0.162715
116.256,81.6501,0.162715
116.287,81.6439,0.162715
116.318,81.6377,0.162715
116.349,81.6315,0.162715
116.381,81.6252,0.162715
116.411,81.6190,0.176124
116.443,81.6128,0.176124
116.474,81.6064,0.176124
116.505,81.6002,0.176124
116.536,81.5942,0.176124
116.567,81.5878,0.176124
116.598,81.5817,0.176124
116.630,81.5754,0.189863
116.660,81.5691,0.189863
116.691,81.5631,0.189863
116.722,81.5569,0.189863
116.753,81.5507,0.189863
116.783,81.5445,0.189863
116.814,81.5382,0.189863
116.845,81.5323,0.189863
116.875,81.5262,0.189863
116.907,81.5199,0.204025
116.937,81.5139,0.204025
116.968,81.5077,0.204025
116.999,81.5016,0.204025
117.030,81.4953,0.204025
117.061,81.4891,0.204025
117.092,81.4828,0.204025
117.124,81.4765,0.218497
117.155,81.4703,0.218497
117.186,81.4641,0.218497
117.217,81.4578,0.218497
117.248,81.4518,0.218497
117.279,81.4454,0.218497
117.310,81.4394,0.218497
117.340,81.4332,0.218497
117.372,81.4267,0.233346
117.404,81.4204,0.233346
117.435,81.4142,0.233346
117.467,81.4077,0.233346
117.497,81.4018,0.233346
117.527,81.3958,0.233346
117.559,81.3894,0.233346
117.590,81.3833,0.233346
117.621,81.3770,0.248524
117.652,81.3708,0.248524
117.684,81.3645,0.248524
117.715,81.3583,0.248524
117.746,81.3522,0.248524
117.777,81.3459,0.248524
117.807,81.3399,0.248524
117.839,81.3335,0.248524
117.870,81.3273,0.264059
117.901,81.3211,0.264059
117.932,81.3150,0.264059
117.963,81.3088,0.264059
117.993,81.3022,0.264059
118.025,81.2962,0.264059
118.056,81.2902,0.264059
118.086,81.2840,0.264059
118.118,81.2778,0.279877
118.149,81.2714,0.279877
118.181,81.2652,0.279877
118.212,81.2588,0.279877
118.243,81.2527,0.279877
118.274,81.2465,0.279877
118.305,81.2402,0.279877
118.337,81.2339,0.279877
118.368,81.2278,0.296025
118.400,81.2215,0.296025
118.430,81.2154,0.296025
118.461,81.2089,0.296025
118.493,81.2026,0.296025
118.524,81.1964,0.296025
118.554,81.1905,0.296025
118.585,81.1841,0.296025
118.617,81.1779,0.296025
118.648,81.1719,0.312595
118.679,81.1655,0.312595
118.709,81.1593,0.312595
118.741,81.1531,0.312595
118.772,81.1470,0.312595
118.804,81.1406,0.312595
118.834,81.1344,0.312595
118.865,81.1283,0.312595
118.895,81.1222,0.329505
118.926,81.1162,0.329505
118.957,81.1098,0.329505
118.988,81.1036,0.329505
119.020,81.0974,0.329505
119.051,81.0910,0.329505
119.082,81.0849,0.329505
119.112,81.0787,0.329505
119.143,81.0726,0.346810
119.173,81.0666,0.346810
119.203,81.0607,0.346810
119.235,81.0543,0.346810
119.266,81.0482,0.346810
119.298,81.0418,0.346810
119.329,81.0355,0.346810
119.360,81.0293,0.346810
119.391,81.0231,0.364528
119.421,81.0171,0.364528
119.453,81.0106,0.364528
119.484,81.0045,0.364528
119.516,80.9980,0.364528
119.547,80.9918,0.364528
119.578,80.9857,0.364528
119.610,80.9792,0.382652
119.640,80.9733,0.382652
119.671,80.9671,0.382652
119.701,80.9610,0.382652
119.732,80.9547,0.382652
119.764,80.9486,0.382652
119.795,80.9422,0.382652
119.826,80.9360,0.382652
119.858,80.9296,0.401152
119.889,80.9234,0.401152
119.920,80.9171,0.401152
119.950,80.9112,0.401152
119.982,80.9050,0.401152
120.013,80.8986,0.401152
120.045,80.8923,0.401152
120.075,80.8861,0.401152
120.107,80.8799,0.420028
120.138,80.8737,0.420028
120.169,80.8676,0.420028
120.199,80.8614,0.420028
120.231,80.8551,0.420028
120.262,80.8489,0.420028
120.292,80.8429,0.420028
120.323,80.8366,0.420028
120.354,80.8305,0.420028
120.385,80.8243,0.420028
120.416,80.8181,0.439290
120.447,80.8118,0.439290
120.478,80.8056,0.439290
120.510,80.7993,0.439290
120.543,80.7926,0.439290
120.573,80.7868,0.439290
120.604,80.7806,0.439290
120.635,80.7744,0.458843
120.666,80.7682,0.458843
120.697,80.7618,0.458843
120.728,80.7556,0.458843
120.759,80.7494,0.458843
120.790,80.7434,0.458843
120.821,80.7370,0.458843
120.852,80.7308,0.458843
120.883,80.7245,0.478661
120.915,80.7183,0.478661
120.946,80.7120,0.478661
120.977,80.7059,0.478661
121.009,80.6994,0.478661
121.040,80.6934,0.478661
121.072,80.6869,0.478661
121.103,80.6807,0.478661
121.133,80.6748,0.498788
121.164,80.6686,0.498788
121.195,80.6622,0.498788
121.227,80.6558,0.498788
121.257,80.6497,0.498788
121.288,80.6435,0.498788
121.319,80.6374,0.498788
121.351,80.6312,0.498788
121.382,80.6249,0.519170
121.413,80.6187,0.519170
121.444,80.6125,0.519170
121.475,80.6062,0.519170
121.506,80.6001,0.519170
121.537,80.5938,0.519170
121.568,80.5877,0.519170
121.598,80.5815,0.519170
121.630,80.5753,0.539712
121.662,80.5690,0.539712
121.693,80.5626,0.539712
121.725,80.5563,0.539712
121.755,80.5502,0.539712
121.787,80.5440,0.539712
121.817,80.5376,0.539712
121.850,80.5314,0.539712
121.880,80.5252,0.560197
121.910,80.5192,0.560197
121.941,80.5130,0.560197
121.973,80.5067,0.560197
122.004,80.5005,0.560197
122.035,80.4942,0.560197
122.066,80.4881,0.560197
122.097,80.4818,0.560197
122.129,80.4756,0.580645
122.160,80.4693,0.580645
122.191,80.4632,0.580645
122.223,80.4567,0.580645
122.254,80.4505,0.580645
122.285,80.4443,0.580645
122.315,80.4381,0.580645
122.347,80.4319,0.580645
122.378,80.4257,0.580645
122.409,80.4194,0.601403
122.440,80.4133,0.601403
122.472,80.4070,0.601403
122.502,80.4009,0.601403
122.533,80.3947,0.601403
122.564,80.3885,0.601403
122.595,80.3823,0.601403
122.626,80.3761,0.622208
122.658,80.3698,0.622208
122.689,80.3635,0.622208
122.720,80.3571,0.622208
122.751,80.3512,0.622208
122.782,80.3449,0.622208
122.814,80.3387,0.622208
122.844,80.3323,0.622208
122.875,80.3261,0.643446
122.906,80.3201,0.643446
122.937,80.3137,0.643446
122.968,80.3077,0.643446
122.998,80.3016,0.643446
123.029,80.2954,0.643446
123.060,80.2892,0.643446
123.091,80.2831,0.643446
123.122,80.2768,0.665889
123.154,80.2704,0.665889
123.185,80.2641,0.665889
123.217,80.2579,0.665889
123.248,80.2518,0.665889
123.279,80.2455,0.665889
123.311,80.2392,0.665889
123.341,80.2330,0.688388
123.374,80.2264,0.688388
123.404,80.2206,0.688388
123.437,80.2139,0.688388
123.467,80.2081,0.688388
123.497,80.2017,0.688388
123.529,80.1955,0.688388
123.559,80.1895,0.688388
123.590,80.1834,0.688388
123.621,80.1769,0.710755
123.653,80.1709,0.710755
123.685,80.1643,0.710755
123.715,80.1583,0.710755
123.746,80.1520,0.710755
123.776,80.1461,0.710755
123.808,80.1396,0.710755
123.840,80.1333,0.710755
123.872,80.1268,0.734289
123.903,80.1208,0.734289
123.935,80.1144,0.734289
123.964,80.1086,0.734289
123.995,80.1021,0.734289
124.026,80.0958,0.734289
124.058,80.0899,0.734289
124.088,80.0838,0.734289
124.118,80.0777,0.734289
124.149,80.0714,0.758849
124.181,80.0651,0.758849
124.212,80.0589,0.758849
124.242,80.0529,0.758849
124.274,80.0465,0.758849
124.305,80.0404,0.758849
124.337,80.0338,0.758849
124.369,80.0276,0.758849
124.400,80.0213,0.783766
124.430,80.0153,0.783766
124.461,80.0091,0.783766
124.492,80.0029,0.783766
124.523,79.9969,0.783766
124.554,79.9905,0.783766
124.585,79.9845,0.783766
124.616,79.9780,0.808947
124.648,79.9718,0.808947
124.677,79.9658,0.808947
124.708,79.9596,0.808947
124.739,79.9534,0.808947
124.770,79.9474,0.808947
124.801,79.9410,0.808947
124.832,79.9348,0.808947
124.863,79.9288,0.808947
124.894,79.9223,0.833996
124.925,79.9164,0.833996
124.956,79.9100,0.833996
124.988,79.9037,0.833996
125.019,79.8976,0.833996
125.051,79.8912,0.833996
125.082,79.8850,0.833996
125.113,79.8788,0.859478
125.143,79.8727,0.859478
125.175,79.8663,0.859478
125.207,79.8599,0.859478
125.236,79.8540,0.859478
125.267,79.8480,0.859478
125.298,79.8417,0.859478
125.330,79.8354,0.859478
125.361,79.8290,0.859478
125.392,79.8230,0.885703
125.422,79.8169,0.885703
125.453,79.8106,0.885703
125.484,79.8046,0.885703
125.516,79.7983,0.885703
125.547,79.7920,0.885703
125.578,79.7858,0.885703
125.610,79.7792,0.912239
125.641,79.7732,0.912239
125.672,79.7670,0.912239
125.702,79.7610,0.912239
125.734,79.7546,0.912239
125.765,79.7483,0.912239
125.796,79.7421,0.912239
125.828,79.7359,0.912239
125.858,79.7297,0.912239
125.890,79.7234,0.938643
125.921,79.7172,0.938643
125.951,79.7112,0.938643
125.983,79.7056,0.938643
126.014,79.7011,0.938643
126.046,79.6970,0.938643
126.076,79.6937,0.938643
126.108,79.6913,0.964322
126.139,79.6896,0.964322
126.170,79.6885,0.964322
126.202,79.6883,0.964322
126.232,79.6883,0.964322
126.266,79.6883,0.964322
126.293,79.6883,0.964322
126.324,79.6883,0.964322
126.355,79.6883,0.964322
126.385,79.6883,0.977919
126.417,79.6890,0.977919
126.448,79.6905,0.977919
126.479,79.6926,0.977919
126.510,79.6955,0.977919
126.541,79.6991,0.977919
126.572,79.7035,0.977919
126.604,79.7085,0.977919
126.635,79.7143,0.973525
126.666,79.7205,0.973525
126.697,79.7267,0.973525
126.728,79.7331,0.973525
126.758,79.7390,0.973525
126.790,79.7453,0.973525
126.820,79.7514,0.973525
126.852,79.7577,0.973525
126.882,79.7637,0.947639
126.913,79.7699,0.947639
126.945,79.7762,0.947639
126.976,79.7824,0.947639
127.007,79.7887,0.947639
127.037,79.7948,0.947639
127.068,79.8009,0.947639
127.100,79.8073,0.905181
127.131,79.8135,0.905181
127.162,79.8199,0.905181
127.194,79.8262,0.905181
127.225,79.8323,0.905181
127.256,79.8384,0.905181
127.287,79.8448,0.905181
127.318,79.8509,0.905181
127.349,79.8572,0.905181
127.380,79.8633,0.863891
127.411,79.8696,0.863891
127.442,79.8757,0.863891
127.473,79.8820,0.863891
127.504,79.8881,0.863891
127.534,79.8943,0.863891
127.566,79.9004,0.863891
127.597,79.9069,0.826581
127.630,79.9134,0.826581
127.662,79.9197,0.826581
127.691,79.9257,0.826581
127.723,79.9320,0.826581
127.754,79.9382,0.826581
127.785,79.9443,0.826581
127.816,79.9506,0.826581
127.848,79.9568,0.826581
127.879,79.9632,0.826581
127.910,79.9693,0.791821
127.941,79.9756,0.791821
127.973,79.9820,0.791821
128.002,79.9879,0.791821
128.034,79.9940,0.791821
128.065,80.0003,0.791821
128.096,80.0065,0.791821
128.128,80.0129,0.791821
128.159,80.0191,0.759037
128.190,80.0253,0.759037
128.221,80.0316,0.759037
128.253,80.0379,0.759037
128.283,80.0440,0.759037
128.314,80.0501,0.759037
128.347,80.0566,0.759037
128.376,80.0626,0.727852
128.408,80.0689,0.727852
128.439,80.0751,0.727852
128.470,80.0813,0.727852
128.501,80.0876,0.727852
128.531,80.0935,0.727852
128.562,80.0998,0.727852
128.594,80.1062,0.727852
128.624,80.1121,0.727852
128.655,80.1183,0.698061
128.686,80.1246,0.698061
128.718,80.1310,0.698061
128.748,80.1370,0.698061
128.779,80.1431,0.698061
128.811,80.1494,0.698061
128.842,80.1557,0.698061
128.873,80.1621,0.698061
128.904,80.1683,0.669370
128.936,80.1745,0.669370
128.967,80.1807,0.669370
128.999,80.1870,0.669370
129.030,80.1932,0.669370
129.061,80.1998,0.669370
129.092,80.2057,0.669370
129.124,80.2122,0.641668
129.155,80.2182,0.641668
129.185,80.2244,0.641668
129.217,80.2308,0.641668
129.246,80.2366,0.641668
129.277,80.2429,0.641668
129.309,80.2491,0.641668
129.339,80.2553,0.641668
129.371,80.2616,0.641668
129.403,80.2680,0.615038
129.434,80.2742,0.615038
129.467,80.2807,0.615038
129.498,80.2868,0.615038
129.528,80.2931,0.615038
129.560,80.2992,0.615038
129.590,80.3053,0.615038
129.621,80.3116,0.589433
129.653,80.3178,0.589433
129.684,80.3242,0.589433
129.715,80.3302,0.589433
129.745,80.3363,0.589433
129.776,80.3424,0.589433
129.808,80.3490,0.589433
129.838,80.3549,0.589433
129.870,80.3612,0.589433
129.900,80.3672,0.564554
129.931,80.3735,0.564554
129.961,80.3796,0.564554
129.993,80.3860,0.564554
130.024,80.3922,0.564554
130.056,80.3986,0.564554
130.087,80.4048,0.564554
130.119,80.4112,0.540380
130.151,80.4175,0.540380
130.182,80.4236,0.540380
130.214,80.4302,0.540380
130.244,80.4361,0.540380
130.275,80.4423,0.540380
130.307,80.4487,0.540380
130.337,80.4547,0.540380
130.368,80.4609,0.517166
130.399,80.4672,0.517166
130.429,80.4732,0.517166
130.460,80.4794,0.517166
130.492,80.4858,0.517166
130.523,80.4920,0.517166
130.554,80.4983,0.517166
130.585,80.5042,0.517166
130.616,80.5107,0.517166
130.648,80.5169,0.494695
130.680,80.5233,0.494695
130.710,80.5295,0.494695
130.742,80.5356,0.494695
130.772,80.5417,0.494695
130.804,80.5481,0.494695
130.835,80.5542,0.494695
130.865,80.5603,0.494695
130.898,80.5667,0.472751
130.927,80.5727,0.472751
130.958,80.5789,0.472751
130.990,80.5852,0.472751
131.021,80.5917,0.472751
131.052,80.5977,0.472751
131.084,80.6042,0.472751
131.114,80.6101,0.451438
131.145,80.6164,0.451438
131.176,80.6226,0.451438
131.207,80.6288,0.451438
131.238,80.6351,0.451438
131.270,80.6413,0.451438
131.300,80.6474,0.451438
131.331,80.6536,0.451438
131.362,80.6598,0.430877
131.393,80.6660,0.430877
131.423,80.6722,0.430877
131.455,80.6782,0.430877
131.486,80.6846,0.430877
131.517,80.6908,0.430877
131.548,80.6968,0.430877
131.579,80.7032,0.430877
131.609,80.7091,0.410844
131.640,80.7154,0.410844
131.671,80.7214,0.410844
131.701,80.7276,0.410844
131.732,80.7337,0.410844
131.763,80.7399,0.410844
131.794,80.7461,0.410844
131.824,80.7522,0.410844
131.854,80.7582,0.391412
131.885,80.7646,0.391412
131.917,80.7706,0.391412
131.949,80.7771,0.391412
131.980,80.7832,0.391412
132.010,80.7892,0.391412
132.041,80.7954,0.391412
132.072,80.8016,0.391412
132.103,80.8080,0.372724
132.134,80.8140,0.372724
132.165,80.8202,0.372724
132.196,80.8266,0.372724
132.227,80.8328,0.372724
132.259,80.8391,0.372724
132.290,80.8452,0.372724
132.320,80.8514,0.372724
132.352,80.8576,0.354723
132.383,80.8638,0.354723
132.413,80.8699,0.354723
132.443,80.8761,0.354723
132.475,80.8823,0.354723
132.506,80.8885,0.354723
132.537,80.8947,0.354723
132.568,80.9010,0.354723
132.599,80.9072,0.337268
132.631,80.9135,0.337268
132.662,80.9197,0.337268
132.692,80.9258,0.337268
132.724,80.9320,0.337268
132.755,80.9384,0.337268
132.787,80.9448,0.337268
132.817,80.9507,0.337268
132.848,80.9569,0.337268
132.879,80.9632,0.320208
132.911,80.9697,0.320208
132.942,80.9758,0.320208
132.974,80.9820,0.320208
133.004,80.9882,0.320208
133.035,80.9944,0.320208
133.066,81.0005,0.320208
133.098,81.0069,0.320208
133.128,81.0129,0.303647
133.159,81.0192,0.303647
133.190,81.0253,0.303647
133.221,81.0315,0.303647
133.252,81.0379,0.303647
133.284,81.0441,0.303647
133.315,81.0502,0.303647
133.345,81.0564,0.303647
133.376,81.0627,0.287622
133.407,81.0689,0.287622
133.439,81.0750,0.287622
133.470,81.0813,0.287622
133.502,81.0875,0.287622
133.533,81.0938,0.287622
133.564,81.1002,0.287622
133.595,81.1064,0.287622
133.626,81.1124,0.272152
133.657,81.1186,0.272152
133.688,81.1248,0.272152
133.719,81.1312,0.272152
133.750,81.1374,0.272152
133.782,81.1436,0.272152
133.812,81.1497,0.272152
133.843,81.1559,0.257115
133.873,81.1619,0.257115
133.904,81.1681,0.257115
133.936,81.1745,0.257115
133.966,81.1807,0.257115
133.998,81.1870,0.257115
134.029,81.1931,0.257115
134.060,81.1994,0.257115
134.090,81.2053,0.257115
134.121,81.2117,0.242454
134.152,81.2176,0.242454
134.185,81.2242,0.242454
134.215,81.2303,0.242454
134.246,81.2365,0.242454
134.276,81.2425,0.242454
134.307,81.2489,0.242454
134.338,81.2551,0.242454
134.370,81.2613,0.242454
134.401,81.2673,0.228368
134.431,81.2736,0.228368
134.462,81.2800,0.228368
134.493,81.2861,0.228368
134.525,81.2922,0.228368
134.556,81.2984,0.228368
134.586,81.3046,0.228368
134.617,81.3108,0.228368
134.648,81.3167,0.214752
134.678,81.3229,0.214752
134.708,81.3289,0.214752
134.740,81.3352,0.214752
134.771,81.3415,0.214752
134.802,81.3477,0.214752
134.832,81.3539,0.214752
134.863,81.3599,0.214752
134.894,81.3662,0.201409
134.925,81.3721,0.201409
134.956,81.3785,0.201409
134.986,81.3847,0.201409
135.018,81.3910,0.201409
135.049,81.3971,0.201409
135.079,81.4033,0.201409
135.111,81.4094,0.188414
135.143,81.4159,0.188414
135.174,81.4221,0.188414
135.205,81.4287,0.188414
135.236,81.4344,0.188414
135.268,81.4407,0.188414
135.299,81.4471,0.188414
135.330,81.4533,0.188414
135.361,81.4596,0.175880
135.392,81.4655,0.175880
135.422,81.4717,0.175880
135.453,81.4779,0.175880
135.484,81.4840,0.175880
135.516,81.4906,0.175880
135.547,81.4965,0.175880
135.579,81.5030,0.175880
135.609,81.5091,0.163732
135.640,81.5153,0.163732
135.670,81.5213,0.163732
135.702,81.5276,0.163732
135.733,81.5339,0.163732
135.763,81.5400,0.163732
135.795,81.5462,0.163732
135.826,81.5524,0.163732
135.856,81.5586,0.151875
135.888,81.5649,0.151875
135.918,81.5710,0.151875
135.950,81.5772,0.151875
135.980,81.5832,0.151875
136.011,81.5894,0.151875
136.042,81.5959,0.151875
136.074,81.6021,0.151875
136.104,81.6083,0.151875
136.136,81.6145,0.140273
136.166,81.6206,0.140273
136.198,81.6268,0.140273
136.229,81.6330,0.140273
136.260,81.6393,0.140273
136.291,81.6455,0.140273
136.322,81.6517,0.140273
136.353,81.6578,0.129019
136.383,81.6640,0.129019
136.415,81.6703,0.129019
136.447,81.6768,0.129019
136.478,81.6827,0.129019
136.509,81.6892,0.129019
136.540,81.6952,0.129019
136.571,81.7014,0.129019
136.602,81.7078,0.118178
136.634,81.7140,0.118178
136.665,81.7203,0.118178
136.696,81.7264,0.118178
136.727,81.7326,0.118178
136.758,81.7389,0.118178
136.789,81.7451,0.118178
136.820,81.7513,0.118178
136.851,81.7575,0.118178
136.882,81.7637,0.118178
136.913,81.7698,0.107555
136.943,81.7760,0.107555
136.974,81.7820,0.107555
137.006,81.7886,0.107555
137.037,81.7947,0.107555
137.068,81.8009,0.107555
137.099,81.8071,0.107555
137.130,81.8133,0.097110
137.161,81.8196,0.097110
137.192,81.8256,0.097110
137.224,81.8322,0.097110
137.255,81.8382,0.097110
137.284,81.8442,0.097110
137.315,81.8503,0.097110
137.346,81.8565,0.097110
137.378,81.8628,0.086975
137.410,81.8694,0.086975
137.441,81.8754,0.086975
137.473,81.8819,0.086975
137.504,81.8880,0.086975
137.536,81.8944,0.086975
137.567,81.9005,0.086975
137.597,81.9067,0.086975
137.628,81.9129,0.077142
137.659,81.9191,0.077142
137.690,81.9252,0.077142
137.721,81.9315,0.077142
137.752,81.9378,0.077142
137.783,81.9439,0.077142
137.815,81.9502,0.077142
137.845,81.9564,0.077142
137.876,81.9625,0.067563
137.907,81.9687,0.067563
137.939,81.9749,0.067563
137.970,81.9814,0.067563
138.001,81.9874,0.067563
138.032,81.9936,0.067563
138.062,81.9997,0.067563
138.094,82.0062,0.067563
138.125,82.0122,0.058068
138.157,82.0186,0.058068
138.187,82.0245,0.058068
138.218,82.0308,0.058068
138.250,82.0373,0.058068
138.281,82.0435,0.058068
138.312,82.0496,0.058068
138.344,82.0560,0.058068
138.375,82.0623,0.048724
138.405,82.0684,0.048724
138.437,82.0745,0.048724
138.468,82.0808,0.048724
138.499,82.0870,0.048724
138.530,82.0933,0.048724
138.561,82.0994,0.048724
138.592,82.1059,0.048724
138.623,82.1118,0.039587
138.654,82.1182,0.039587
138.685,82.1241,0.039587
138.716,82.1303,0.039587
138.746,82.1365,0.039587
138.778,82.1428,0.039587
138.808,82.1490,0.039587
138.839,82.1551,0.039587
138.870,82.1614,0.030601
138.901,82.1674,0.030601
138.932,82.1736,0.030601
138.962,82.1798,0.030601
138.994,82.1860,0.030601
139.025,82.1923,0.030601
139.056,82.1985,0.030601
139.088,82.2048,0.030601
139.120,82.2112,0.021643
139.150,82.2174,0.021643
139.181,82.2234,0.021643
139.212,82.2296,0.021643
139.242,82.2356,0.021643
139.273,82.2420,0.021643
139.304,82.2480,0.021643
139.336,82.2545,0.021643
139.367,82.2607,0.012779
139.398,82.2669,0.012779
139.429,82.2731,0.012779
139.459,82.2791,0.012779
139.492,82.2857,0.012779
139.521,82.2914,0.012779
139.552,82.2977,0.012779
139.583,82.3038,0.012779
139.614,82.3100,0.004103
139.645,82.3162,0.004103
139.677,82.3228,0.004103
139.709,82.3291,0.004103
139.740,82.3353,0.004103
139.770,82.3413,0.004103
139.801,82.3475,0.004103
139.833,82.3538,0.004103
139.864,82.3600,-0.004498
139.896,82.3663,-0.004498
139.925,82.3723,-0.004498
139.957,82.3786,-0.004498
139.992,82.3857,-0.004498
140.018,82.3909,-0.004498
140.050,82.3973,-0.004498
140.080,82.4032,-0.004498
140.111,82.4096,-0.013127
140.141,82.4156,-0.013127
140.172,82.4218,-0.013127
140.203,82.4278,-0.013127
140.234,82.4343,-0.013127
140.266,82.4405,-0.013127
140.298,82.4469,-0.013127
140.329,82.4530,-0.013127
140.361,82.4595,-0.013127
140.393,82.4658,-0.021803
140.425,82.4722,-0.021803
140.455,82.4782,-0.021803
140.486,82.4845,-0.021803
140.517,82.4908,-0.021803
140.548,82.4969,-0.021803
140.579,82.5031,-0.021803
140.610,82.5093,-0.021803
140.641,82.5154,-0.030516
140.672,82.5217,-0.030516
140.703,82.5278,-0.030516
140.734,82.5341,-0.030516
140.766,82.5405,-0.030516
140.796,82.5465,-0.030516
140.827,82.5526,-0.030516
140.859,82.5591,-0.030516
140.890,82.5653,-0.039201
140.921,82.5715,-0.039201
140.952,82.5777,-0.039201
140.983,82.5840,-0.039201
141.014,82.5901,-0.039201
141.045,82.5963,-0.039201
141.076,82.6025,-0.039201
141.107,82.6087,-0.039201
141.137,82.6146,-0.047934
141.168,82.6208,-0.047934
141.198,82.6268,-0.047934
141.228,82.6330,-0.047934
141.260,82.6392,-0.047934
141.291,82.6456,-0.047934
141.323,82.6518,-0.047934
141.354,82.6580,-0.047934
141.386,82.6642,-0.056723
141.417,82.6699,-0.056723
141.448,82.6748,-0.056723
141.479,82.6789,-0.056723
141.510,82.6821,-0.056723
141.541,82.6848,-0.056723
141.572,82.6867,-0.056723
141.603,82.6878,-0.056723
141.634,82.6883,-0.056723
141.665,82.6883,-0.064909
141.696,82.6883,-0.064909
141.727,82.6883,-0.064909
141.758,82.6883,-0.064909
141.789,82.6883,-0.064909
141.820,82.6883,-0.064909
141.851,82.6883,-0.064909
141.882,82.6883,-0.069068
141.912,82.6883,-0.069068
141.943,82.6883,-0.069068
141.973,82.6883,-0.069068
142.005,82.6883,-0.069068
142.036,82.6883,-0.069068
142.067,82.6883,-0.069068
142.100,82.6883,-0.069068
142.130,82.6883,-0.068777
142.161,82.6883,-0.068777
142.192,82.6883,-0.068777
142.222,82.6883,-0.068777
142.254,82.6883,-0.068777
142.285,82.6883,-0.068777
142.316,82.6883,-0.068777
142.347,82.6883,-0.067600
142.377,82.6883,-0.067600
142.408,82.6883,-0.067600
142.438,82.6883,-0.067600
142.470,82.6883,-0.067600
142.500,82.6883,-0.067600
142.531,82.6883,-0.067600
142.563,82.6883,-0.067600
142.593,82.6883,-0.067600
142.624,82.6883,-0.067600
142.655,82.6883,-0.066518
142.687,82.6883,-0.066518
142.718,82.6883,-0.066518
142.749,82.6883,-0.066518
142.780,82.6883,-0.066518
142.810,82.6883,-0.066518
142.842,82.6883,-0.066518
142.873,82.6883,-0.065530
142.907,82.6883,-0.065530
142.935,82.6883,-0.065530
142.967,82.6883,-0.065530
142.997,82.6883,-0.065530
143.029,82.6883,-0.065530
143.060,82.6883,-0.065530
143.090,82.6883,-0.065530
143.121,82.6883,-0.064552
143.152,82.6883,-0.064552
143.183,82.6883,-0.064552
143.214,82.6883,-0.064552
143.244,82.6883,-0.064552
143.276,82.6883,-0.064552
143.308,82.6883,-0.064552
143.338,82.6883,-0.064552
143.369,82.6883,-0.063639
143.400,82.6883,-0.063639
143.432,82.6883,-0.063639
143.463,82.6883,-0.063639
143.494,82.6883,-0.063639
143.526,82.6883,-0.063639
143.558,82.6883,-0.063639
143.589,82.6883,-0.063639
143.621,82.6883,-0.062839
143.653,82.6883,-0.062839
143.684,82.6883,-0.062839
143.716,82.6883,-0.062839
143.746,82.6883,-0.062839
143.777,82.6883,-0.062839
143.809,82.6883,-0.062839
143.841,82.6883,-0.062839
143.871,82.6883,-0.062839
143.902,82.6883,-0.062002
143.933,82.6883,-0.062002
143.965,82.6883,-0.062002
143.995,82.6883,-0.062002
144.025,82.6883,-0.062002
144.057,82.6883,-0.062002
144.088,82.6883,-0.062002
144.119,82.6883,-0.061108
144.151,82.6883,-0.061108
144.183,82.6883,-0.061108
144.215,82.6883,-0.061108
144.247,82.6883,-0.061108
144.278,82.6883,-0.061108
144.309,82.6883,-0.061108
144.340,82.6883,-0.061108
144.371,82.6883,-0.061108
144.402,82.6883,-0.060261
144.433,82.6883,-0.060261
144.463,82.6883,-0.060261
144.493,82.6883,-0.060261
144.523,82.6883,-0.060261
144.555,82.6883,-0.060261
144.585,82.6883,-0.060261
144.616,82.6883,-0.059489
144.646,82.6883,-0.059489
144.677,82.6883,-0.059489
144.708,82.6883,-0.059489
144.740,82.6883,-0.059489
144.772,82.6883,-0.059489
144.803,82.6883,-0.059489
144.834,82.6883,-0.059489
144.865,82.6883,-0.058727
144.896,82.6883,-0.058727
144.927,82.6883,-0.058727
144.958,82.6883,-0.058727
144.989,82.6883,-0.058727
145.021,82.6883,-0.058727
145.051,82.6883,-0.058727
145.083,82.6883,-0.058727
145.114,82.6883,-0.057993
145.146,82.6883,-0.057993
145.177,82.6883,-0.057993
145.207,82.6883,-0.057993
145.238,82.6883,-0.057993
145.269,82.6883,-0.057993
145.299,82.6883,-0.057993
145.330,82.6883,-0.057993
145.361,82.6883,-0.057993
145.392,82.6883,-0.057203
145.424,82.6883,-0.057203
145.454,82.6883,-0.057203
145.485,82.6883,-0.057203
145.518,82.6883,-0.057203
145.547,82.6883,-0.057203
145.579,82.6883,-0.057203
145.610,82.6883,-0.057203
145.640,82.6883,-0.056478
145.671,82.6883,-0.056478
145.703,82.6883,-0.056478
145.733,82.6883,-0.056478
145.764,82.6883,-0.056478
145.795,82.6883,-0.056478
145.826,82.6883,-0.056478
145.857,82.6883,-0.056478
145.889,82.6883,-0.055800
145.919,82.6883,-0.055800
145.951,82.6883,-0.055800
145.982,82.6883,-0.055800
146.013,82.6883,-0.055800
146.044,82.6883,-0.055800
146.075,82.6883,-0.055800
146.106,82.6883,-0.055800
146.136,82.6883,-0.055066
146.167,82.6883,-0.055066
146.199,82.6883,-0.055066
146.229,82.6883,-0.055066
146.260,82.6883,-0.055066
146.291,82.6877,-0.055066
146.323,82.6863,-0.055066
146.354,82.6843,-0.054351
146.385,82.6816,-0.054351
146.416,82.6780,-0.054351
146.447,82.6737,-0.054351
146.478,82.6686,-0.054351
146.510,82.6630,-0.054351
146.540,82.6568,-0.054351
146.570,82.6510,-0.054351
146.601,82.6448,-0.054351
146.632,82.6386,-0.054351
146.664,82.6322,-0.051754
146.695,82.6259,-0.051754
146.726,82.6197,-0.051754
146.758,82.6134,-0.051754
146.789,82.6073,-0.051754
146.820,82.6008,-0.051754
146.851,82.5946,-0.051754
146.883,82.5882,-0.051754
146.915,82.5820,-0.044104
146.946,82.5758,-0.044104
146.977,82.5696,-0.044104
147.008,82.5634,-0.044104
147.039,82.5571,-0.044104
147.070,82.5509,-0.044104
147.102,82.5445,-0.044104
147.132,82.5385,-0.033443
147.162,82.5324,-0.033443
147.194,82.5261,-0.033443
147.225,82.5199,-0.033443
147.257,82.5137,-0.033443
147.289,82.5072,-0.033443
147.319,82.5011,-0.033443
147.349,82.4951,-0.033443
147.381,82.4886,-0.022960
147.413,82.4823,-0.022960
147.444,82.4762,-0.022960
147.475,82.4700,-0.022960
147.506,82.4637,-0.022960
147.536,82.4576,-0.022960
147.567,82.4515,-0.022960
147.598,82.4453,-0.022960
147.629,82.4390,-0.022960
147.661,82.4328,-0.012619
147.692,82.4266,-0.012619
147.722,82.4204,-0.012619
147.754,82.4142,-0.012619
147.784,82.4080,-0.012619
147.815,82.4019,-0.012619
147.847,82.3955,-0.012619
147.877,82.3896,-0.002400
147.908,82.3832,-0.002400
147.939,82.3771,-0.002400
147.970,82.3708,-0.002400
148.001,82.3647,-0.002400
148.032,82.3584,-0.002400
148.063,82.3523,-0.002400
148.094,82.3461,-0.002400
148.124,82.3399,0.007744
148.155,82.3340,0.007744
148.186,82.3276,0.007744
148.216,82.3217,0.007744
148.246,82.3157,0.007744
148.278,82.3094,0.007744
148.309,82.3031,0.007744
148.340,82.2970,0.007744
148.371,82.2907,0.017813
148.403,82.2843,0.017813
148.434,82.2781,0.017813
148.466,82.2718,0.017813
148.496,82.2657,0.017813
148.527,82.2594,0.017813
148.557,82.2535,0.017813
148.589,82.2471,0.027910
148.620,82.2409,0.027910
148.651,82.2346,0.027910
148.683,82.2282,0.027910
148.714,82.2220,0.027910
148.746,82.2158,0.027910
148.777,82.2094,0.027910
148.808,82.2031,0.027910
148.839,82.1973,0.027910
148.870,82.1910,0.027910
148.901,82.1849,0.038157
148.931,82.1785,0.038157
148.963,82.1725,0.038157
148.994,82.1660,0.038157
149.025,82.1599,0.038157
149.056,82.1536,0.038157
149.088,82.1474,0.038157
149.119,82.1411,0.048527
149.149,82.1351,0.048527
149.180,82.1289,0.048527
149.211,82.1226,0.048527
149.242,82.1165,0.048527
149.272,82.1106,0.048527
149.302,82.1045,0.048527
149.333,82.0982,0.048527
149.365,82.0920,0.048527
149.396,82.0858,0.059066
149.428,82.0795,0.059066
149.459,82.0731,0.059066
149.490,82.0669,0.059066
149.522,82.0606,0.059066
149.552,82.0544,0.059066
149.583,82.0483,0.059066
149.615,82.0419,0.059066
149.646,82.0359,0.069831
149.676,82.0297,0.069831
149.707,82.0235,0.069831
149.739,82.0172,0.069831
149.770,82.0107,0.069831
149.802,82.0047,0.069831
149.832,81.9985,0.069831
149.863,81.9921,0.069831
149.895,81.9859,0.080821
149.927,81.9796,0.080821
149.957,81.9737,0.080821
149.987,81.9675,0.080821
150.019,81.9611,0.080821
150.050,81.9549,0.080821
150.082,81.9486,0.080821
150.113,81.9423,0.080821
150.144,81.9361,0.091991
150.176,81.9298,0.091991
150.207,81.9236,0.091991
150.238,81.9172,0.091991
150.268,81.9113,0.091991
150.299,81.9051,0.091991
150.331,81.8986,0.091991
150.361,81.8927,0.103452
150.393,81.8864,0.103452
150.423,81.8803,0.103452
150.455,81.8739,0.103452
150.485,81.8679,0.103452
150.516,81.8617,0.103452
150.546,81.8557,0.103452
150.579,81.8491,0.103452
150.610,81.8431,0.115101
150.642,81.8366,0.115101
150.673,81.8303,0.115101
150.705,81.8238,0.115101
150.736,81.8178,0.115101
150.768,81.8112,0.115101
150.799,81.8052,0.115101
150.830,81.7988,0.115101
150.861,81.7928,0.127080
150.892,81.7865,0.127080
150.924,81.7802,0.127080
150.955,81.7739,0.127080
150.987,81.7675,0.127080
151.017,81.7616,0.127080
151.048,81.7553,0.127080
151.079,81.7491,0.127080
151.111,81.7427,0.139482
151.141,81.7368,0.139482
151.172,81.7305,0.139482
151.205,81.7240,0.139482
151.236,81.7177,0.139482
151.267,81.7116,0.139482
151.298,81.7054,0.139482
151.329,81.6991,0.139482
151.360,81.6929,0.152167
151.392,81.6865,0.152167
151.423,81.6803,0.152167
151.453,81.6743,0.152167
151.483,81.6681,0.152167
151.514,81.6621,0.152167
151.544,81.6559,0.152167
151.576,81.6498,0.152167
151.606,81.6436,0.165171
151.637,81.6374,0.165171
151.668,81.6314,0.165171
151.700,81.6250,0.165171
151.730,81.6187,0.165171
151.761,81.6128,0.165171
151.792,81.6066,0.165171
151.823,81.6004,0.165171
151.854,81.5942,0.178599
151.885,81.5880,0.178599
151.916,81.5819,0.178599
151.948,81.5753,0.178599
151.979,81.5692,0.178599
152.010,81.5628,0.178599
152.043,81.5564,0.178599
152.072,81.5505,0.178599
152.103,81.5444,0.178599
152.133,81.5383,0.192403
152.164,81.5320,0.192403
152.195,81.5258,0.192403
152.226,81.5199,0.192403
152.256,81.5137,0.192403
152.287,81.5075,0.192403
152.318,81.5014,0.192403
152.350,81.4948,0.192403
152.381,81.4887,0.206490
152.412,81.4825,0.206490
152.443,81.4765,0.206490
152.474,81.4703,0.206490
152.505,81.4641,0.206490
152.536,81.4577,0.206490
152.567,81.4516,0.206490
152.598,81.4454,0.206490
152.629,81.4392,0.221019
152.659,81.4332,0.221019
152.690,81.4268,0.221019
152.721,81.4208,0.221019
152.752,81.4147,0.221019
152.783,81.4084,0.221019
152.813,81.4023,0.221019
152.844,81.3961,0.221019
152.876,81.3898,0.235943
152.907,81.3834,0.235943
152.938,81.3772,0.235943
152.970,81.3709,0.235943
153.000,81.3648,0.235943
153.032,81.3585,0.235943
153.063,81.3524,0.235943
153.094,81.3461,0.235943
153.125,81.3400,0.251121
153.156,81.3338,0.251121
153.187,81.3275,0.251121
153.218,81.3213,0.251121
153.249,81.3151,0.251121
153.281,81.3089,0.251121
153.312,81.3026,0.251121
153.343,81.2964,0.251121
153.374,81.2903,0.266647
153.405,81.2840,0.266647
153.437,81.2775,0.266647
153.468,81.2714,0.266647
153.499,81.2651,0.266647
153.530,81.2589,0.266647
153.561,81.2527,0.266647
153.592,81.2464,0.282597
153.624,81.2403,0.282597
153.655,81.2339,0.282597
153.688,81.2274,0.282597
153.717,81.2215,0.282597
153.748,81.2153,0.282597
153.778,81.2093,0.282597
153.810,81.2031,0.282597
153.840,81.1969,0.282597
153.871,81.1908,0.298923
153.901,81.1846,0.298923
153.932,81.1785,0.298923
153.964,81.1722,0.298923
153.994,81.1661,0.298923
154.025,81.1599,0.298923
154.057,81.1536,0.298923
154.087,81.1474,0.298923
154.118,81.1413,0.315616
154.150,81.1350,0.315616
154.182,81.1287,0.315616
154.213,81.1224,0.315616
154.246,81.1158,0.315616
154.275,81.1100,0.315616
154.305,81.1040,0.315616
154.336,81.0977,0.315616
154.367,81.0915,0.332686
154.399,81.0853,0.332686
154.430,81.0791,0.332686
154.461,81.0729,0.332686
154.491,81.0668,0.332686
154.522,81.0606,0.332686
154.554,81.0542,0.332686
154.585,81.0480,0.332686
154.616,81.0418,0.332686
154.646,81.0355,0.350188
154.678,81.0295,0.350188
154.708,81.0233,0.350188
154.739,81.0171,0.350188
154.770,81.0107,0.350188
154.802,81.0045,0.350188
154.832,80.9986,0.350188
154.864,80.9921,0.350188
154.894,80.9862,0.368179
154.925,80.9799,0.368179
154.957,80.9737,0.368179
154.988,80.9671,0.368179
155.020,80.9610,0.368179
155.052,80.9546,0.368179
155.083,80.9485,0.368179
155.113,80.9423,0.368179
155.144,80.9362,0.386444
155.175,80.9299,0.386444
155.206,80.9238,0.386444
155.237,80.9175,0.386444
155.268,80.9115,0.386444
155.299,80.9051,0.386444
155.330,80.8989,0.386444
155.362,80.8927,0.386444
155.393,80.8865,0.404906
155.424,80.8803,0.404906
155.455,80.8741,0.404906
155.486,80.8679,0.404906
155.517,80.8617,0.404906
155.548,80.8555,0.404906
155.579,80.8491,0.404906
155.611,80.8426,0.404906
155.644,80.8360,0.423811
155.675,80.8300,0.423811
155.705,80.8240,0.423811
155.736,80.8178,0.423811
155.766,80.8116,0.423811
155.797,80.8056,0.423811
155.828,80.7994,0.423811
155.859,80.7932,0.423811
155.890,80.7870,0.443148
155.922,80.7807,0.443148
155.952,80.7746,0.443148
155.983,80.7684,0.443148
156.014,80.7622,0.443148
156.045,80.7560,0.443148
156.076,80.7498,0.443148
156.107,80.7437,0.462843
156.138,80.7374,0.462843
156.169,80.7311,0.462843
156.199,80.7251,0.462843
156.230,80.7189,0.462843
156.262,80.7126,0.462843
156.293,80.7064,0.462843
156.324,80.7001,0.462843
156.354,80.6941,0.482857
156.386,80.6878,0.482857
156.416,80.6817,0.482857
156.447,80.6755,0.482857
156.478,80.6692,0.482857
156.509,80.6630,0.482857
156.539,80.6572,0.482857
156.571,80.6507,0.482857
156.601,80.6448,0.503089
156.633,80.6383,0.503089
156.665,80.6320,0.503089
156.695,80.6259,0.503089
156.726,80.6198,0.503089
156.757,80.6135,0.503089
156.788,80.6072,0.503089
156.819,80.6011,0.503089
156.851,80.5948,0.503089
156.882,80.5887,0.522981
156.914,80.5821,0.522981
156.944,80.5760,0.522981
156.975,80.5700,0.522981
157.007,80.5635,0.522981
157.038,80.5574,0.522981
157.069,80.5511,0.522981
157.101,80.5449,0.522981
157.131,80.5387,0.542770
157.162,80.5325,0.542770
157.193,80.5263,0.542770
157.225,80.5200,0.542770
157.256,80.5137,0.542770
157.287,80.5076,0.542770
157.318,80.5014,0.542770
157.348,80.4954,0.542770
157.379,80.4892,0.563142
157.410,80.4828,0.563142
157.442,80.4767,0.563142
157.474,80.4703,0.563142
157.504,80.4642,0.563142
157.535,80.4580,0.563142
157.566,80.4518,0.563142
157.596,80.4457,0.563142
157.628,80.4395,0.583835
157.659,80.4332,0.583835
157.690,80.4270,0.583835
157.722,80.4205,0.583835
157.754,80.4143,0.583835
157.785,80.4080,0.583835
157.816,80.4018,0.583835
157.847,80.3955,0.583835
157.879,80.3890,0.604470
157.909,80.3831,0.604470
157.940,80.3769,0.604470
157.971,80.3709,0.604470
158.001,80.3647,0.604470
158.033,80.3585,0.604470
158.064,80.3522,0.604470
158.095,80.3460,0.625737
158.125,80.3400,0.625737
158.157,80.3336,0.625737
158.186,80.3276,0.625737
158.217,80.3214,0.625737
158.249,80.3152,0.625737
158.280,80.3089,0.625737
158.312,80.3026,0.625737
158.343,80.2964,0.625737
158.373,80.2903,0.625737
158.404,80.2841,0.647897
158.434,80.2783,0.647897
158.465,80.2721,0.647897
158.496,80.2657,0.647897
158.526,80.2598,0.647897
158.557,80.2535,0.647897
158.588,80.2473,0.647897
158.620,80.2409,0.647897
158.650,80.2349,0.670349
158.682,80.2285,0.670349
158.712,80.2225,0.670349
158.744,80.2161,0.670349
158.775,80.2099,0.670349
158.806,80.2036,0.670349
158.838,80.1975,0.670349
158.867,80.1916,0.693375
158.899,80.1852,0.693375
158.930,80.1789,0.693375
158.961,80.1726,0.693375
158.993,80.1664,0.693375
159.024,80.1602,0.693375
159.055,80.1540,0.693375
159.087,80.1475,0.693375
159.117,80.1412,0.717078
159.149,80.1353,0.717078
159.179,80.1292,0.717078
159.210,80.1230,0.717078
159.240,80.1170,0.717078
159.271,80.1108,0.717078
159.302,80.1046,0.717078
159.333,80.0984,0.717078
159.365,80.0920,0.741017
159.396,80.0858,0.741017
159.427,80.0796,0.741017
159.458,80.0734,0.741017
159.489,80.0672,0.741017
159.521,80.0608,0.741017
159.553,80.0544,0.741017
159.583,80.0483,0.741017
159.613,80.0424,0.741017
159.644,80.0362,0.765398
159.675,80.0298,0.765398
159.707,80.0234,0.765398
159.737,80.0176,0.765398
159.770,80.0110,0.765398
159.799,80.0052,0.765398
159.832,79.9986,0.765398
159.862,79.9926,0.765398
159.894,79.9863,0.790296
159.926,79.9799,0.790296
159.956,79.9738,0.790296
159.987,79.9675,0.790296
160.019,79.9610,0.790296
160.050,79.9551,0.790296
160.080,79.9490,0.790296
160.111,79.9428,0.815374
160.142,79.9366,0.815374
160.173,79.9304,0.815374
160.205,79.9241,0.815374
160.236,79.9177,0.815374
160.266,79.9118,0.815374
160.297,79.9056,0.815374
160.328,79.8992,0.815374
160.359,79.8932,0.840385
160.390,79.8868,0.840385
160.421,79.8809,0.840385
160.452,79.8744,0.840385
160.483,79.8684,0.840385
160.514,79.8623,0.840385
160.545,79.8561,0.840385
160.575,79.8500,0.840385
160.607,79.8434,0.865349
160.639,79.8374,0.865349
160.669,79.8313,0.865349
160.700,79.8250,0.865349
160.731,79.8189,0.865349
160.761,79.8127,0.865349
160.792,79.8066,0.865349
160.825,79.7999,0.865349
160.855,79.7941,0.890370
160.886,79.7877,0.890370
160.917,79.7815,0.890370
160.948,79.7753,0.890370
160.980,79.7691,0.890370
161.011,79.7628,0.890370
161.042,79.7567,0.890370
161.072,79.7504,0.890370
161.103,79.7445,0.915513
161.134,79.7383,0.915513
161.165,79.7321,0.915513
161.196,79.7257,0.915513
161.227,79.7194,0.915513
161.259,79.7132,0.915513
161.290,79.7070,0.915513
161.321,79.7007,0.915513
161.352,79.6947,0.940694
161.383,79.6884,0.940694
161.413,79.6825,0.940694
161.445,79.6760,0.940694
161.475,79.6699,0.940694
161.508,79.6635,0.940694
161.538,79.6579,0.940694
161.569,79.6529,0.940694
161.601,79.6486,0.958403
161.632,79.6451,0.958403
161.663,79.6423,0.958403
161.695,79.6402,0.958403
161.726,79.6389,0.958403
161.758,79.6383,0.958403
161.789,79.6383,0.958403
161.821,79.6383,0.958403
161.851,79.6383,0.958403
161.883,79.6385,0.958403
161.914,79.6395,0.955411
161.945,79.6414,0.955411
161.976,79.6438,0.955411
162.007,79.6470,0.955411
162.037,79.6508,0.955411
162.068,79.6554,0.955411
162.099,79.6607,0.955411
162.129,79.6667,0.955411
162.160,79.6729,0.932075
162.191,79.6791,0.932075
162.222,79.6852,0.932075
162.253,79.6914,0.932075
162.285,79.6978,0.932075
162.316,79.7039,0.932075
162.347,79.7104,0.932075
162.377,79.7162,0.932075
162.409,79.7226,0.897117
162.441,79.7291,0.897117
162.472,79.7352,0.897117
162.503,79.7415,0.897117
162.534,79.7476,0.897117
162.565,79.7538,0.897117
162.596,79.7600,0.897117
162.626,79.7660,0.897117
162.657,79.7722,0.858584
162.688,79.7783,0.858584
162.718,79.7844,0.858584
162.749,79.7906,0.858584
162.781,79.7971,0.858584
162.812,79.8031,0.858584
162.843,79.8095,0.858584
162.873,79.8155,0.822694
162.904,79.8215,0.822694
162.935,79.8278,0.822694
162.966,79.8340,0.822694
162.998,79.8405,0.822694
163.028,79.8465,0.822694
163.061,79.8530,0.822694
163.091,79.8591,0.822694
163.122,79.8653,0.822694
163.153,79.8713,0.789572
163.184,79.8777,0.789572
163.215,79.8839,0.789572
163.247,79.8902,0.789572
163.277,79.8963,0.789572
163.309,79.9026,0.789572
163.340,79.9089,0.789572
163.369,79.9146,0.789572
163.400,79.9208,0.758350
163.431,79.9272,0.758350
163.464,79.9336,0.758350
163.494,79.9396,0.758350
163.525,79.9459,0.758350
163.557,79.9522,0.758350
163.587,79.9583,0.758350
163.618,79.9646,0.728643
163.649,79.9707,0.728643
163.681,79.9771,0.728643
163.713,79.9835,0.728643
163.744,79.9897,0.728643
163.774,79.9956,0.728643
163.805,80.0019,0.728643
163.837,80.0081,0.728643
163.869,80.0146,0.700319
163.901,80.0209,0.700319
163.931,80.0272,0.700319
163.962,80.0332,0.700319
163.993,80.0393,0.700319
164.023,80.0455,0.700319
164.054,80.0517,0.700319
164.086,80.0580,0.700319
164.116,80.0641,0.673106
164.146,80.0702,0.673106
164.177,80.0761,0.673106
164.208,80.0823,0.673106
164.239,80.0888,0.673106
164.270,80.0947,0.673106
164.300,80.1008,0.673106
164.330,80.1069,0.673106
164.362,80.1132,0.647003
164.393,80.1194,0.647003
164.423,80.1256,0.647003
164.455,80.1318,0.647003
164.486,80.1380,0.647003
164.517,80.1442,0.647003
164.548,80.1504,0.647003
164.578,80.1566,0.647003
164.609,80.1627,0.621897
164.640,80.1689,0.621897
164.671,80.1750,0.621897
164.702,80.1814,0.621897
164.733,80.1875,0.621897
164.765,80.1939,0.621897
164.797,80.2004,0.621897
164.827,80.2063,0.621897
164.858,80.2125,0.597573
164.890,80.2189,0.597573
164.921,80.2249,0.597573
164.952,80.2311,0.597573
164.982,80.2372,0.597573
165.013,80.2434,0.597573
165.044,80.2497,0.597573
165.075,80.2558,0.597573
165.108,80.2623,0.574190
165.138,80.2685,0.574190
165.169,80.2747,0.574190
165.199,80.2806,0.574190
165.230,80.2868,0.574190
165.261,80.2930,0.574190
165.292,80.2992,0.574190
165.323,80.3054,0.574190
165.355,80.3119,0.574190
165.387,80.3181,0.551653
165.419,80.3246,0.551653
165.450,80.3307,0.551653
165.481,80.3370,0.551653
165.511,80.3431,0.551653
165.541,80.3491,0.551653
165.572,80.3553,0.551653
165.603,80.3615,0.551653
165.635,80.3678,0.529709
165.666,80.3743,0.529709
165.698,80.3802,0.529709
165.728,80.3865,0.529709
165.760,80.3930,0.529709
165.790,80.3988,0.529709
165.822,80.4053,0.529709
165.852,80.4113,0.529709
165.884,80.4175,0.508443
165.915,80.4237,0.508443
165.945,80.4298,0.508443
165.977,80.4360,0.508443
166.007,80.4422,0.508443
166.038,80.4485,0.508443
166.070,80.4549,0.508443
166.101,80.4609,0.508443
166.132,80.4672,0.487845
166.163,80.4735,0.487845
166.195,80.4798,0.487845
166.226,80.4861,0.487845
166.260,80.4928,0.487845
166.288,80.4984,0.487845
166.321,80.5050,0.487845
166.350,80.5108,0.487845
166.381,80.5171,0.467783
166.413,80.5233,0.467783
166.443,80.5295,0.467783
166.475,80.5359,0.467783
166.506,80.5421,0.467783
166.537,80.5481,0.467783
166.569,80.5547,0.467783
166.599,80.5605,0.467783
166.631,80.5670,0.448173
166.661,80.5731,0.448173
166.693,80.5793,0.448173
166.724,80.5855,0.448173
166.755,80.5917,0.448173
166.786,80.5981,0.448173
166.818,80.6043,0.448173
166.848,80.6104,0.428958
166.879,80.6167,0.428958
166.910,80.6227,0.428958
166.941,80.6289,0.428958
166.971,80.6351,0.428958
167.002,80.6413,0.428958
167.034,80.6475,0.428958
167.066,80.6542,0.428958
167.097,80.6601,0.428958
167.128,80.6665,0.410147
167.160,80.6728,0.410147
167.190,80.6789,0.410147
167.222,80.6852,0.410147
167.254,80.6916,0.410147
167.283,80.6973,0.410147
167.315,80.7037,0.410147
167.346,80.7099,0.410147
167.376,80.7159,0.391723
167.407,80.7221,0.391723
167.438,80.7285,0.391723
167.470,80.7348,0.391723
167.501,80.7411,0.391723
167.533,80.7474,0.391723
167.564,80.7535,0.391723
167.596,80.7598,0.373656
167.626,80.7659,0.373656
167.657,80.7722,0.373656
167.688,80.7784,0.373656
167.719,80.7847,0.373656
167.750,80.7906,0.373656
167.780,80.7968,0.373656
167.812,80.8031,0.373656
167.843,80.8093,0.356031
167.874,80.8155,0.356031
167.905,80.8219,0.356031
167.935,80.8278,0.356031
167.966,80.8340,0.356031
167.998,80.8403,0.356031
168.029,80.8465,0.356031
168.060,80.8529,0.356031
168.090,80.8588,0.356031
168.122,80.8653,0.338783
168.153,80.8712,0.338783
168.184,80.8777,0.338783
168.215,80.8837,0.338783
168.247,80.8902,0.338783
168.278,80.8964,0.338783
168.309,80.9026,0.338783
168.339,80.9084,0.338783
168.369,80.9146,0.321930
168.400,80.9208,0.321930
168.430,80.9268,0.321930
168.462,80.9334,0.321930
168.491,80.9391,0.321930
168.523,80.9455,0.321930
168.555,80.9518,0.321930
168.585,80.9578,0.321930
168.616,80.9641,0.305566
168.647,80.9702,0.305566
168.678,80.9763,0.305566
168.708,80.9825,0.305566
168.739,80.9885,0.305566
168.770,80.9949,0.305566
168.800,81.0008,0.305566
168.832,81.0073,0.305566
168.863,81.0132,0.305566
168.895,81.0198,0.289682
168.926,81.0260,0.289682
168.958,81.0324,0.289682
168.989,81.0385,0.289682
169.020,81.0446,0.289682
169.051,81.0509,0.289682
169.082,81.0571,0.289682
169.113,81.0635,0.289682
169.144,81.0697,0.274297
169.176,81.0760,0.274297
169.206,81.0821,0.274297
169.238,81.0883,0.274297
169.268,81.0945,0.274297
169.299,81.1005,0.274297
169.330,81.1069,0.274297
169.361,81.1131,0.274297
169.392,81.1190,0.259336
169.423,81.1255,0.259336
169.454,81.1315,0.259336
169.485,81.1377,0.259336
169.516,81.1441,0.259336
169.547,81.1501,0.259336
169.577,81.1562,0.259336
169.609,81.1625,0.259336
169.640,81.1688,0.244844
169.672,81.1751,0.244844
169.702,81.1813,0.244844
169.733,81.1875,0.244844
169.765,81.1937,0.244844
169.796,81.2000,0.244844
169.827,81.2062,0.244844
169.858,81.2123,0.244844
169.890,81.2187,0.230720
169.922,81.2252,0.230720
169.953,81.2314,0.230720
169.985,81.2380,0.230720
170.016,81.2439,0.230720
170.046,81.2500,0.230720
170.078,81.2564,0.230720
170.109,81.2628,0.230720
170.140,81.2687,0.217010
170.171,81.2750,0.217010
170.201,81.2811,0.217010
170.233,81.2873,0.217010
170.263,81.2933,0.217010
170.294,81.2997,0.217010
170.326,81.3059,0.217010
170.357,81.3121,0.217010
170.388,81.3184,0.203846
170.419,81.3245,0.203846
170.450,81.3307,0.203846
170.482,81.3372,0.203846
170.513,81.3435,0.203846
170.544,81.3497,0.203846
170.575,81.3557,0.203846
170.606,81.3620,0.203846
170.636,81.3681,0.191001
170.667,81.3741,0.191001
170.698,81.3803,0.191001
170.729,81.3865,0.191001
170.761,81.3929,0.191001
170.791,81.3991,0.191001
170.822,81.4050,0.191001
170.852,81.4112,0.191001
170.882,81.4172,0.178496
170.914,81.4236,0.178496
170.946,81.4298,0.178496
170.978,81.4363,0.178496
171.008,81.4423,0.178496
171.040,81.4488,0.178496
171.071,81.4550,0.178496
171.102,81.4612,0.178496
171.134,81.4675,0.166376
171.166,81.4740,0.166376
171.197,81.4802,0.166376
171.228,81.4865,0.166376
171.259,81.4926,0.166376
171.290,81.4988,0.166376
171.321,81.5050,0.166376
171.352,81.5112,0.166376
171.383,81.5174,0.154538
171.414,81.5236,0.154538
171.446,81.5299,0.154538
171.477,81.5362,0.154538
171.508,81.5422,0.154538
171.539,81.5485,0.154538
171.570,81.5547,0.154538
171.602,81.5613,0.154538
171.632,81.5671,0.143030
171.663,81.5733,0.143030
171.694,81.5796,0.143030
171.725,81.5858,0.143030
171.756,81.5919,0.143030
171.787,81.5981,0.143030
171.818,81.6043,0.143030
171.848,81.6105,0.143030
171.880,81.6167,0.131842
171.911,81.6230,0.131842
171.942,81.6291,0.131842
171.974,81.6357,0.131842
172.005,81.6418,0.131842
172.037,81.6483,0.131842
172.068,81.6543,0.131842
172.098,81.6605,0.131842
172.130,81.6667,0.120992
172.162,81.6734,0.120992
172.192,81.6791,0.120992
172.223,81.6856,0.120992
172.255,81.6916,0.120992
172.286,81.6978,0.120992
172.317,81.7040,0.120992
172.348,81.7105,0.120992
172.379,81.7167,0.110406
172.411,81.7230,0.110406
172.441,81.7290,0.110406
172.473,81.7353,0.110406
172.504,81.7414,0.110406
172.534,81.7477,0.110406
172.566,81.7538,0.110406
172.597,81.7602,0.110406
172.628,81.7663,0.100027
172.658,81.7725,0.100027
172.689,81.7786,0.100027
172.720,81.7849,0.100027
172.751,81.7910,0.100027
172.782,81.7972,0.100027
172.814,81.8035,0.100027
172.845,81.8098,0.100027
172.876,81.8162,0.100027
172.907,81.8222,0.089911
172.938,81.8284,0.089911
172.970,81.8346,0.089911
173.001,81.8410,0.089911
173.032,81.8470,0.089911
173.063,81.8534,0.089911
173.094,81.8597,0.089911
173.125,81.8658,0.080031
173.157,81.8722,0.080031
173.189,81.8785,0.080031
173.220,81.8849,0.080031
173.251,81.8909,0.080031
173.283,81.8974,0.080031
173.313,81.9033,0.080031
173.344,81.9097,0.080031
173.375,81.9157,0.070433
173.406,81.9219,0.070433
173.438,81.9283,0.070433
173.468,81.9343,0.070433
173.499,81.9407,0.070433
173.531,81.9471,0.070433
173.563,81.9534,0.070433
173.594,81.9594,0.070433
173.625,81.9657,0.061070
173.655,81.9718,0.061070
173.686,81.9781,0.061070
173.717,81.9841,0.061070
173.748,81.9905,0.061070
173.780,81.9967,0.061070
173.811,82.0031,0.061070
173.842,82.0093,0.051792
173.874,82.0155,0.051792
173.903,82.0214,0.051792
173.934,82.0276,0.051792
173.966,82.0339,0.051792
173.997,82.0400,0.051792
174.028,82.0463,0.051792
174.059,82.0524,0.051792
174.090,82.0589,0.042702
174.121,82.0648,0.042702
174.152,82.0713,0.042702
174.183,82.0775,0.042702
174.215,82.0838,0.042702
174.246,82.0899,0.042702
174.277,82.0962,0.042702
174.308,82.1023,0.042702
174.340,82.1087,0.042702
174.370,82.1148,0.033753
174.402,82.1213,0.033753
174.434,82.1275,0.033753
174.466,82.1340,0.033753
174.497,82.1401,0.033753
174.527,82.1463,0.033753
174.558,82.1523,0.033753
174.590,82.1587,0.024851
174.621,82.1650,0.024851
174.652,82.1712,0.024851
174.682,82.1771,0.024851
174.713,82.1833,0.024851
174.745,82.1897,0.024851
174.776,82.1959,0.024851
174.807,82.2021,0.024851
174.838,82.2083,0.024851
174.869,82.2145,0.016063
174.899,82.2206,0.016063
174.932,82.2270,0.016063
174.963,82.2332,0.016063
174.993,82.2392,0.016063
175.023,82.2455,0.016063
175.054,82.2515,0.016063
175.086,82.2580,0.016063
175.117,82.2640,0.007368
175.148,82.2703,0.007368
175.180,82.2767,0.007368
175.210,82.2827,0.007368
175.241,82.2891,0.007368
175.272,82.2951,0.007368
175.303,82.3015,0.007368
175.336,82.3079,0.007368
175.368,82.3144,-0.001233
175.398,82.3203,-0.001233
175.430,82.3268,-0.001233
175.460,82.3327,-0.001233
175.491,82.3390,-0.001233
175.521,82.3449,-0.001233
175.553,82.3514,-0.001233
175.584,82.3575,-0.001233
175.615,82.3640,-0.001233
175.647,82.3700,-0.001233
175.678,82.3764,-0.009758
175.708,82.3823,-0.009758
175.740,82.3888,-0.009758
175.771,82.3948,-0.009758
175.802,82.4013,-0.009758
175.833,82.4072,-0.009758
175.863,82.4135,-0.009758
175.895,82.4197,-0.018283
175.926,82.4261,-0.018283
175.957,82.4321,-0.018283
175.989,82.4385,-0.018283
176.020,82.4447,-0.018283
176.051,82.4509,-0.018283
176.083,82.4574,-0.018283
176.113,82.4633,-0.018283
176.144,82.4695,-0.026865
176.175,82.4758,-0.026865
176.206,82.4819,-0.026865
176.237,82.4882,-0.026865
176.268,82.4943,-0.026865
176.298,82.5005,-0.026865
176.330,82.5066,-0.026865
176.361,82.5130,-0.026865
176.392,82.5191,-0.035494
176.424,82.5256,-0.035494
176.456,82.5318,-0.035494
176.487,82.5382,-0.035494
176.518,82.5443,-0.035494
176.549,82.5506,-0.035494
176.580,82.5567,-0.035494
176.612,82.5631,-0.044151
176.643,82.5692,-0.044151
176.673,82.5754,-0.044151
176.704,82.5815,-0.044151
176.735,82.5877,-0.044151
176.766,82.5940,-0.044151
176.797,82.6002,-0.044151
176.828,82.6063,-0.044151
176.859,82.6126,-0.044151
176.890,82.6182,-0.052883
176.922,82.6234,-0.052883
176.952,82.6276,-0.052883
176.983,82.6312,-0.052883
177.015,82.6341,-0.052883
177.045,82.6362,-0.052883
177.077,82.6376,-0.052883
177.108,82.6383,-0.052883
177.140,82.6383,-0.060938
177.171,82.6383,-0.060938
177.202,82.6383,-0.060938
177.233,82.6383,-0.060938
177.265,82.6383,-0.060938
177.296,82.6383,-0.060938
177.327,82.6383,-0.060938
177.358,82.6383,-0.060938
177.389,82.6383,-0.064730
177.419,82.6383,-0.064730
177.450,82.6383,-0.064730
177.481,82.6383,-0.064730
177.514,82.6383,-0.064730
177.544,82.6383,-0.064730
177.575,82.6383,-0.064730
177.606,82.6383,-0.064232
177.637,82.6383,-0.064232
177.668,82.6383,-0.064232
177.700,82.6383,-0.064232
177.731,82.6383,-0.064232
177.763,82.6383,-0.064232
177.794,82.6383,-0.064232
177.825,82.6383,-0.064232
177.855,82.6383,-0.062999
177.886,82.6383,-0.062999
177.917,82.6383,-0.062999
177.949,82.6383,-0.062999
177.979,82.6383,-0.062999
178.010,82.6383,-0.062999
178.041,82.6383,-0.062999
178.073,82.6383,-0.062999
178.104,82.6383,-0.061973
178.136,82.6383,-0.061973
178.166,82.6383,-0.061973
178.198,82.6383,-0.061973
178.228,82.6383,-0.061973
178.259,82.6383,-0.061973
178.290,82.6383,-0.061973
178.321,82.6383,-0.061973
178.353,82.6383,-0.061051
178.384,82.6383,-0.061051
178.415,82.6383,-0.061051
178.447,82.6383,-0.061051
178.478,82.6383,-0.061051
178.508,82.6383,-0.061051
178.539,82.6383,-0.061051
178.569,82.6383,-0.061051
178.600,82.6383,-0.060157
178.632,82.6383,-0.060157
178.663,82.6383,-0.060157
178.694,82.6383,-0.060157
178.725,82.6383,-0.060157
178.756,82.6383,-0.060157
178.787,82.6383,-0.060157
178.818,82.6383,-0.060157
178.849,82.6383,-0.060157
178.880,82.6383,-0.059235
178.911,82.6383,-0.059235
178.941,82.6383,-0.059235
178.973,82.6383,-0.059235
179.003,82.6383,-0.059235
179.033,82.6383,-0.059235
179.065,82.6383,-0.059235
179.095,82.6383,-0.059235
179.127,82.6383,-0.058285
179.158,82.6383,-0.058285
179.189,82.6383,-0.058285
179.220,82.6383,-0.058285
179.251,82.6383,-0.058285
179.282,82.6383,-0.058285
179.313,82.6383,-0.058285
179.345,82.6383,-0.058285
179.375,82.6383,-0.057447
179.406,82.6383,-0.057447
179.437,82.6383,-0.057447
179.468,82.6383,-0.057447
179.499,82.6383,-0.057447
179.530,82.6383,-0.057447
179.562,82.6383,-0.057447
179.593,82.6383,-0.057447
179.623,82.6383,-0.056619
179.654,82.6383,-0.056619
179.686,82.6383,-0.056619
179.716,82.6383,-0.056619
179.747,82.6383,-0.056619
179.780,82.6383,-0.056619
179.809,82.6383,-0.056619
179.840,82.6383,-0.056619
179.871,82.6383,-0.055838
179.902,82.6383,-0.055838
179.933,82.6383,-0.055838
179.963,82.6383,-0.055838
179.994,82.6383,-0.055838
180.026,82.6383,-0.055838
180.056,82.6383,-0.055838
180.087,82.6383,-0.055838
180.119,82.6383,-0.055838
180.149,82.6383,-0.055114
180.181,82.6383,-0.055114
180.211,82.6383,-0.055114
180.242,82.6383,-0.055114
180.273,82.6383,-0.055114
180.304,82.6383,-0.055114
180.335,82.6383,-0.055114
180.366,82.6383,-0.054361
180.397,82.6383,-0.054361
180.428,82.6383,-0.054361
180.459,82.6383,-0.054361
180.490,82.6383,-0.054361
180.520,82.6383,-0.054361
180.552,82.6383,-0.054361
180.582,82.6383,-0.054361
180.613,82.6383,-0.054361
180.644,82.6383,-0.053627
180.674,82.6383,-0.053627
180.705,82.6383,-0.053627
180.735,82.6383,-0.053627
180.767,82.6383,-0.053627
180.797,82.6383,-0.053627
180.828,82.6383,-0.053627
180.858,82.6383,-0.052921
180.889,82.6383,-0.052921
180.920,82.6383,-0.052921
180.951,82.6383,-0.052921
180.982,82.6383,-0.052921
181.014,82.6383,-0.052921
181.045,82.6383,-0.052921
181.076,82.6383,-0.052921
181.107,82.6383,-0.052187
181.138,82.6383,-0.052187
181.168,82.6383,-0.052187
181.199,82.6383,-0.052187
181.231,82.6383,-0.052187
181.262,82.6383,-0.052187
181.293,82.6383,-0.052187
181.325,82.6383,-0.052187
181.356,82.6383,-0.051434
181.387,82.6383,-0.051434
181.418,82.6383,-0.051434
181.450,82.6383,-0.051434
181.481,82.6383,-0.051434
181.512,82.6383,-0.051434
181.542,82.6383,-0.051434
181.573,82.6382,-0.051434
181.603,82.6373,-0.051434
181.634,82.6357,-0.050766
181.666,82.6332,-0.050766
181.696,82.6304,-0.050766
181.726,82.6266,-0.050766
181.757,82.6222,-0.050766
181.788,82.6171,-0.050766
181.819,82.6109,-0.050766
181.851,82.6047,-0.050766
181.883,82.5982,-0.048988
181.915,82.5919,-0.048988
181.945,82.5856,-0.048988
181.976,82.5796,-0.048988
182.007,82.5736,-0.048988
182.038,82.5672,-0.048988
182.068,82.5613,-0.048988
182.098,82.5551,-0.048988
182.129,82.5490,-0.042354
182.161,82.5426,-0.042354
182.192,82.5365,-0.042354
182.224,82.5302,-0.042354
182.254,82.5241,-0.042354
182.285,82.5178,-0.042354
182.317,82.5114,-0.042354
182.347,82.5054,-0.042354
182.378,82.4994,-0.031946
182.410,82.4929,-0.031946
182.440,82.4869,-0.031946
182.472,82.4804,-0.031946
182.503,82.4743,-0.031946
182.533,82.4681,-0.031946
182.565,82.4619,-0.031946
182.596,82.4556,-0.031946
182.627,82.4495,-0.021492
182.659,82.4431,-0.021492
182.690,82.4368,-0.021492
182.721,82.4308,-0.021492
182.752,82.4244,-0.021492
182.783,82.4182,-0.021492
182.814,82.4120,-0.021492
182.845,82.4058,-0.011245
182.877,82.3994,-0.011245
182.907,82.3932,-0.011245
182.938,82.3873,-0.011245
182.970,82.3808,-0.011245
183.001,82.3748,-0.011245
183.032,82.3683,-0.011245
183.063,82.3624,-0.011245
183.094,82.3560,-0.011245
183.124,82.3501,-0.001139
183.156,82.3437,-0.001139
183.186,82.3378,-0.001139
183.216,82.3317,-0.001139
183.247,82.3254,-0.001139
183.277,82.3196,-0.001139
183.308,82.3131,-0.001139
183.339,82.3072,-0.001139
183.370,82.3010,0.008883
183.401,82.2948,0.008883
183.432,82.2883,0.008883
183.463,82.2824,0.008883
183.494,82.2759,0.008883
183.526,82.2697,0.008883
183.557,82.2634,0.008883
183.588,82.2572,0.008883
183.619,82.2511,0.008883
183.650,82.2449,0.018876
183.681,82.2387,0.018876
183.712,82.2324,0.018876
183.743,82.2262,0.018876
183.774,82.2201,0.018876
183.805,82.2136,0.018876
183.837,82.2076,0.018876
183.869,82.2011,0.018876
183.900,82.1949,0.028879
183.931,82.1887,0.028879
183.961,82.1826,0.028879
183.992,82.1763,0.028879
184.023,82.1702,0.028879
184.055,82.1639,0.028879
184.086,82.1578,0.028879
184.117,82.1515,0.028879
184.148,82.1453,0.038976
184.180,82.1389,0.038976
184.211,82.1327,0.038976
184.241,82.1265,0.038976
184.273,82.1203,0.038976
184.305,82.1139,0.038976
184.335,82.1077,0.038976
184.367,82.1015,0.049251
184.398,82.0953,0.049251
184.428,82.0893,0.049251
184.460,82.0828,0.049251
184.491,82.0767,0.049251
184.522,82.0703,0.049251
184.553,82.0643,0.049251
184.584,82.0580,0.049251
184.616,82.0518,0.059696
184.647,82.0455,0.059696
184.678,82.0394,0.059696
184.709,82.0331,0.059696
184.740,82.0269,0.059696
184.772,82.0203,0.059696
184.804,82.0141,0.059696
184.836,82.0075,0.059696
184.868,82.0014,0.070376
184.899,81.9950,0.070376
184.929,81.9890,0.070376
184.961,81.9826,0.070376
184.992,81.9765,0.070376
185.023,81.9703,0.070376
185.054,81.9640,0.070376
185.086,81.9577,0.070376
185.116,81.9518,0.081245
185.146,81.9458,0.081245
185.176,81.9397,0.081245
185.207,81.9335,0.081245
185.238,81.9274,0.081245
185.268,81.9212,0.081245
185.300,81.9150,0.081245
185.331,81.9088,0.081245
185.363,81.9025,0.092292
185.393,81.8961,0.092292
185.425,81.8899,0.092292
185.455,81.8837,0.092292
185.487,81.8775,0.092292
185.518,81.8712,0.092292
185.549,81.8651,0.092292
185.580,81.8588,0.092292
185.612,81.8525,0.103603
185.642,81.8464,0.103603
185.674,81.8400,0.103603
185.704,81.8340,0.103603
185.736,81.8277,0.103603
185.766,81.8216,0.103603
185.798,81.8152,0.103603
185.830,81.8090,0.103603
185.861,81.8025,0.115177
185.893,81.7963,0.115177
185.924,81.7900,0.115177
185.955,81.7839,0.115177
185.985,81.7777,0.115177
186.017,81.7715,0.115177
186.048,81.7653,0.115177
186.078,81.7594,0.115177
186.108,81.7529,0.115177
186.140,81.7467,0.127118
186.172,81.7405,0.127118
186.201,81.7347,0.127118
186.232,81.7286,0.127118
186.263,81.7223,0.127118
186.294,81.7161,0.127118
186.326,81.7099,0.127118
186.356,81.7037,0.139379
186.387,81.6975,0.139379
186.419,81.6910,0.139379
186.451,81.6846,0.139379
186.482,81.6786,0.139379
186.513,81.6723,0.139379
186.543,81.6661,0.139379
186.574,81.6600,0.139379
186.606,81.6538,0.151988
186.636,81.6476,0.151988
186.667,81.6413,0.151988
186.699,81.6351,0.151988
186.729,81.6291,0.151988
186.760,81.6228,0.151988
186.792,81.6165,0.151988
186.824,81.6100,0.151988
186.855,81.6041,0.164964
186.885,81.5977,0.164964
186.916,81.5917,0.164964
186.948,81.5851,0.164964
186.980,81.5789,0.164964
187.012,81.5726,0.164964
187.043,81.5664,0.164964
187.075,81.5599,0.164964
187.105,81.5538,0.178242
187.137,81.5475,0.178242
187.168,81.5413,0.178242
187.199,81.5351,0.178242
187.230,81.5289,0.178242
187.261,81.5227,0.178242
187.291,81.5166,0.178242
187.322,81.5103,0.178242
187.354,81.5041,0.191999
187.386,81.4978,0.191999
187.415,81.4917,0.191999
187.447,81.4855,0.191999
187.478,81.4794,0.191999
187.509,81.4732,0.191999
187.539,81.4672,0.191999
187.570,81.4608,0.191999
187.601,81.4547,0.206161
187.631,81.4487,0.206161
187.662,81.4425,0.206161
187.694,81.4363,0.206161
187.724,81.4301,0.206161
187.755,81.4239,0.206161
187.787,81.4175,0.206161
187.818,81.4112,0.206161
187.850,81.4049,0.206161
187.879,81.3989,0.220652
187.910,81.3929,0.220652
187.941,81.3867,0.220652
187.972,81.3805,0.220652
188.003,81.3743,0.220652
188.034,81.3682,0.220652
188.065,81.3617,0.220652
188.096,81.3555,0.235519
188.128,81.3493,0.235519
188.158,81.3434,0.235519
188.189,81.3371,0.235519
188.220,81.3310,0.235519
188.252,81.3244,0.235519
188.283,81.3183,0.235519
188.314,81.3120,0.235519
188.349,81.3052,0.235519
188.376,81.2996,0.250707
188.407,81.2935,0.250707
188.437,81.2876,0.250707
188.468,81.2811,0.250707
188.500,81.2749,0.250707
188.531,81.2686,0.250707
188.562,81.2624,0.250707
188.593,81.2561,0.250707
188.624,81.2501,0.250707
188.656,81.2437,0.266186
188.687,81.2373,0.266186
188.719,81.2310,0.266186
188.751,81.2247,0.266186
188.782,81.2186,0.266186
188.814,81.2122,0.266186
188.846,81.2058,0.266186
188.876,81.1995,0.266186
188.907,81.1936,0.282079
188.938,81.1874,0.282079
188.969,81.1812,0.282079
189.000,81.1750,0.282079
189.030,81.1688,0.282079
189.061,81.1628,0.282079
189.092,81.1563,0.282079
189.123,81.1503,0.282079
189.154,81.1441,0.298443
189.185,81.1377,0.298443
189.216,81.1315,0.298443
189.247,81.1255,0.298443
189.280,81.1189,0.298443
189.310,81.1129,0.298443
189.342,81.1064,0.298443
189.372,81.1005,0.315117
189.403,81.0943,0.315117
189.435,81.0880,0.315117
189.466,81.0817,0.315117
189.497,81.0755,0.315117
189.527,81.0694,0.315117
189.558,81.0632,0.315117
189.591,81.0566,0.315117
189.620,81.0508,0.315117
189.651,81.0447,0.332215
189.683,81.0384,0.332215
189.713,81.0323,0.332215
189.744,81.0260,0.332215
189.775,81.0198,0.332215
189.807,81.0136,0.332215
189.837,81.0075,0.332215
189.869,81.0011,0.332215
189.901,80.9947,0.349727
189.932,80.9884,0.349727
189.963,80.9823,0.349727
189.994,80.9760,0.349727
190.025,80.9699,0.349727
190.056,80.9636,0.349727
190.088,80.9574,0.349727
190.119,80.9511,0.367568
190.152,80.9445,0.367568
190.182,80.9386,0.367568
190.213,80.9325,0.367568
190.244,80.9262,0.367568
190.274,80.9201,0.367568
190.306,80.9136,0.367568
190.337,80.9074,0.367568
190.368,80.9014,0.367568
190.400,80.8948,0.385663
190.432,80.8886,0.385663
190.462,80.8825,0.385663
190.494,80.8762,0.385663
190.525,80.8700,0.385663
190.558,80.8634,0.385663
190.586,80.8576,0.385663
190.618,80.8513,0.385663
190.649,80.8449,0.403975
190.681,80.8387,0.403975
190.713,80.8322,0.403975
190.744,80.8262,0.403975
190.775,80.8199,0.403975
190.807,80.8135,0.403975
190.836,80.8077,0.403975
190.868,80.8014,0.422710
190.898,80.7953,0.422710
190.929,80.7890,0.422710
190.961,80.7825,0.422710
190.991,80.7768,0.422710
191.022,80.7705,0.422710
191.053,80.7643,0.422710
191.084,80.7581,0.422710
191.115,80.7520,0.441153
191.145,80.7458,0.441153
191.176,80.7396,0.441153
191.207,80.7336,0.441153
191.239,80.7271,0.441153
191.270,80.7209,0.441153
191.302,80.7147,0.441153
191.333,80.7084,0.441153
191.365,80.7019,0.459850
191.395,80.6957,0.459850
191.427,80.6896,0.459850
191.457,80.6836,0.459850
191.489,80.6771,0.459850
191.520,80.6709,0.459850
191.551,80.6646,0.459850
191.582,80.6585,0.459850
191.613,80.6523,0.479413
191.643,80.6462,0.479413
191.674,80.6399,0.479413
191.706,80.6336,0.479413
191.737,80.6275,0.479413
191.767,80.6216,0.479413
191.798,80.6152,0.479413
191.831,80.6088,0.479413
191.860,80.6028,0.499014
191.892,80.5966,0.499014
191.922,80.5906,0.499014
191.953,80.5842,0.499014
191.984,80.5782,0.499014
192.015,80.5720,0.499014
192.045,80.5660,0.499014
192.076,80.5597,0.499014
192.108,80.5533,0.518521
192.138,80.5471,0.518521
192.169,80.5412,0.518521
192.200,80.5349,0.518521
192.231,80.5287,0.518521
192.261,80.5226,0.518521
192.293,80.5164,0.518521
192.325,80.5099,0.518521
192.355,80.5039,0.537990
192.387,80.4974,0.537990
192.417,80.4915,0.537990
192.448,80.4853,0.537990
192.480,80.4791,0.537990
192.510,80.4730,0.537990
192.541,80.4669,0.537990
192.572,80.4606,0.537990
192.604,80.4540,0.557176
192.635,80.4481,0.557176
192.666,80.4418,0.557176
192.697,80.4356,0.557176
192.727,80.4294,0.557176
192.758,80.4232,0.557176
192.789,80.4170,0.557176
192.821,80.4107,0.557176
192.851,80.4046,0.576231
192.882,80.3984,0.576231
192.914,80.3922,0.576231
192.945,80.3860,0.576231
192.976,80.3798,0.576231
193.007,80.3736,0.576231
193.039,80.3671,0.576231
193.069,80.3611,0.576231
193.100,80.3550,0.576231
193.131,80.3487,0.596086
193.162,80.3426,0.596086
193.193,80.3364,0.596086
193.224,80.3301,0.596086
193.255,80.3240,0.596086
193.285,80.3178,0.596086
193.317,80.3116,0.596086
193.348,80.3053,0.596086
193.379,80.2991,0.596086
193.410,80.2928,0.616402
193.442,80.2866,0.616402
193.473,80.2801,0.616402
193.505,80.2739,0.616402
193.535,80.2677,0.616402
193.567,80.2614,0.616402
193.598,80.2552,0.616402
193.629,80.2491,0.616402
193.661,80.2425,0.637000
193.689,80.2371,0.637000
193.721,80.2306,0.637000
193.752,80.2247,0.637000
193.783,80.2185,0.637000
193.814,80.2120,0.637000
193.845,80.2061,0.637000
193.876,80.1996,0.637000
193.907,80.1936,0.658257
193.938,80.1874,0.658257
193.969,80.1812,0.658257
193.998,80.1751,0.658257
194.029,80.1691,0.658257
194.061,80.1627,0.658257
194.092,80.1565,0.658257
194.124,80.1503,0.679740
194.155,80.1439,0.679740
194.186,80.1377,0.679740
194.217,80.1314,0.679740
194.248,80.1255,0.679740
194.279,80.1193,0.679740
194.309,80.1131,0.679740
194.340,80.1069,0.679740
194.371,80.1004,0.700300
194.402,80.0945,0.700300
194.432,80.0885,0.700300
194.463,80.0824,0.700300
194.493,80.0764,0.700300
194.524,80.0702,0.700300
194.555,80.0638,0.700300
194.586,80.0576,0.700300
194.618,80.0514,0.719393
194.649,80.0451,0.719393
194.680,80.0389,0.719393
194.711,80.0326,0.719393
194.743,80.0264,0.719393
194.774,80.0202,0.719393
194.805,80.0140,0.719393
194.835,80.0080,0.719393
194.866,80.0018,0.719393
194.896,79.9955,0.719393
194.927,79.9893,0.738900
194.957,79.9836,0.738900
194.988,79.9773,0.738900
195.019,79.9713,0.738900
195.049,79.9652,0.738900
195.081,79.9588,0.738900
195.111,79.9526,0.738900
195.142,79.9466,0.760251
195.174,79.9402,0.760251
195.205,79.9340,0.760251
195.237,79.9276,0.760251
195.268,79.9213,0.760251
195.299,79.9151,0.760251
195.330,79.9090,0.760251
195.361,79.9027,0.760251
195.392,79.8966,0.782627
195.422,79.8906,0.782627
195.452,79.8844,0.782627
195.483,79.8784,0.782627
195.514,79.8721,0.782627
195.546,79.8656,0.782627
195.577,79.8596,0.782627
195.607,79.8534,0.782627
195.638,79.8474,0.805305
195.668,79.8413,0.805305
195.699,79.8351,0.805305
195.731,79.8287,0.805305
195.761,79.8227,0.805305
195.793,79.8164,0.805305
195.824,79.8102,0.805305
195.855,79.8040,0.805305
195.886,79.7978,0.828444
195.917,79.7916,0.828444
195.948,79.7853,0.828444
195.979,79.7792,0.828444
196.010,79.7730,0.828444
196.042,79.7665,0.828444
196.071,79.7607,0.828444
196.102,79.7544,0.828444
196.134,79.7483,0.851997
196.164,79.7421,0.851997
196.195,79.7360,0.851997
196.226,79.7297,0.851997
196.257,79.7235,0.851997
196.288,79.7172,0.851997
196.320,79.7110,0.851997
196.351,79.7047,0.851997
196.383,79.6985,0.875766
196.414,79.6923,0.875766
196.446,79.6858,0.875766
196.477,79.6795,0.875766
196.508,79.6735,0.875766
196.539,79.6672,0.875766
196.570,79.6610,0.875766
196.601,79.6548,0.875766
196.632,79.6487,0.899724
196.663,79.6424,0.899724
196.694,79.6362,0.899724
196.725,79.6297,0.899724
196.756,79.6237,0.899724
196.788,79.6173,0.899724
196.819,79.6113,0.899724
196.850,79.6057,0.899724
196.882,79.6011,0.923737
196.913,79.5970,0.923737
196.943,79.5939,0.923737
196.974,79.5914,0.923737
197.004,79.5897,0.923737
197.035,79.5886,0.923737
197.066,79.5882,0.923737
197.097,79.5882,0.942830
197.128,79.5882,0.942830
197.159,79.5882,0.942830
197.190,79.5883,0.942830
197.221,79.5893,0.942830
197.252,79.5909,0.942830
197.283,79.5933,0.942830
197.314,79.5964,0.942830
197.345,79.6001,0.946368
197.377,79.6047,0.946368
197.408,79.6099,0.946368
197.438,79.6160,0.946368
197.471,79.6223,0.946368
197.500,79.6283,0.946368
197.533,79.6347,0.946368
197.564,79.6409,0.946368
197.594,79.6472,0.946368
197.625,79.6534,0.946368
197.656,79.6595,0.927633
197.688,79.6658,0.927633
197.718,79.6718,0.927633
197.749,79.6781,0.927633
197.781,79.6844,0.927633
197.812,79.6908,0.927633
197.844,79.6970,0.927633
197.875,79.7033,0.892676
197.906,79.7094,0.892676
197.938,79.7158,0.892676
197.970,79.7221,0.892676
198.000,79.7283,0.892676
198.032,79.7347,0.892676
198.063,79.7410,0.892676
198.094,79.7472,0.892676
198.126,79.7534,0.854857
198.157,79.7596,0.854857
198.187,79.7658,0.854857
198.217,79.7718,0.854857
198.249,79.7780,0.854857
198.279,79.7842,0.854857
198.311,79.7902,0.854857
198.341,79.7966,0.854857
198.371,79.8025,0.820201
198.402,79.8086,0.820201
198.433,79.8148,0.820201
198.465,79.8214,0.820201
198.497,79.8277,0.820201
198.529,79.8340,0.820201
198.560,79.8402,0.820201
198.592,79.8467,0.820201
198.623,79.8527,0.787718
198.654,79.8592,0.787718
198.685,79.8653,0.787718
198.716,79.8713,0.787718
198.747,79.8775,0.787718
198.778,79.8839,0.787718
198.810,79.8902,0.787718
198.840,79.8963,0.787718
198.871,79.9023,0.756741
198.901,79.9083,0.756741
198.932,79.9145,0.756741
198.963,79.9208,0.756741
198.994,79.9270,0.756741
199.024,79.9331,0.756741
199.055,79.9393,0.756741
199.087,79.9456,0.756741
199.117,79.9517,0.727241
199.149,79.9580,0.727241
199.179,79.9640,0.727241
199.210,79.9703,0.727241
199.241,79.9763,0.727241
199.271,79.9826,0.727241
199.302,79.9888,0.727241
199.333,79.9950,0.727241
199.364,80.0011,0.727241
199.395,80.0074,0.699068
199.427,80.0135,0.699068
199.459,80.0200,0.699068
199.490,80.0261,0.699068
199.522,80.0327,0.699068
199.553,80.0386,0.699068
199.583,80.0450,0.699068
199.614,80.0511,0.672024
199.646,80.0574,0.672024
199.677,80.0635,0.672024
199.707,80.0697,0.672024
199.738,80.0760,0.672024
199.769,80.0819,0.672024
199.800,80.0881,0.672024
199.831,80.0945,0.672024
199.861,80.1003,0.645968
199.892,80.1067,0.645968
199.923,80.1128,0.645968
199.953,80.1189,0.645968
199.984,80.1251,0.645968
200.016,80.1314,0.645968
200.047,80.1376,0.645968
200.078,80.1439,0.645968
200.110,80.1501,0.620825
200.141,80.1565,0.620825
200.172,80.1625,0.620825
200.203,80.1689,0.620825
200.235,80.1752,0.620825
200.266,80.1814,0.620825
200.297,80.1877,0.620825
200.328,80.1939,0.620825
200.359,80.2000,0.596557
200.390,80.2063,0.596557
200.421,80.2127,0.596557
200.452,80.2186,0.596557
200.482,80.2246,0.596557
200.513,80.2309,0.596557
200.544,80.2370,0.596557
200.575,80.2432,0.596557
200.607,80.2497,0.573211
200.638,80.2557,0.573211
200.669,80.2619,0.573211
200.701,80.2685,0.573211
200.732,80.2745,0.573211
200.763,80.2807,0.573211
200.794,80.2869,0.573211
200.825,80.2931,0.573211
200.855,80.2993,0.550703
200.887,80.3055,0.550703
200.918,80.3119,0.550703
200.949,80.3180,0.550703
200.981,80.3244,0.550703
201.012,80.3307,0.550703
201.043,80.3370,0.550703
201.074,80.3430,0.550703
201.105,80.3493,0.550703
201.137,80.3555,0.528815
201.168,80.3619,0.528815
201.198,80.3678,0.528815
201.229,80.3741,0.528815
201.261,80.3805,0.528815
201.292,80.3868,0.528815
201.323,80.3927,0.528815
201.354,80.3991,0.528815
201.387,80.4056,0.507530
201.417,80.4117,0.507530
201.449,80.4180,0.507530
201.481,80.4244,0.507530
201.512,80.4308,0.507530
201.543,80.4368,0.507530
201.573,80.4428,0.507530
201.605,80.4492,0.507530
201.636,80.4554,0.486913
201.668,80.4618,0.486913
201.697,80.4676,0.486913
201.728,80.4740,0.486913
201.759,80.4800,0.486913
201.792,80.4866,0.486913
201.822,80.4926,0.486913
201.854,80.4990,0.486913
201.886,80.5052,0.466889
201.916,80.5116,0.466889
201.948,80.5178,0.466889
201.979,80.5241,0.466889
202.010,80.5303,0.466889
202.041,80.5365,0.466889
202.072,80.5427,0.466889
202.104,80.5490,0.466889
202.134,80.5551,0.447203
202.165,80.5612,0.447203
202.196,80.5672,0.447203
202.226,80.5734,0.447203
202.257,80.5795,0.447203
202.288,80.5858,0.447203
202.319,80.5918,0.447203
202.350,80.5981,0.447203
202.381,80.6044,0.427960
202.412,80.6106,0.427960
202.444,80.6170,0.427960
202.475,80.6233,0.427960
202.505,80.6292,0.427960
202.537,80.6356,0.427960
202.567,80.6415,0.427960
202.598,80.6477,0.427960
202.629,80.6543,0.409169
202.660,80.6603,0.409169
202.691,80.6665,0.409169
202.722,80.6725,0.409169
202.753,80.6787,0.409169
202.784,80.6851,0.409169
202.816,80.6916,0.409169
202.848,80.6977,0.409169
202.878,80.7039,0.390726
202.909,80.7099,0.390726
202.939,80.7162,0.390726
202.971,80.7224,0.390726
203.002,80.7286,0.390726
203.034,80.7349,0.390726
203.064,80.7410,0.390726
203.096,80.7474,0.390726
203.126,80.7534,0.372772
203.157,80.7597,0.372772
203.188,80.7659,0.372772
203.218,80.7720,0.372772
203.248,80.7778,0.372772
203.279,80.7840,0.372772
203.311,80.7902,0.372772
203.342,80.7966,0.372772
203.372,80.8025,0.355213
203.404,80.8090,0.355213
203.435,80.8152,0.355213
203.467,80.8216,0.355213
203.499,80.8278,0.355213
203.529,80.8340,0.355213
203.560,80.8403,0.355213
203.592,80.8465,0.355213
203.623,80.8529,0.338087
203.654,80.8591,0.338087
203.686,80.8653,0.338087
203.717,80.8716,0.338087
203.748,80.8778,0.338087
203.780,80.8842,0.338087
203.811,80.8904,0.338087
203.842,80.8966,0.338087
203.872,80.9026,0.321384
203.904,80.9089,0.321384
203.935,80.9151,0.321384
203.966,80.9214,0.321384
203.997,80.9276,0.321384
204.028,80.9339,0.321384
204.059,80.9399,0.321384
204.092,80.9466,0.321384
204.122,80.9526,0.305077
204.153,80.9588,0.305077
204.183,80.9650,0.305077
204.215,80.9711,0.305077
204.246,80.9773,0.305077
204.277,80.9836,0.305077
204.308,80.9898,0.305077
204.339,80.9961,0.305077
204.370,81.0022,0.289315
204.401,81.0083,0.289315
204.431,81.0143,0.289315
204.463,81.0207,0.289315
204.493,81.0269,0.289315
204.524,81.0329,0.289315
204.555,81.0391,0.289315
204.587,81.0455,0.289315
204.618,81.0518,0.273968
204.649,81.0581,0.273968
204.680,81.0642,0.273968
204.712,81.0706,0.273968
204.743,81.0770,0.273968
204.775,81.0832,0.273968
204.806,81.0894,0.273968
204.838,81.0957,0.273968
204.868,81.1018,0.273968
204.899,81.1080,0.259063
204.930,81.1142,0.259063
204.961,81.1205,0.259063
204.993,81.1267,0.259063
205.024,81.1332,0.259063
205.055,81.1391,0.259063
205.085,81.1454,0.259063
205.117,81.1515,0.244600
205.148,81.1580,0.244600
205.180,81.1640,0.244600
205.210,81.1702,0.244600
205.241,81.1764,0.244600
205.272,81.1826,0.244600
205.303,81.1890,0.244600
205.335,81.1950,0.244600
205.366,81.2012,0.230438
205.396,81.2073,0.230438
205.427,81.2135,0.230438
205.458,81.2198,0.230438
205.489,81.2262,0.230438
205.520,81.2321,0.230438
205.551,81.2383,0.230438
205.582,81.2445,0.230438
205.612,81.2506,0.216737
205.643,81.2568,0.216737
205.675,81.2631,0.216737
205.707,81.2695,0.216737
205.738,81.2758,0.216737
205.769,81.2821,0.216737
205.800,81.2882,0.216737
205.832,81.2945,0.216737
205.862,81.3007,0.203535
205.893,81.3068,0.203535
205.924,81.3131,0.203535
205.955,81.3191,0.203535
205.987,81.3256,0.203535
206.018,81.3318,0.203535
206.050,81.3382,0.203535
206.080,81.3442,0.203535
206.112,81.3506,0.190691
206.143,81.3566,0.190691
206.174,81.3630,0.190691
206.205,81.3690,0.190691
206.235,81.3754,0.190691
206.267,81.3815,0.190691
206.298,81.3879,0.190691
206.329,81.3940,0.190691
206.361,81.4003,0.178166
206.392,81.4065,0.178166
206.423,81.4128,0.178166
206.454,81.4190,0.178166
206.486,81.4252,0.178166
206.517,81.4316,0.178166
206.547,81.4378,0.178166
206.579,81.4440,0.178166
206.609,81.4500,0.166056
206.641,81.4562,0.166056
206.672,81.4626,0.166056
206.703,81.4688,0.166056
206.734,81.4750,0.166056
206.766,81.4813,0.166056
206.796,81.4875,0.166056
206.828,81.4938,0.166056
206.859,81.5000,0.154218
206.889,81.5061,0.154218
206.921,81.5124,0.154218
206.952,81.5185,0.154218
206.983,81.5248,0.154218
207.014,81.5309,0.154218
207.044,81.5370,0.154218
207.076,81.5434,0.154218
207.107,81.5494,0.142635
207.137,81.5557,0.142635
207.167,81.5617,0.142635
207.198,81.5679,0.142635
207.229,81.5739,0.142635
207.262,81.5805,0.142635
207.292,81.5866,0.142635
207.323,81.5928,0.142635
207.354,81.5989,0.131446
207.385,81.6052,0.131446
207.416,81.6114,0.131446
207.447,81.6176,0.131446
207.479,81.6240,0.131446
207.509,81.6301,0.131446
207.540,81.6361,0.131446
207.572,81.6425,0.131446
207.603,81.6487,0.120540
207.634,81.6550,0.120540
207.664,81.6612,0.120540
207.695,81.6673,0.120540
207.727,81.6735,0.120540
207.757,81.6796,0.120540
207.788,81.6857,0.120540
207.820,81.6923,0.120540
207.851,81.6982,0.120540
207.881,81.7045,0.120540
207.913,81.7107,0.109898
207.945,81.7172,0.109898
207.976,81.7234,0.109898
208.007,81.7297,0.109898
208.039,81.7359,0.109898
208.070,81.7421,0.109898
208.101,81.7483,0.109898
208.132,81.7545,0.099481
208.162,81.7607,0.099481
208.193,81.7668,0.099481
208.225,81.7731,0.099481
208.256,81.7793,0.099481
208.287,81.7856,0.099481
208.317,81.7916,0.099481
208.348,81.7978,0.099481
208.379,81.8039,0.089375
208.410,81.8102,0.089375
208.442,81.8164,0.089375
208.473,81.8227,0.089375
208.503,81.8287,0.089375
208.534,81.8350,0.089375
208.566,81.8413,0.089375
208.598,81.8477,0.089375
208.628,81.8539,0.079542
208.660,81.8602,0.079542
208.690,81.8661,0.079542
208.722,81.8727,0.079542
208.753,81.8787,0.079542
208.784,81.8850,0.079542
208.814,81.8909,0.079542
208.846,81.8974,0.079542
208.876,81.9033,0.069859
208.908,81.9098,0.069859
208.939,81.9161,0.069859
208.970,81.9222,0.069859
209.001,81.9284,0.069859
209.033,81.9347,0.069859
209.065,81.9410,0.069859
209.095,81.9472,0.069859
209.125,81.9532,0.060355
209.157,81.9595,0.060355
209.189,81.9660,0.060355
209.219,81.9718,0.060355
209.250,81.9781,0.060355
209.282,81.9845,0.060355
209.314,81.9909,0.060355
209.344,81.9971,0.051086
209.375,82.0032,0.051086
209.407,82.0095,0.051086
209.439,82.0160,0.051086
209.469,82.0219,0.051086
209.499,82.0281,0.051086
209.531,82.0342,0.051086
209.561,82.0405,0.051086
209.593,82.0467,0.051086
209.625,82.0533,0.041968
209.656,82.0592,0.041968
209.687,82.0656,0.041968
209.718,82.0718,0.041968
209.749,82.0781,0.041968
209.781,82.0843,0.041968
209.812,82.0906,0.041968
209.843,82.0966,0.041968
209.872,82.1025,0.041968
209.903,82.1088,0.032953
209.936,82.1152,0.032953
209.965,82.1213,0.032953
209.997,82.1275,0.032953
210.027,82.1337,0.032953
210.057,82.1396,0.032953
210.088,82.1458,0.024023
210.119,82.1519,0.024023
210.151,82.1582,0.024023
210.181,82.1644,0.024023
210.212,82.1705,0.024023
210.244,82.1769,0.024023
210.274,82.1830,0.024023
210.305,82.1893,0.024023
210.336,82.1954,0.024023
210.367,82.2017,0.015206
210.398,82.2079,0.015206
210.430,82.2143,0.015206
210.461,82.2203,0.015206
210.493,82.2268,0.015206
210.524,82.2329,0.015206
210.556,82.2396,0.015206
210.586,82.2453,0.015206
210.617,82.2515,0.015206
210.648,82.2578,0.006483
210.679,82.2640,0.006483
210.710,82.2702,0.006483
210.740,82.2763,0.006483
210.772,82.2826,0.006483
210.803,82.2888,0.006483
210.834,82.2951,0.006483
210.866,82.3013,0.006483
210.897,82.3078,0.006483
210.928,82.3139,-0.002240
210.959,82.3199,-0.002240
210.990,82.3263,-0.002240
211.021,82.3322,-0.002240
211.052,82.3385,-0.002240
211.083,82.3447,-0.002240
211.114,82.3511,-0.002240
211.146,82.3573,-0.010859
211.177,82.3636,-0.010859
211.208,82.3697,-0.010859
211.239,82.3760,-0.010859
211.270,82.3822,-0.010859
211.302,82.3885,-0.010859
211.333,82.3946,-0.010859
211.364,82.4009,-0.010859
211.395,82.4072,-0.019422
211.426,82.4132,-0.019422
211.457,82.4194,-0.019422
211.488,82.4257,-0.019422
211.520,82.4321,-0.019422
211.548,82.4378,-0.019422
211.580,82.4441,-0.019422
211.610,82.4503,-0.019422
211.641,82.4562,-0.028107
211.672,82.4624,-0.028107
211.702,82.4685,-0.028107
211.733,82.4748,-0.028107
211.764,82.4808,-0.028107
211.794,82.4870,-0.028107
211.826,82.4932,-0.028107
211.856,82.4993,-0.028107
211.887,82.5056,-0.036793
211.917,82.5117,-0.036793
211.948,82.5179,-0.036793
211.980,82.5241,-0.036793
212.010,82.5302,-0.036793
212.041,82.5364,-0.036793
212.072,82.5426,-0.036793
212.104,82.5490,-0.036793
212.134,82.5548,-0.045534
212.164,82.5609,-0.045534
212.194,82.5667,-0.045534
212.226,82.5721,-0.045534
212.257,82.5765,-0.045534
212.289,82.5804,-0.045534
212.319,82.5834,-0.045534
212.351,82.5857,-0.045534
212.381,82.5872,-0.054013
212.413,82.5881,-0.054013
212.444,82.5882,-0.054013
212.475,82.5882,-0.054013
212.506,82.5882,-0.054013
212.536,82.5882,-0.054013
212.567,82.5882,-0.054013
212.597,82.5882,-0.054013
212.628,82.5882,-0.054013
212.660,82.5882,-0.059000
212.691,82.5882,-0.059000
212.722,82.5882,-0.059000
212.753,82.5882,-0.059000
212.784,82.5882,-0.059000
212.815,82.5882,-0.059000
212.847,82.5882,-0.059000
212.878,82.5882,-0.059282
212.909,82.5882,-0.059282
