Elapsed Time (s),Position (mm),Force (N)
-0.014,66.6307,0.012220
0.048,66.6307,0.012220
0.109,66.6307,0.012625
0.172,66.6307,0.012625
0.233,66.6307,0.012625
0.295,66.6307,0.012625
0.357,66.6307,0.012625
0.419,66.6307,0.013020
0.481,66.6307,0.013020
0.544,66.6307,0.013020
0.607,66.6307,0.013020
0.669,66.6307,0.013293
0.731,66.6307,0.013293
0.794,66.6307,0.013293
0.860,66.6307,0.013293
0.919,66.6307,0.013481
0.981,66.6307,0.013481
1.043,66.6307,0.013481
1.106,66.6307,0.013481
1.169,66.6307,0.013717
1.231,66.6307,0.013717
1.293,66.6307,0.013717
1.355,66.6307,0.013717
1.416,66.6307,0.013886
1.479,66.6307,0.013886
1.542,66.6307,0.013886
1.603,66.6307,0.013886
1.666,66.6307,0.014056
1.728,66.6307,0.014056
1.791,66.6307,0.014056
1.853,66.6307,0.014056
1.914,66.6307,0.014197
1.978,66.6307,0.014197
2.041,66.6307,0.014197
2.103,66.6307,0.014291
2.167,66.6307,0.014291
2.229,66.6307,0.014291
2.293,66.6307,0.014291
2.353,66.6307,0.014291
2.416,66.6307,0.014404
2.477,66.6307,0.014404
2.542,66.6307,0.014404
2.603,66.6307,0.014404
2.663,66.6307,0.014536
2.730,66.6307,0.014536
2.789,66.6307,0.014536
2.851,66.6307,0.014536
2.917,66.6307,0.014649
2.978,66.6307,0.014649
3.040,66.6307,0.014649
3.101,66.6307,0.014649
3.163,66.6307,0.014733
3.225,66.6307,0.014733
3.289,66.6307,0.014733
3.351,66.6307,0.014733
3.413,66.6307,0.014809
3.476,66.6307,0.014809
3.538,66.6307,0.014809
3.601,66.6307,0.014809
3.665,66.6307,0.014912
3.725,66.6307,0.014912
3.787,66.6307,0.014912
3.849,66.6307,0.014912
3.911,66.6307,0.014969
3.974,66.6307,0.014969
4.036,66.6307,0.014969
4.098,66.6302,0.015044
4.160,66.6271,0.015044
4.223,66.6212,0.015044
4.285,66.6121,0.015044
4.347,66.6005,0.015515
4.409,66.5881,0.015515
4.472,66.5755,0.015515
4.535,66.5630,0.015515
4.597,66.5506,0.015515
4.659,66.5382,0.016654
4.722,66.5256,0.016654
4.783,66.5133,0.016654
4.847,66.5005,0.016654
4.910,66.4880,0.017868
4.971,66.4757,0.017868
5.033,66.4634,0.017868
5.095,66.4511,0.017868
5.156,66.4389,0.018753
5.218,66.4265,0.018753
5.280,66.4138,0.018753
5.343,66.4014,0.018753
5.405,66.3889,0.019497
5.466,66.3767,0.019497
5.528,66.3642,0.019497
5.593,66.3513,0.019497
5.653,66.3394,0.020213
5.719,66.3260,0.020213
5.780,66.3138,0.020213
5.841,66.3017,0.020213
5.904,66.2890,0.020919
5.965,66.2769,0.020919
6.028,66.2644,0.020919
6.092,66.2515,0.020919
6.155,66.2391,0.021521
6.215,66.2269,0.021521
6.280,66.2139,0.021521
6.339,66.2022,0.021521
6.402,66.1894,0.022086
6.463,66.1774,0.022086
6.524,66.1651,0.022086
6.585,66.1529,0.022086
6.646,66.1407,0.022604
6.708,66.1282,0.022604
6.773,66.1152,0.022604
6.833,66.1031,0.022604
6.895,66.0908,0.023037
6.957,66.0784,0.023037
7.022,66.0654,0.023037
7.083,66.0534,0.023037
7.145,66.0410,0.023451
7.207,66.0285,0.023451
7.269,66.0162,0.023451
7.332,66.0034,0.023451
7.394,65.9911,0.023847
7.457,65.9786,0.023847
7.520,65.9661,0.023847
7.582,65.9536,0.023847
7.645,65.9410,0.024204
7.708,65.9285,0.024204
7.770,65.9159,0.024204
7.830,65.9039,0.024204
7.892,65.8913,0.024477
7.954,65.8791,0.024477
8.017,65.8665,0.024477
8.079,65.8540,0.024477
8.142,65.8416,0.024666
8.203,65.8293,0.024666
8.266,65.8166,0.024666
8.329,65.8041,0.024666
8.391,65.7918,0.024769
8.453,65.7794,0.024769
8.514,65.7671,0.024769
8.578,65.7545,0.024769
8.639,65.7422,0.024873
8.701,65.7298,0.024873
8.762,65.7175,0.024873
8.825,65.7050,0.024873
8.888,65.6924,0.024910
8.951,65.6798,0.024910
9.014,65.6673,0.024910
9.076,65.6547,0.024910
9.140,65.6419,0.024760
9.202,65.6296,0.024760
9.263,65.6175,0.024760
9.326,65.6048,0.024760
9.389,65.5923,0.024487
9.451,65.5799,0.024487
9.513,65.5673,0.024487
9.576,65.5547,0.024487
9.639,65.5422,0.024120
9.701,65.5298,0.024120
9.763,65.5172,0.024120
9.826,65.5048,0.024120
9.888,65.4923,0.023649
9.950,65.4799,0.023649
10.012,65.4676,0.023649
10.074,65.4552,0.023649
10.137,65.4426,0.023122
10.199,65.4303,0.023122
10.262,65.4177,0.023122
10.322,65.4055,0.023122
10.385,65.3931,0.022679
10.447,65.3807,0.022679
10.509,65.3682,0.022679
10.572,65.3555,0.022679
10.635,65.3430,0.022303
10.697,65.3306,0.022303
10.759,65.3182,0.022303
10.821,65.3058,0.022303
10.883,65.2934,0.021907
10.947,65.2806,0.021907
11.008,65.2683,0.021907
11.071,65.2558,0.021907
11.133,65.2434,0.021615
11.195,65.2310,0.021615
11.257,65.2187,0.021615
11.319,65.2062,0.021615
11.381,65.1939,0.021380
11.443,65.1814,0.021380
11.507,65.1686,0.021380
11.568,65.1563,0.021380
11.631,65.1439,0.021107
11.694,65.1312,0.021107
11.755,65.1189,0.021107
11.818,65.1064,0.021107
11.880,65.0941,0.020947
11.942,65.0817,0.020947
12.005,65.0690,0.020947
12.067,65.0566,0.020947
12.128,65.0445,0.020890
12.190,65.0321,0.020890
12.254,65.0190,0.020890
12.315,65.0070,0.020890
12.376,64.9949,0.020759
12.439,64.9821,0.020759
12.502,64.9696,0.020759
12.562,64.9575,0.020759
12.627,64.9446,0.020759
12.686,64.9326,0.020580
12.749,64.9202,0.020580
12.811,64.9077,0.020580
12.874,64.8951,0.020580
12.936,64.8827,0.020486
12.999,64.8701,0.020486
13.060,64.8578,0.020486
13.123,64.8454,0.020486
13.185,64.8330,0.020476
13.247,64.8204,0.020476
13.309,64.8082,0.020476
13.372,64.7955,0.020476
13.435,64.7830,0.020391
13.497,64.7707,0.020391
13.558,64.7582,0.020391
13.622,64.7456,0.020307
13.683,64.7334,0.020307
13.745,64.7208,0.020307
13.808,64.7082,0.020307
13.870,64.6960,0.020307
13.932,64.6836,0.020250
13.996,64.6708,0.020250
14.057,64.6588,0.020250
14.119,64.6462,0.020250
14.181,64.6338,0.020213
14.243,64.6213,0.020213
14.306,64.6089,0.020213
14.367,64.5965,0.020213
14.430,64.5840,0.020184
14.493,64.5713,0.020184
14.557,64.5587,0.020184
14.619,64.5460,0.020100
14.682,64.5334,0.020100
14.743,64.5215,0.020100
14.806,64.5087,0.020100
14.868,64.4964,0.020015
14.931,64.4839,0.020015
14.993,64.4715,0.020015
15.055,64.4589,0.020015
15.116,64.4467,0.019940
15.179,64.4341,0.019940
15.240,64.4220,0.019940
15.304,64.4091,0.019940
15.367,64.3966,0.019949
15.429,64.3843,0.019949
15.491,64.3719,0.019949
15.552,64.3596,0.019949
15.614,64.3472,0.019949
15.678,64.3344,0.019911
15.741,64.3218,0.019911
15.803,64.3094,0.019911
15.866,64.2969,0.019911
15.929,64.2842,0.019770
15.991,64.2717,0.019770
16.055,64.2591,0.019770
16.116,64.2470,0.019770
16.177,64.2347,0.019761
16.240,64.2221,0.019761
16.302,64.2094,0.019761
16.365,64.1970,0.019704
16.426,64.1847,0.019704
16.488,64.1723,0.019704
16.549,64.1602,0.019704
16.610,64.1480,0.019704
16.672,64.1356,0.019657
16.736,64.1228,0.019657
16.799,64.1103,0.019657
16.862,64.0978,0.019629
16.924,64.0854,0.019629
16.986,64.0729,0.019629
17.048,64.0603,0.019629
17.110,64.0482,0.019572
17.170,64.0360,0.019572
17.233,64.0235,0.019572
17.295,64.0110,0.019572
17.357,63.9986,0.019516
17.420,63.9860,0.019516
17.482,63.9735,0.019516
17.545,63.9609,0.019516
17.608,63.9483,0.019497
17.671,63.9358,0.019497
17.733,63.9234,0.019497
17.795,63.9110,0.019497
17.857,63.8985,0.019488
17.920,63.8861,0.019488
17.982,63.8737,0.019488
18.043,63.8614,0.019488
18.106,63.8489,0.019488
18.168,63.8365,0.019384
18.232,63.8237,0.019384
18.294,63.8112,0.019384
18.357,63.7985,0.019290
18.420,63.7860,0.019290
18.481,63.7737,0.019290
18.544,63.7612,0.019290
18.605,63.7490,0.019290
18.666,63.7368,0.019243
18.729,63.7242,0.019243
18.792,63.7117,0.019243
18.855,63.6992,0.019186
18.917,63.6867,0.019186
18.980,63.6741,0.019186
19.042,63.6615,0.019186
19.104,63.6493,0.019186
19.165,63.6372,0.019177
19.229,63.6240,0.019177
19.289,63.6122,0.019177
19.351,63.5998,0.019177
19.416,63.5868,0.019139
19.474,63.5753,0.019139
19.535,63.5630,0.019139
19.596,63.5507,0.019139
19.663,63.5373,0.019102
19.721,63.5258,0.019102
19.782,63.5135,0.019102
19.846,63.5009,0.019102
19.908,63.4885,0.019130
19.970,63.4761,0.019130
20.032,63.4637,0.019130
20.094,63.4511,0.019045
20.157,63.4387,0.019045
20.219,63.4263,0.019045
20.281,63.4138,0.019045
20.342,63.4016,0.019045
20.405,63.3890,0.018913
20.468,63.3765,0.018913
20.531,63.3638,0.018913
20.594,63.3513,0.018913
20.657,63.3388,0.018885
20.719,63.3264,0.018885
20.781,63.3138,0.018885
20.843,63.3014,0.018885
20.905,63.2890,0.018876
20.968,63.2764,0.018876
21.032,63.2636,0.018876
21.093,63.2516,0.018876
21.154,63.2393,0.018791
21.216,63.2268,0.018791
21.278,63.2144,0.018791
21.340,63.2020,0.018791
21.403,63.1894,0.018725
21.465,63.1770,0.018725
21.527,63.1645,0.018725
21.590,63.1520,0.018725
21.653,63.1393,0.018650
21.715,63.1271,0.018650
21.776,63.1149,0.018650
21.839,63.1024,0.018650
21.899,63.0902,0.018631
21.962,63.0777,0.018631
22.023,63.0653,0.018631
22.084,63.0531,0.018631
22.147,63.0406,0.018546
22.210,63.0281,0.018546
22.272,63.0157,0.018546
22.334,63.0030,0.018546
22.397,62.9908,0.018452
22.458,62.9786,0.018452
22.519,62.9663,0.018452
22.581,62.9539,0.018452
22.643,62.9415,0.018377
22.705,62.9290,0.018377
22.768,62.9165,0.018377
22.831,62.9038,0.018377
22.895,62.8910,0.018320
22.954,62.8793,0.018320
23.016,62.8667,0.018320
23.078,62.8545,0.018320
23.141,62.8419,0.018311
23.203,62.8294,0.018311
23.266,62.8169,0.018311
23.327,62.8047,0.018311
23.389,62.7923,0.018245
23.451,62.7799,0.018245
23.514,62.7673,0.018245
23.577,62.7546,0.018245
23.638,62.7422,0.018151
23.701,62.7298,0.018151
23.764,62.7172,0.018151
23.826,62.7046,0.018151
23.889,62.6922,0.018094
23.952,62.6797,0.018094
24.015,62.6671,0.018094
24.078,62.6544,0.018094
24.140,62.6421,0.018010
24.202,62.6296,0.018010
24.265,62.6172,0.018010
24.326,62.6049,0.018010
24.388,62.5946,0.017944
24.449,62.5871,0.017944
24.512,62.5825,0.017944
24.573,62.5807,0.017944
24.635,62.5807,0.017831
24.696,62.5809,0.017831
24.759,62.5832,0.017831
24.824,62.5888,0.017831
24.888,62.5975,0.017746
24.948,62.6081,0.017746
25.010,62.6204,0.017746
25.073,62.6331,0.017746
25.134,62.6451,0.017708
25.196,62.6576,0.017708
25.258,62.6700,0.017708
25.319,62.6823,0.017708
25.381,62.6946,0.017661
25.444,62.7072,0.017661
25.505,62.7195,0.017661
25.567,62.7318,0.017661
25.628,62.7441,0.017652
25.691,62.7566,0.017652
25.753,62.7690,0.017652
25.816,62.7815,0.017652
25.879,62.7943,0.017614
25.942,62.8068,0.017614
26.005,62.8195,0.017614
26.071,62.8326,0.017614
26.130,62.8447,0.017624
26.192,62.8568,0.017624
26.256,62.8697,0.017624
26.316,62.8816,0.017624
26.380,62.8945,0.017652
26.441,62.9065,0.017652
26.504,62.9192,0.017652
26.565,62.9316,0.017652
26.628,62.9441,0.017595
26.689,62.9562,0.017595
26.752,62.9688,0.017595
26.813,62.9811,0.017595
26.877,62.9939,0.017558
26.940,63.0064,0.017558
27.000,63.0185,0.017558
27.063,63.0309,0.017558
27.126,63.0437,0.017605
27.188,63.0561,0.017605
27.250,63.0684,0.017605
27.313,63.0812,0.017605
27.374,63.0935,0.017605
27.437,63.1059,0.017567
27.500,63.1186,0.017567
27.561,63.1308,0.017567
27.624,63.1434,0.017567
27.687,63.1560,0.017530
27.750,63.1685,0.017530
27.812,63.1810,0.017530
27.875,63.1935,0.017530
27.938,63.2061,0.017530
28.002,63.2187,0.017530
28.062,63.2309,0.017530
28.123,63.2433,0.017530
28.186,63.2555,0.017473
28.247,63.2678,0.017473
28.308,63.2801,0.017473
28.371,63.2928,0.017454
28.435,63.3054,0.017454
28.497,63.3178,0.017454
28.560,63.3306,0.017454
28.622,63.3429,0.017454
28.685,63.3554,0.017454
28.747,63.3678,0.017454
28.809,63.3801,0.017454
28.871,63.3927,0.017435
28.934,63.4052,0.017435
28.996,63.4175,0.017435
29.057,63.4298,0.017435
29.120,63.4425,0.017435
29.182,63.4549,0.017435
29.244,63.4674,0.017435
29.307,63.4799,0.017435
29.370,63.4923,0.017398
29.432,63.5050,0.017398
29.495,63.5174,0.017398
29.557,63.5296,0.017398
29.618,63.5419,0.017435
29.679,63.5542,0.017435
29.741,63.5667,0.017435
29.804,63.5791,0.017435
29.866,63.5917,0.017464
29.928,63.6039,0.017464
29.990,63.6163,0.017464
30.052,63.6287,0.017464
30.117,63.6419,0.017388
30.178,63.6542,0.017388
30.240,63.6663,0.017388
30.303,63.6790,0.017388
30.362,63.6907,0.017332
30.424,63.7032,0.017332
30.485,63.7154,0.017332
30.548,63.7280,0.017332
30.612,63.7410,0.017332
30.673,63.7531,0.017322
30.734,63.7653,0.017322
30.796,63.7778,0.017322
30.858,63.7901,0.017322
30.923,63.8031,0.017285
30.981,63.8148,0.017285
31.045,63.8275,0.017285
31.106,63.8396,0.017285
31.169,63.8525,0.017332
31.230,63.8644,0.017332
31.293,63.8770,0.017332
31.355,63.8894,0.017332
31.417,63.9020,0.017332
31.480,63.9146,0.017332
31.543,63.9270,0.017332
31.605,63.9394,0.017332
31.666,63.9516,0.017247
31.728,63.9641,0.017247
31.790,63.9765,0.017247
31.853,63.9891,0.017247
31.916,64.0016,0.017209
31.977,64.0138,0.017209
32.039,64.0261,0.017209
32.101,64.0385,0.017209
32.163,64.0512,0.017144
32.224,64.0634,0.017144
32.286,64.0758,0.017144
32.350,64.0885,0.017144
32.413,64.1011,0.017162
32.473,64.1130,0.017162
32.535,64.1255,0.017162
32.598,64.1381,0.017162
32.660,64.1504,0.017153
32.723,64.1630,0.017153
32.784,64.1752,0.017153
32.845,64.1876,0.017153
32.908,64.2002,0.017068
32.971,64.2128,0.017068
33.034,64.2253,0.017068
33.096,64.2374,0.017068
33.159,64.2502,0.016983
33.221,64.2625,0.016983
33.283,64.2750,0.016983
33.345,64.2874,0.016983
33.406,64.2997,0.016918
33.469,64.3122,0.016918
33.532,64.3250,0.016918
33.595,64.3373,0.016899
33.657,64.3497,0.016899
33.719,64.3622,0.016899
33.782,64.3747,0.016899
33.844,64.3873,0.016899
33.907,64.3997,0.016889
33.970,64.4123,0.016889
34.032,64.4247,0.016889
34.092,64.4369,0.016889
34.153,64.4490,0.016889
34.215,64.4614,0.016889
34.277,64.4737,0.016889
34.339,64.4862,0.016889
34.402,64.4988,0.016852
34.465,64.5113,0.016852
34.525,64.5234,0.016852
34.587,64.5358,0.016852
34.649,64.5481,0.016814
34.710,64.5604,0.016814
34.772,64.5727,0.016814
34.834,64.5851,0.016814
34.896,64.5975,0.016758
34.957,64.6098,0.016758
35.019,64.6222,0.016758
35.081,64.6346,0.016758
35.143,64.6470,0.016682
35.205,64.6592,0.016682
35.267,64.6716,0.016682
35.328,64.6841,0.016682
35.390,64.6965,0.016654
35.452,64.7087,0.016654
35.515,64.7213,0.016654
35.578,64.7339,0.016654
35.641,64.7466,0.016607
35.704,64.7591,0.016607
35.767,64.7716,0.016607
35.829,64.7841,0.016607
35.891,64.7965,0.016550
35.952,64.8088,0.016550
36.014,64.8211,0.016550
36.075,64.8334,0.016550
36.137,64.8458,0.016447
36.201,64.8586,0.016447
36.263,64.8710,0.016447
36.325,64.8834,0.016447
36.388,64.8960,0.016343
36.453,64.9090,0.016343
36.512,64.9209,0.016343
36.574,64.9332,0.016343
36.636,64.9456,0.016277
36.700,64.9583,0.016277
36.762,64.9708,0.016277
36.824,64.9832,0.016277
36.887,64.9958,0.016212
36.949,65.0084,0.016212
37.012,65.0207,0.016212
37.073,65.0329,0.016212
37.135,65.0455,0.016202
37.198,65.0579,0.016202
37.261,65.0706,0.016202
37.323,65.0830,0.016202
37.386,65.0954,0.016108
37.447,65.1078,0.016108
37.510,65.1204,0.016108
37.572,65.1328,0.016108
37.635,65.1454,0.016014
37.697,65.1577,0.016014
37.759,65.1702,0.016014
37.821,65.1826,0.016014
37.883,65.1950,0.015967
37.946,65.2076,0.015967
38.009,65.2202,0.015967
38.071,65.2326,0.015967
38.132,65.2449,0.015910
38.194,65.2573,0.015910
38.257,65.2699,0.015910
38.319,65.2823,0.015910
38.381,65.2946,0.015863
38.444,65.3070,0.015863
38.506,65.3195,0.015863
38.568,65.3320,0.015863
38.629,65.3442,0.015760
38.692,65.3566,0.015760
38.752,65.3688,0.015760
38.814,65.3811,0.015760
38.876,65.3935,0.015628
38.938,65.4060,0.015628
39.001,65.4184,0.015628
39.062,65.4308,0.015628
39.125,65.4433,0.015487
39.187,65.4557,0.015487
39.250,65.4684,0.015487
39.312,65.4809,0.015487
39.373,65.4931,0.015487
39.435,65.5055,0.015458
39.497,65.5179,0.015458
39.559,65.5301,0.015458
39.622,65.5427,0.015336
39.684,65.5552,0.015336
39.745,65.5675,0.015336
39.806,65.5796,0.015336
39.868,65.5920,0.015336
39.931,65.6046,0.015223
39.993,65.6170,0.015223
40.057,65.6297,0.015223
40.117,65.6416,0.015223
40.179,65.6540,0.015176
40.241,65.6667,0.015176
40.303,65.6791,0.015176
40.368,65.6919,0.015176
40.427,65.7038,0.014978
40.492,65.7167,0.014978
40.554,65.7292,0.014978
40.617,65.7416,0.014978
40.678,65.7541,0.014856
40.740,65.7665,0.014856
40.804,65.7792,0.014856
40.865,65.7915,0.014856
40.926,65.8036,0.014724
40.989,65.8161,0.014724
41.052,65.8288,0.014724
41.115,65.8414,0.014724
41.177,65.8537,0.014545
41.240,65.8665,0.014545
41.302,65.8788,0.014545
41.364,65.8912,0.014545
41.426,65.9037,0.014395
41.487,65.9157,0.014395
41.548,65.9281,0.014395
41.611,65.9407,0.014395
41.678,65.9541,0.014197
41.735,65.9653,0.014197
41.797,65.9777,0.014197
41.859,65.9901,0.014197
41.921,66.0024,0.013980
41.983,66.0149,0.013980
42.045,66.0273,0.013980
42.108,66.0399,0.013801
42.171,66.0525,0.013801
42.231,66.0647,0.013801
42.293,66.0768,0.013801
42.354,66.0892,0.013801
42.417,66.1016,0.013651
42.479,66.1143,0.013651
42.541,66.1264,0.013651
42.603,66.1388,0.013651
42.666,66.1514,0.013415
42.728,66.1639,0.013415
42.789,66.1762,0.013415
42.852,66.1890,0.013142
42.915,66.2015,0.013142
42.977,66.2138,0.013142
43.039,66.2263,0.013142
43.103,66.2389,0.012832
43.165,66.2513,0.012832
43.226,66.2636,0.012832
43.289,66.2763,0.012832
43.350,66.2884,0.012832
43.413,66.3009,0.012559
43.475,66.3135,0.012559
43.538,66.3260,0.012559
43.600,66.3384,0.012559
43.663,66.3511,0.012323
43.724,66.3633,0.012323
43.787,66.3756,0.012323
43.848,66.3879,0.012323
43.910,66.4003,0.012060
43.972,66.4128,0.012060
44.034,66.4251,0.012060
44.096,66.4376,0.012060
44.157,66.4496,0.012173
44.218,66.4621,0.012173
44.282,66.4748,0.012173
44.346,66.4876,0.012342
44.407,66.4996,0.012342
44.469,66.5122,0.012342
44.530,66.5243,0.012342
44.592,66.5368,0.012342
44.654,66.5490,0.012032
44.717,66.5613,0.012032
44.779,66.5704,0.012032
44.842,66.5768,0.012032
44.905,66.5801,0.011702
44.967,66.5807,0.011702
45.030,66.5807,0.011702
45.093,66.5807,0.011702
45.157,66.5807,0.011956
45.218,66.5807,0.011956
45.280,66.5807,0.011956
45.342,66.5807,0.011956
45.405,66.5807,0.012587
45.468,66.5807,0.012587
45.529,66.5807,0.012587
45.591,66.5807,0.012587
45.652,66.5807,0.013029
45.714,66.5807,0.013029
45.778,66.5807,0.013029
45.842,66.5807,0.013029
45.902,66.5807,0.013331
45.965,66.5807,0.013331
46.028,66.5807,0.013331
46.092,66.5807,0.013331
46.154,66.5807,0.013623
46.217,66.5807,0.013623
46.278,66.5807,0.013623
46.341,66.5807,0.013623
46.402,66.5807,0.013830
46.465,66.5807,0.013830
46.528,66.5807,0.013830
46.590,66.5807,0.013830
46.654,66.5807,0.013990
46.718,66.5807,0.013990
46.776,66.5807,0.013990
46.838,66.5807,0.013990
46.901,66.5807,0.014206
46.964,66.5807,0.014206
47.027,66.5807,0.014206
47.089,66.5807,0.014206
47.152,66.5807,0.014460
47.215,66.5807,0.014460
47.278,66.5807,0.014460
47.339,66.5807,0.014460
47.402,66.5807,0.014602
47.464,66.5807,0.014602
47.525,66.5807,0.014602
47.589,66.5807,0.014602
47.651,66.5807,0.014602
47.714,66.5807,0.014771
47.776,66.5807,0.014771
47.838,66.5807,0.014771
47.900,66.5807,0.014931
47.962,66.5807,0.014931
48.024,66.5807,0.014931
48.087,66.5807,0.014931
48.151,66.5807,0.014978
48.213,66.5807,0.014978
48.276,66.5807,0.014978
48.339,66.5807,0.014978
48.402,66.5807,0.015101
48.465,66.5807,0.015101
48.528,66.5807,0.015101
48.590,66.5807,0.015101
48.653,66.5807,0.015195
48.715,66.5807,0.015195
48.777,66.5807,0.015195
48.840,66.5807,0.015195
48.902,66.5807,0.015242
48.965,66.5807,0.015242
49.027,66.5807,0.015242
49.090,66.5807,0.015242
49.153,66.5807,0.015355
49.216,66.5807,0.015355
49.277,66.5807,0.015355
49.339,66.5807,0.015355
49.403,66.5807,0.015430
49.466,66.5807,0.015430
49.528,66.5807,0.015430
49.591,66.5807,0.015430
49.654,66.5807,0.015487
49.717,66.5807,0.015487
49.780,66.5791,0.015487
49.843,66.5747,0.015487
49.906,66.5671,0.015581
49.969,66.5566,0.015581
50.032,66.5440,0.015581
50.094,66.5316,0.015581
50.157,66.5191,0.016315
50.219,66.5067,0.016315
50.281,66.4942,0.016315
50.344,66.4818,0.016315
50.406,66.4692,0.017520
50.469,66.4566,0.017520
50.531,66.4442,0.017520
50.593,66.4317,0.017520
50.654,66.4195,0.018499
50.716,66.4072,0.018499
50.779,66.3946,0.018499
50.842,66.3819,0.018499
50.905,66.3694,0.019309
50.966,66.3570,0.019309
51.029,66.3446,0.019309
51.091,66.3322,0.019309
51.153,66.3198,0.020053
51.216,66.3073,0.020053
51.279,66.2946,0.020053
51.340,66.2823,0.020053
51.402,66.2699,0.020730
51.466,66.2573,0.020730
51.526,66.2451,0.020730
51.589,66.2326,0.020730
51.652,66.2200,0.021352
51.713,66.2077,0.021352
51.776,66.1952,0.021352
51.838,66.1826,0.021352
51.902,66.1700,0.021926
51.964,66.1575,0.021926
52.026,66.1452,0.021926
52.089,66.1326,0.021926
52.150,66.1205,0.022387
52.212,66.1080,0.022387
52.275,66.0954,0.022387
52.338,66.0828,0.022387
52.401,66.0701,0.022830
52.464,66.0576,0.022830
52.526,66.0453,0.022830
52.586,66.0332,0.022830
52.649,66.0207,0.023272
52.711,66.0082,0.023272
52.774,65.9957,0.023272
52.835,65.9833,0.023272
52.899,65.9707,0.023602
52.961,65.9583,0.023602
53.023,65.9456,0.023602
53.086,65.9332,0.023602
53.148,65.9208,0.023960
53.209,65.9085,0.023960
53.272,65.8961,0.023960
53.333,65.8837,0.023960
53.396,65.8713,0.024214
53.458,65.8589,0.024214
53.520,65.8464,0.024214
53.583,65.8340,0.024214
53.644,65.8215,0.024298
53.706,65.8093,0.024298
53.769,65.7968,0.024298
53.831,65.7843,0.024298
53.893,65.7717,0.024421
53.956,65.7593,0.024421
54.018,65.7468,0.024421
54.080,65.7344,0.024421
54.145,65.7215,0.024468
54.204,65.7094,0.024468
54.266,65.6973,0.024468
54.329,65.6847,0.024468
54.392,65.6720,0.024383
54.454,65.6595,0.024383
54.517,65.6470,0.024383
54.579,65.6346,0.024383
54.641,65.6222,0.024138
54.703,65.6098,0.024138
54.764,65.5975,0.024138
54.827,65.5850,0.024138
54.889,65.5726,0.024138
54.952,65.5600,0.023799
55.012,65.5480,0.023799
55.075,65.5355,0.023799
55.137,65.5229,0.023799
55.199,65.5105,0.023395
55.262,65.4980,0.023395
55.323,65.4856,0.023395
55.385,65.4733,0.022999
55.447,65.4611,0.022999
55.509,65.4488,0.022999
55.571,65.4363,0.022999
55.632,65.4241,0.022566
55.694,65.4116,0.022566
55.757,65.3990,0.022566
55.818,65.3868,0.022566
55.881,65.3741,0.022180
55.944,65.3617,0.022180
56.006,65.3493,0.022180
56.069,65.3367,0.022180
56.131,65.3243,0.021813
56.193,65.3117,0.021813
56.257,65.2991,0.021813
56.319,65.2866,0.021813
56.382,65.2740,0.021465
56.444,65.2618,0.021465
56.506,65.2494,0.021465
56.567,65.2369,0.021465
56.630,65.2243,0.021276
56.693,65.2118,0.021276
56.756,65.1992,0.021276
56.818,65.1866,0.021276
56.881,65.1742,0.021098
56.943,65.1618,0.021098
57.005,65.1494,0.021098
57.066,65.1369,0.021098
57.128,65.1248,0.020928
57.189,65.1127,0.020928
57.251,65.1000,0.020928
57.313,65.0879,0.020928
57.375,65.0755,0.020787
57.438,65.0628,0.020787
57.500,65.0505,0.020787
57.562,65.0380,0.020787
57.624,65.0256,0.020627
57.686,65.0131,0.020627
57.749,65.0007,0.020627
57.812,64.9880,0.020627
57.875,64.9755,0.020552
57.937,64.9631,0.020552
57.999,64.9506,0.020552
58.062,64.9382,0.020552
58.123,64.9258,0.020457
58.185,64.9134,0.020457
58.247,64.9011,0.020457
58.308,64.8887,0.020457
58.371,64.8762,0.020335
58.434,64.8635,0.020335
58.495,64.8514,0.020335
58.557,64.8390,0.020335
58.620,64.8263,0.020269
58.684,64.8137,0.020269
58.747,64.8010,0.020269
58.809,64.7885,0.020269
58.873,64.7758,0.020269
58.936,64.7633,0.020184
58.998,64.7509,0.020184
59.059,64.7385,0.020184
59.121,64.7262,0.020184
59.183,64.7137,0.020118
59.247,64.7012,0.020118
59.308,64.6889,0.020118
59.369,64.6766,0.020118
59.432,64.6641,0.020034
59.495,64.6514,0.020034
59.556,64.6393,0.020034
59.618,64.6269,0.019940
59.680,64.6146,0.019940
59.742,64.6019,0.019940
59.804,64.5895,0.019940
59.867,64.5770,0.019883
59.928,64.5649,0.019883
59.990,64.5523,0.019883
60.052,64.5401,0.019883
60.115,64.5275,0.019817
60.177,64.5153,0.019817
60.239,64.5029,0.019817
60.301,64.4903,0.019817
60.363,64.4779,0.019817
60.430,64.4645,0.019770
60.488,64.4530,0.019770
60.548,64.4407,0.019770
60.609,64.4284,0.019742
60.673,64.4158,0.019742
60.735,64.4035,0.019742
60.797,64.3910,0.019742
60.860,64.3786,0.019742
60.922,64.3662,0.019723
60.983,64.3539,0.019723
61.046,64.3414,0.019723
61.108,64.3287,0.019685
61.172,64.3161,0.019685
61.234,64.3035,0.019685
61.296,64.2913,0.019685
61.359,64.2787,0.019629
61.420,64.2665,0.019629
61.482,64.2541,0.019629
61.545,64.2415,0.019629
61.606,64.2294,0.019601
61.668,64.2169,0.019601
61.730,64.2043,0.019601
61.793,64.1918,0.019601
61.854,64.1795,0.019572
61.918,64.1669,0.019572
61.979,64.1546,0.019572
62.043,64.1419,0.019572
62.105,64.1294,0.019488
62.168,64.1168,0.019488
62.229,64.1046,0.019488
62.293,64.0920,0.019488
62.353,64.0799,0.019450
62.415,64.0675,0.019450
62.477,64.0551,0.019450
62.539,64.0426,0.019450
62.600,64.0303,0.019450
62.664,64.0175,0.019469
62.726,64.0051,0.019469
62.787,63.9930,0.019469
62.852,63.9798,0.019469
62.912,63.9681,0.019412
62.974,63.9557,0.019412
63.037,63.9433,0.019412
63.098,63.9307,0.019412
63.161,63.9182,0.019299
63.224,63.9057,0.019299
63.287,63.8932,0.019299
63.350,63.8805,0.019299
63.409,63.8685,0.019205
63.472,63.8559,0.019205
63.535,63.8435,0.019205
63.597,63.8310,0.019196
63.660,63.8186,0.019196
63.721,63.8063,0.019196
63.783,63.7941,0.019196
63.845,63.7815,0.019196
63.907,63.7691,0.019158
63.969,63.7569,0.019158
64.031,63.7443,0.019158
64.093,63.7318,0.019158
64.155,63.7195,0.019130
64.218,63.7070,0.019130
64.280,63.6946,0.019130
64.342,63.6822,0.019130
64.404,63.6697,0.019055
64.466,63.6574,0.019055
64.527,63.6450,0.019055
64.589,63.6327,0.019055
64.652,63.6202,0.019026
64.715,63.6074,0.019026
64.777,63.5952,0.019026
64.838,63.5828,0.019026
64.899,63.5706,0.018961
64.962,63.5582,0.018961
65.024,63.5458,0.018961
65.087,63.5331,0.018961
65.148,63.5210,0.018895
65.210,63.5086,0.018895
65.272,63.4960,0.018895
65.334,63.4838,0.018895
65.396,63.4712,0.018857
65.459,63.4586,0.018857
65.521,63.4462,0.018857
65.584,63.4336,0.018857
65.646,63.4212,0.018735
65.709,63.4087,0.018735
65.772,63.3961,0.018735
65.834,63.3837,0.018735
65.895,63.3715,0.018687
65.957,63.3590,0.018687
66.019,63.3467,0.018687
66.081,63.3342,0.018687
66.144,63.3217,0.018640
66.207,63.3093,0.018640
66.267,63.2970,0.018640
66.331,63.2843,0.018640
66.395,63.2715,0.018565
66.456,63.2593,0.018565
66.517,63.2470,0.018565
66.579,63.2346,0.018565
66.642,63.2222,0.018527
66.705,63.2095,0.018527
66.766,63.1971,0.018527
66.829,63.1847,0.018527
66.892,63.1721,0.018490
66.954,63.1597,0.018490
67.017,63.1470,0.018490
67.080,63.1345,0.018490
67.143,63.1217,0.018471
67.206,63.1095,0.018471
67.267,63.0970,0.018471
67.328,63.0849,0.018471
67.390,63.0725,0.018414
67.453,63.0600,0.018414
67.515,63.0476,0.018414
67.577,63.0352,0.018414
67.640,63.0226,0.018320
67.703,63.0100,0.018320
67.764,62.9977,0.018320
67.828,62.9848,0.018320
67.890,62.9725,0.018273
67.953,62.9599,0.018273
68.016,62.9472,0.018273
68.077,62.9351,0.018273
68.139,62.9227,0.018254
68.200,62.9105,0.018254
68.263,62.8980,0.018254
68.324,62.8857,0.018254
68.386,62.8733,0.018207
68.448,62.8609,0.018207
68.511,62.8484,0.018207
68.572,62.8359,0.018207
68.636,62.8233,0.018151
68.699,62.8108,0.018151
68.760,62.7985,0.018151
68.821,62.7862,0.018151
68.885,62.7736,0.018113
68.947,62.7612,0.018113
69.008,62.7487,0.018113
69.070,62.7365,0.018113
69.132,62.7241,0.018047
69.196,62.7113,0.018047
69.256,62.6993,0.018047
69.318,62.6868,0.018047
69.380,62.6746,0.017972
69.442,62.6622,0.017972
69.503,62.6499,0.017972
69.566,62.6373,0.017972
69.628,62.6249,0.017906
69.690,62.6124,0.017906
69.752,62.6000,0.017906
69.815,62.5876,0.017906
69.878,62.5749,0.017831
69.939,62.5628,0.017831
70.001,62.5507,0.017831
70.063,62.5415,0.017831
70.125,62.5350,0.017765
70.188,62.5315,0.017765
70.251,62.5308,0.017765
70.313,62.5308,0.017765
70.375,62.5313,0.017765
70.437,62.5345,0.017708
70.498,62.5406,0.017708
70.562,62.5499,0.017708
70.624,62.5616,0.017708
70.686,62.5739,0.017558
70.748,62.5863,0.017558
70.811,62.5990,0.017558
70.875,62.6117,0.017530
70.936,62.6240,0.017530
70.998,62.6364,0.017530
71.060,62.6487,0.017530
71.123,62.6614,0.017624
71.186,62.6740,0.017624
71.248,62.6863,0.017624
71.310,62.6987,0.017624
71.372,62.7112,0.017605
71.435,62.7239,0.017605
71.498,62.7364,0.017605
71.560,62.7488,0.017605
71.622,62.7613,0.017586
71.685,62.7737,0.017586
71.746,62.7861,0.017586
71.808,62.7984,0.017586
71.871,62.8109,0.017558
71.934,62.8236,0.017558
71.996,62.8360,0.017558
72.058,62.8484,0.017558
72.119,62.8605,0.017520
72.181,62.8729,0.017520
72.244,62.8855,0.017520
72.306,62.8980,0.017520
72.369,62.9105,0.017445
72.432,62.9230,0.017445
72.495,62.9358,0.017445
72.557,62.9481,0.017445
72.619,62.9604,0.017473
72.681,62.9729,0.017473
72.743,62.9853,0.017473
72.806,62.9978,0.017473
72.868,63.0105,0.017473
72.930,63.0228,0.017520
72.991,63.0349,0.017520
73.053,63.0473,0.017520
73.116,63.0598,0.017464
73.178,63.0724,0.017464
73.241,63.0849,0.017464
73.302,63.0972,0.017464
73.365,63.1098,0.017530
73.427,63.1222,0.017530
73.490,63.1348,0.017530
73.552,63.1470,0.017530
73.615,63.1597,0.017530
73.677,63.1722,0.017530
73.739,63.1845,0.017530
73.801,63.1970,0.017530
73.863,63.2093,0.017501
73.925,63.2217,0.017501
73.986,63.2340,0.017501
74.049,63.2467,0.017501
74.113,63.2594,0.017501
74.175,63.2718,0.017482
74.237,63.2842,0.017482
74.301,63.2970,0.017482
74.363,63.3095,0.017482
74.424,63.3217,0.017454
74.487,63.3341,0.017454
74.550,63.3467,0.017454
74.612,63.3590,0.017482
74.673,63.3714,0.017482
74.734,63.3834,0.017482
74.797,63.3962,0.017482
74.859,63.4086,0.017435
74.920,63.4207,0.017435
74.983,63.4333,0.017435
75.044,63.4457,0.017435
75.108,63.4583,0.017417
75.170,63.4706,0.017417
75.232,63.4833,0.017417
75.295,63.4958,0.017417
75.357,63.5081,0.017435
75.419,63.5205,0.017435
75.481,63.5330,0.017435
75.543,63.5453,0.017435
75.606,63.5578,0.017445
75.667,63.5702,0.017445
75.730,63.5828,0.017445
75.793,63.5952,0.017445
75.856,63.6079,0.017445
75.918,63.6203,0.017369
75.981,63.6330,0.017369
76.044,63.6455,0.017369
76.108,63.6584,0.017369
76.168,63.6703,0.017294
76.232,63.6831,0.017294
76.292,63.6951,0.017294
76.354,63.7075,0.017294
76.416,63.7199,0.017313
76.478,63.7324,0.017313
76.540,63.7449,0.017313
76.602,63.7571,0.017313
76.665,63.7696,0.017285
76.726,63.7820,0.017285
76.790,63.7947,0.017285
76.851,63.8071,0.017285
76.914,63.8196,0.017294
76.976,63.8320,0.017294
77.037,63.8442,0.017294
77.100,63.8567,0.017294
77.160,63.8687,0.017219
77.222,63.8811,0.017219
77.283,63.8934,0.017219
77.347,63.9062,0.017219
77.410,63.9187,0.017162
77.472,63.9311,0.017162
77.534,63.9435,0.017162
77.597,63.9562,0.017162
77.658,63.9683,0.017172
77.721,63.9810,0.017172
77.783,63.9932,0.017172
77.845,64.0058,0.017172
77.907,64.0182,0.017068
77.969,64.0306,0.017068
78.033,64.0432,0.017068
78.095,64.0557,0.017068
78.157,64.0680,0.017040
78.220,64.0807,0.017040
78.283,64.0933,0.017040
78.344,64.1055,0.017040
78.406,64.1180,0.017021
78.469,64.1305,0.017021
78.531,64.1428,0.017021
78.593,64.1553,0.017021
78.655,64.1677,0.017002
78.717,64.1801,0.017002
78.779,64.1925,0.017002
78.842,64.2051,0.017002
78.905,64.2177,0.016965
78.966,64.2299,0.016965
79.028,64.2424,0.016965
79.090,64.2548,0.016965
79.152,64.2672,0.016918
79.214,64.2796,0.016918
79.277,64.2920,0.016918
79.338,64.3044,0.016918
79.401,64.3168,0.016993
79.464,64.3295,0.016993
79.525,64.3417,0.016993
79.589,64.3544,0.016993
79.652,64.3670,0.016889
79.714,64.3795,0.016889
79.775,64.3916,0.016889
79.837,64.4043,0.016889
79.899,64.4165,0.016767
79.962,64.4289,0.016767
80.023,64.4412,0.016767
80.085,64.4537,0.016767
80.148,64.4661,0.016786
80.211,64.4788,0.016786
80.273,64.4913,0.016786
80.334,64.5035,0.016786
80.396,64.5159,0.016729
80.459,64.5285,0.016729
80.522,64.5412,0.016729
80.585,64.5537,0.016729
80.646,64.5660,0.016682
80.709,64.5786,0.016682
80.772,64.5912,0.016682
80.834,64.6036,0.016682
80.896,64.6160,0.016663
80.958,64.6282,0.016663
81.020,64.6408,0.016663
81.081,64.6529,0.016663
81.142,64.6652,0.016607
81.204,64.6776,0.016607
81.266,64.6900,0.016607
81.328,64.7024,0.016607
81.389,64.7146,0.016579
81.453,64.7272,0.016579
81.515,64.7396,0.016579
81.576,64.7520,0.016579
81.639,64.7645,0.016541
81.701,64.7771,0.016541
81.764,64.7895,0.016541
81.827,64.8021,0.016541
81.889,64.8144,0.016485
81.951,64.8271,0.016485
82.013,64.8395,0.016485
82.075,64.8516,0.016485
82.138,64.8644,0.016381
82.200,64.8767,0.016381
82.263,64.8893,0.016381
82.325,64.9017,0.016381
82.388,64.9142,0.016324
82.451,64.9269,0.016324
82.512,64.9392,0.016324
82.575,64.9517,0.016324
82.637,64.9641,0.016315
82.700,64.9769,0.016315
82.764,64.9894,0.016315
82.828,65.0022,0.016315
82.889,65.0145,0.016259
82.951,65.0269,0.016259
83.014,65.0396,0.016259
83.077,65.0523,0.016259
83.138,65.0644,0.016155
83.202,65.0771,0.016155
83.265,65.0897,0.016155
83.329,65.1025,0.016155
83.391,65.1150,0.016042
83.455,65.1278,0.016042
83.518,65.1403,0.016042
83.581,65.1529,0.016042
83.644,65.1654,0.015967
83.706,65.1779,0.015967
83.769,65.1904,0.015967
83.831,65.2028,0.015967
83.894,65.2155,0.015910
83.957,65.2280,0.015910
84.019,65.2405,0.015910
84.082,65.2531,0.015910
84.144,65.2655,0.015788
84.207,65.2780,0.015788
84.268,65.2903,0.015788
84.331,65.3028,0.015788
84.394,65.3153,0.015703
84.455,65.3276,0.015703
84.516,65.3398,0.015703
84.578,65.3524,0.015703
84.640,65.3647,0.015694
84.702,65.3770,0.015694
84.764,65.3895,0.015694
84.827,65.4019,0.015694
84.889,65.4145,0.015600
84.952,65.4271,0.015600
85.014,65.4395,0.015600
85.077,65.4521,0.015600
85.140,65.4647,0.015515
85.203,65.4772,0.015515
85.267,65.4900,0.015515
85.330,65.5026,0.015515
85.389,65.5145,0.015440
85.450,65.5267,0.015440
85.513,65.5394,0.015440
85.575,65.5516,0.015440
85.636,65.5639,0.015280
85.699,65.5765,0.015280
85.762,65.5892,0.015280
85.826,65.6019,0.015280
85.886,65.6140,0.015157
85.950,65.6266,0.015157
86.012,65.6390,0.015157
86.073,65.6513,0.015157
86.134,65.6635,0.015157
86.197,65.6761,0.015091
86.259,65.6886,0.015091
86.322,65.7012,0.015091
86.384,65.7136,0.014959
86.446,65.7260,0.014959
86.509,65.7385,0.014959
86.572,65.7511,0.014959
86.632,65.7632,0.014752
86.694,65.7755,0.014752
86.756,65.7877,0.014752
86.817,65.8001,0.014752
86.879,65.8124,0.014677
86.942,65.8249,0.014677
87.004,65.8373,0.014677
87.066,65.8499,0.014677
87.127,65.8622,0.014564
87.189,65.8746,0.014564
87.252,65.8871,0.014564
87.315,65.8996,0.014564
87.378,65.9123,0.014338
87.441,65.9248,0.014338
87.503,65.9372,0.014338
87.566,65.9498,0.014338
87.627,65.9621,0.014150
87.690,65.9745,0.014150
87.752,65.9870,0.014150
87.815,65.9997,0.014150
87.877,66.0120,0.013905
87.939,66.0245,0.013905
88.002,66.0371,0.013905
88.064,66.0494,0.013905
88.126,66.0618,0.013726
88.188,66.0742,0.013726
88.251,66.0868,0.013726
88.312,66.0990,0.013726
88.375,66.1118,0.013547
88.437,66.1240,0.013547
88.499,66.1365,0.013547
88.562,66.1490,0.013547
88.624,66.1614,0.013350
88.685,66.1736,0.013350
88.747,66.1862,0.013350
88.808,66.1983,0.013350
88.870,66.2105,0.013095
88.933,66.2233,0.013095
88.995,66.2358,0.013095
89.057,66.2482,0.013095
89.119,66.2606,0.012804
89.182,66.2732,0.012804
89.243,66.2854,0.012804
89.307,66.2981,0.012804
89.369,66.3105,0.012804
89.431,66.3228,0.012540
89.492,66.3351,0.012540
89.555,66.3477,0.012540
89.618,66.3601,0.012267
89.681,66.3729,0.012267
89.742,66.3850,0.012267
89.804,66.3974,0.012267
89.867,66.4102,0.011966
89.928,66.4224,0.011966
89.990,66.4348,0.011966
90.053,66.4472,0.011966
90.115,66.4597,0.012003
90.177,66.4721,0.012003
90.241,66.4847,0.012003
90.301,66.4968,0.012003
90.363,66.5089,0.012003
90.425,66.5189,0.012239
90.489,66.5258,0.012239
90.551,66.5298,0.012239
90.612,66.5308,0.012276
90.674,66.5308,0.012276
90.736,66.5308,0.012276
90.799,66.5308,0.012276
90.862,66.5308,0.012276
90.924,66.5308,0.012653
90.986,66.5308,0.012653
91.048,66.5308,0.012653
91.111,66.5308,0.013171
91.173,66.5308,0.013171
91.236,66.5308,0.013171
91.298,66.5308,0.013171
91.361,66.5308,0.013547
91.422,66.5308,0.013547
91.484,66.5308,0.013547
91.546,66.5308,0.013547
91.608,66.5308,0.013547
91.671,66.5308,0.013547
91.734,66.5308,0.013905
91.796,66.5308,0.013905
91.859,66.5308,0.014187
91.921,66.5308,0.014187
91.983,66.5308,0.014187
92.046,66.5308,0.014187
92.107,66.5308,0.014413
92.171,66.5308,0.014413
92.232,66.5308,0.014413
92.297,66.5308,0.014413
92.357,66.5308,0.014413
92.420,66.5308,0.014620
92.482,66.5308,0.014620
92.543,66.5308,0.014620
92.606,66.5308,0.014620
92.668,66.5308,0.014799
92.731,66.5308,0.014799
92.794,66.5308,0.014799
92.856,66.5308,0.014799
92.918,66.5308,0.014969
92.982,66.5308,0.014969
93.046,66.5308,0.014969
93.106,66.5308,0.014969
93.166,66.5308,0.015091
93.230,66.5308,0.015091
93.293,66.5308,0.015091
93.356,66.5308,0.015223
93.418,66.5308,0.015223
93.483,66.5308,0.015223
93.542,66.5308,0.015223
93.605,66.5308,0.015223
93.667,66.5308,0.015402
93.729,66.5308,0.015402
93.791,66.5308,0.015402
93.853,66.5308,0.015402
93.915,66.5308,0.015496
93.978,66.5308,0.015496
94.042,66.5308,0.015496
94.104,66.5308,0.015496
94.167,66.5308,0.015553
94.230,66.5308,0.015553
94.292,66.5308,0.015553
94.354,66.5308,0.015628
94.417,66.5308,0.015628
94.479,66.5308,0.015628
94.541,66.5308,0.015628
94.603,66.5308,0.015628
94.665,66.5308,0.015713
94.727,66.5308,0.015713
94.789,66.5308,0.015713
94.852,66.5308,0.015713
94.913,66.5308,0.015835
94.976,66.5308,0.015835
95.038,66.5308,0.015835
95.098,66.5308,0.015835
95.163,66.5308,0.015910
95.223,66.5308,0.015910
95.285,66.5308,0.015910
95.347,66.5293,0.015939
95.409,66.5249,0.015939
95.471,66.5176,0.015939
95.533,66.5073,0.015939
95.596,66.4950,0.015939
95.658,66.4826,0.016456
95.720,66.4701,0.016456
95.783,66.4573,0.016456
95.847,66.4446,0.016456
95.907,66.4328,0.017501
95.970,66.4200,0.017501
96.031,66.4079,0.017501
96.094,66.3952,0.017501
96.157,66.3828,0.018546
96.218,66.3705,0.018546
96.282,66.3577,0.018546
96.344,66.3453,0.018546
96.405,66.3332,0.019356
96.466,66.3207,0.019356
96.529,66.3084,0.019356
96.592,66.2957,0.019356
96.654,66.2833,0.020024
96.716,66.2708,0.020024
96.778,66.2584,0.020024
96.840,66.2461,0.020024
96.902,66.2337,0.020693
96.965,66.2213,0.020693
97.026,66.2089,0.020693
97.088,66.1964,0.020693
97.151,66.1839,0.021258
97.212,66.1717,0.021258
97.275,66.1593,0.021258
97.337,66.1468,0.021258
97.399,66.1343,0.021738
97.463,66.1216,0.021738
97.524,66.1095,0.021738
97.587,66.0968,0.021738
97.650,66.0842,0.022256
97.713,66.0716,0.022256
97.773,66.0596,0.022256
97.835,66.0469,0.022256
97.898,66.0347,0.022745
97.959,66.0223,0.022745
98.022,66.0097,0.022745
98.085,65.9971,0.022745
98.148,65.9846,0.023093
98.209,65.9724,0.023093
98.271,65.9600,0.023093
98.332,65.9477,0.023093
98.397,65.9348,0.023414
98.457,65.9228,0.023414
98.519,65.9104,0.023414
98.582,65.8977,0.023414
98.645,65.8851,0.023752
98.707,65.8728,0.023752
98.769,65.8603,0.023752
98.831,65.8480,0.023752
98.893,65.8356,0.023752
98.956,65.8230,0.023894
99.019,65.8104,0.023894
99.081,65.7980,0.023894
99.142,65.7858,0.023950
99.204,65.7733,0.023950
99.267,65.7607,0.023950
99.330,65.7482,0.023950
99.391,65.7359,0.024007
99.454,65.7232,0.024007
99.518,65.7107,0.024007
99.581,65.6979,0.024007
99.644,65.6853,0.023875
99.706,65.6728,0.023875
99.768,65.6604,0.023875
99.830,65.6480,0.023875
99.895,65.6349,0.023649
99.956,65.6228,0.023649
100.019,65.6104,0.023649
100.080,65.5982,0.023649
100.142,65.5858,0.023366
100.205,65.5731,0.023366
100.265,65.5613,0.023366
100.327,65.5489,0.023366
100.389,65.5363,0.023084
100.451,65.5238,0.023084
100.513,65.5114,0.023084
100.575,65.4991,0.023084
100.637,65.4867,0.022736
100.700,65.4741,0.022736
100.763,65.4616,0.022736
100.825,65.4492,0.022736
100.887,65.4367,0.022312
100.949,65.4243,0.022312
101.011,65.4119,0.022312
101.073,65.3995,0.022312
101.136,65.3871,0.021926
101.198,65.3746,0.021926
101.261,65.3618,0.021926
101.324,65.3494,0.021926
101.386,65.3369,0.021634
101.448,65.3245,0.021634
101.512,65.3116,0.021634
101.573,65.2995,0.021634
101.636,65.2871,0.021389
101.698,65.2747,0.021389
101.760,65.2622,0.021389
101.822,65.2498,0.021389
101.885,65.2369,0.021126
101.947,65.2248,0.021126
102.013,65.2116,0.021126
102.072,65.1997,0.021126
102.134,65.1873,0.020881
102.197,65.1746,0.020881
102.259,65.1623,0.020881
102.321,65.1500,0.020881
102.383,65.1375,0.020730
102.445,65.1252,0.020730
102.508,65.1126,0.020730
102.569,65.1003,0.020730
102.632,65.0877,0.020636
102.694,65.0755,0.020636
102.757,65.0628,0.020636
102.820,65.0503,0.020636
102.881,65.0380,0.020552
102.945,65.0252,0.020552
103.006,65.0131,0.020552
103.069,65.0004,0.020552
103.131,64.9880,0.020457
103.193,64.9755,0.020457
103.255,64.9631,0.020457
103.317,64.9506,0.020457
103.379,64.9382,0.020457
103.443,64.9254,0.020382
103.505,64.9132,0.020382
103.568,64.9007,0.020382
103.629,64.8883,0.020382
103.692,64.8757,0.020222
103.754,64.8633,0.020222
103.816,64.8509,0.020222
103.880,64.8381,0.020222
103.941,64.8259,0.020147
104.004,64.8132,0.020147
104.066,64.8008,0.020147
104.129,64.7882,0.020100
104.191,64.7761,0.020100
104.254,64.7634,0.020100
104.316,64.7510,0.020100
104.378,64.7386,0.020100
104.440,64.7262,0.020043
104.503,64.7136,0.020043
104.566,64.7009,0.020043
104.627,64.6886,0.020043
104.689,64.6764,0.019996
104.752,64.6636,0.019996
104.815,64.6511,0.019996
104.877,64.6388,0.019902
104.938,64.6265,0.019902
105.000,64.6141,0.019902
105.063,64.6016,0.019902
105.126,64.5890,0.019902
105.189,64.5765,0.019911
105.250,64.5642,0.019911
105.313,64.5517,0.019911
105.376,64.5389,0.019845
105.440,64.5262,0.019845
105.503,64.5134,0.019845
105.565,64.5014,0.019845
105.626,64.4890,0.019751
105.688,64.4766,0.019751
105.751,64.4640,0.019751
105.813,64.4516,0.019751
105.875,64.4392,0.019695
105.937,64.4267,0.019695
105.999,64.4144,0.019695
106.061,64.4021,0.019695
106.123,64.3895,0.019620
106.185,64.3770,0.019620
106.246,64.3649,0.019620
106.307,64.3528,0.019620
106.370,64.3401,0.019620
106.431,64.3280,0.019591
106.493,64.3155,0.019591
106.556,64.3028,0.019591
106.617,64.2909,0.019591
106.679,64.2785,0.019582
106.739,64.2662,0.019582
106.802,64.2537,0.019582
106.863,64.2417,0.019582
106.925,64.2291,0.019516
106.987,64.2165,0.019516
107.049,64.2043,0.019516
107.112,64.1918,0.019516
107.173,64.1796,0.019478
107.236,64.1671,0.019478
107.299,64.1543,0.019478
107.360,64.1421,0.019478
107.422,64.1298,0.019412
107.484,64.1174,0.019412
107.547,64.1047,0.019412
107.610,64.0921,0.019412
107.672,64.0798,0.019365
107.734,64.0674,0.019365
107.796,64.0550,0.019365
107.858,64.0426,0.019365
107.922,64.0300,0.019290
107.983,64.0175,0.019290
108.045,64.0053,0.019290
108.107,63.9929,0.019262
108.170,63.9802,0.019262
108.232,63.9679,0.019262
108.294,63.9552,0.019262
108.357,63.9429,0.019309
108.419,63.9304,0.019309
108.480,63.9181,0.019309
108.543,63.9057,0.019309
108.606,63.8929,0.019309
108.668,63.8808,0.019215
108.729,63.8682,0.019215
108.793,63.8556,0.019215
108.857,63.8428,0.019215
108.917,63.8308,0.019139
108.979,63.8184,0.019139
109.041,63.8060,0.019139
109.104,63.7934,0.019139
109.166,63.7808,0.019045
109.229,63.7684,0.019045
109.290,63.7562,0.019045
109.353,63.7435,0.019045
109.416,63.7311,0.018989
109.477,63.7187,0.018989
109.540,63.7061,0.018989
109.602,63.6938,0.018970
109.666,63.6811,0.018970
109.728,63.6685,0.018970
109.791,63.6559,0.018970
109.855,63.6430,0.018885
109.918,63.6306,0.018885
109.981,63.6179,0.018885
110.043,63.6055,0.018885
110.105,63.5931,0.018885
110.169,63.5805,0.018876
110.231,63.5681,0.018876
110.293,63.5556,0.018876
110.356,63.5429,0.018848
110.419,63.5304,0.018848
110.482,63.5177,0.018848
110.543,63.5056,0.018848
110.606,63.4931,0.018848
110.668,63.4807,0.018753
110.729,63.4684,0.018753
110.792,63.4557,0.018753
110.855,63.4432,0.018753
110.920,63.4303,0.018687
110.979,63.4184,0.018687
111.040,63.4060,0.018687
111.104,63.3933,0.018687
111.167,63.3807,0.018687
111.229,63.3685,0.018687
111.292,63.3559,0.018687
111.353,63.3435,0.018687
111.417,63.3308,0.018650
111.477,63.3188,0.018650
111.538,63.3065,0.018650
111.600,63.2941,0.018650
111.662,63.2818,0.018565
111.723,63.2697,0.018565
111.786,63.2570,0.018565
111.849,63.2444,0.018565
111.911,63.2317,0.018480
111.973,63.2196,0.018480
112.035,63.2073,0.018480
112.097,63.1949,0.018480
112.159,63.1825,0.018462
112.220,63.1702,0.018462
112.282,63.1578,0.018462
112.345,63.1450,0.018462
112.407,63.1328,0.018424
112.470,63.1201,0.018424
112.533,63.1076,0.018424
112.596,63.0951,0.018367
112.659,63.0825,0.018367
112.721,63.0701,0.018367
112.784,63.0575,0.018367
112.847,63.0450,0.018367
112.909,63.0324,0.018330
112.971,63.0200,0.018330
113.033,63.0078,0.018330
113.094,62.9955,0.018330
113.157,62.9827,0.018217
113.220,62.9703,0.018217
113.282,62.9579,0.018217
113.343,62.9456,0.018217
113.405,62.9332,0.018179
113.467,62.9209,0.018179
113.530,62.9082,0.018179
113.590,62.8964,0.018179
113.652,62.8836,0.018198
113.714,62.8714,0.018198
113.777,62.8588,0.018198
113.839,62.8464,0.018198
113.902,62.8340,0.018123
113.963,62.8216,0.018123
114.025,62.8092,0.018123
114.088,62.7965,0.018123
114.153,62.7836,0.018057
114.213,62.7717,0.018057
114.274,62.7595,0.018057
114.336,62.7469,0.018057
114.398,62.7347,0.017981
114.461,62.7219,0.017981
114.524,62.7094,0.017981
114.585,62.6972,0.017981
114.648,62.6847,0.017944
114.711,62.6721,0.017944
114.773,62.6596,0.017944
114.835,62.6471,0.017944
114.899,62.6346,0.017944
114.961,62.6220,0.017878
115.023,62.6096,0.017878
115.085,62.5974,0.017878
115.146,62.5852,0.017803
115.208,62.5727,0.017803
115.271,62.5600,0.017803
115.333,62.5476,0.017803
115.395,62.5352,0.017793
115.458,62.5227,0.017793
115.519,62.5103,0.017793
115.582,62.4988,0.017793
115.644,62.4900,0.017765
115.706,62.4841,0.017765
115.768,62.4811,0.017765
115.830,62.4808,0.017765
115.892,62.4808,0.017652
115.955,62.4808,0.017652
116.016,62.4808,0.017652
116.079,62.4808,0.017652
116.141,62.4808,0.017624
116.205,62.4808,0.017624
116.266,62.4808,0.017624
116.327,62.4809,0.017624
116.389,62.4831,0.017661
116.451,62.4882,0.017661
116.512,62.4960,0.017661
116.575,62.5072,0.017661
116.636,62.5192,0.017577
116.701,62.5324,0.017577
116.762,62.5445,0.017577
116.824,62.5569,0.017577
116.887,62.5696,0.017530
116.950,62.5820,0.017530
117.013,62.5948,0.017530
117.076,62.6074,0.017530
117.138,62.6198,0.017511
117.200,62.6321,0.017511
117.261,62.6446,0.017511
117.323,62.6566,0.017511
117.385,62.6692,0.017482
117.448,62.6816,0.017482
117.511,62.6942,0.017482
117.572,62.7066,0.017482
117.635,62.7191,0.017482
117.697,62.7316,0.017511
117.760,62.7440,0.017511
117.822,62.7565,0.017511
117.885,62.7691,0.017511
117.949,62.7818,0.017464
118.010,62.7942,0.017464
118.073,62.8067,0.017464
118.136,62.8195,0.017454
118.198,62.8319,0.017454
118.262,62.8444,0.017454
118.324,62.8568,0.017454
118.387,62.8693,0.017520
118.449,62.8821,0.017520
118.512,62.8944,0.017520
118.574,62.9068,0.017520
118.637,62.9196,0.017464
118.698,62.9316,0.017464
118.760,62.9440,0.017464
118.821,62.9563,0.017464
118.883,62.9689,0.017445
118.945,62.9812,0.017445
119.008,62.9937,0.017445
119.069,63.0061,0.017445
119.132,63.0187,0.017492
119.196,63.0313,0.017492
119.259,63.0440,0.017492
119.322,63.0564,0.017492
119.384,63.0689,0.017445
119.448,63.0815,0.017445
119.511,63.0942,0.017445
119.574,63.1067,0.017445
119.635,63.1191,0.017435
119.698,63.1315,0.017435
119.760,63.1439,0.017435
119.821,63.1562,0.017435
119.883,63.1687,0.017473
119.947,63.1816,0.017473
120.008,63.1938,0.017473
120.070,63.2062,0.017473
120.133,63.2187,0.017464
120.196,63.2314,0.017464
120.257,63.2435,0.017464
120.319,63.2558,0.017464
120.382,63.2684,0.017445
120.445,63.2810,0.017445
120.507,63.2936,0.017445
120.570,63.3062,0.017445
120.632,63.3186,0.017417
120.694,63.3310,0.017417
120.756,63.3435,0.017417
120.819,63.3560,0.017417
120.882,63.3685,0.017369
120.944,63.3808,0.017369
121.005,63.3930,0.017369
121.066,63.4054,0.017369
121.129,63.4178,0.017379
121.191,63.4302,0.017379
121.254,63.4428,0.017379
121.316,63.4554,0.017379
121.379,63.4679,0.017388
121.441,63.4803,0.017388
121.504,63.4928,0.017388
121.567,63.5055,0.017388
121.630,63.5181,0.017417
121.693,63.5308,0.017417
121.755,63.5429,0.017417
121.817,63.5553,0.017417
121.881,63.5682,0.017407
121.943,63.5806,0.017407
122.005,63.5930,0.017407
122.067,63.6055,0.017407
122.131,63.6183,0.017332
122.194,63.6308,0.017332
122.256,63.6432,0.017332
122.318,63.6556,0.017332
122.379,63.6678,0.017294
122.441,63.6802,0.017294
122.504,63.6927,0.017294
122.565,63.7049,0.017294
122.626,63.7174,0.017285
122.689,63.7298,0.017285
122.752,63.7425,0.017285
122.815,63.7550,0.017285
122.878,63.7675,0.017266
122.940,63.7802,0.017266
123.003,63.7926,0.017266
123.065,63.8051,0.017266
123.127,63.8175,0.017219
123.188,63.8295,0.017219
123.250,63.8421,0.017219
123.312,63.8546,0.017219
123.374,63.8669,0.017191
123.437,63.8795,0.017191
123.499,63.8918,0.017191
123.561,63.9042,0.017191
123.622,63.9165,0.017115
123.685,63.9290,0.017115
123.746,63.9412,0.017115
123.807,63.9534,0.017115
123.869,63.9661,0.017115
123.931,63.9784,0.017068
123.993,63.9906,0.017068
124.056,64.0033,0.017068
124.118,64.0157,0.017068
124.181,64.0281,0.017125
124.243,64.0405,0.017125
124.305,64.0531,0.017125
124.368,64.0657,0.017125
124.429,64.0781,0.017134
124.491,64.0904,0.017134
124.554,64.1028,0.017134
124.615,64.1150,0.017134
124.678,64.1277,0.017040
124.741,64.1402,0.017040
124.802,64.1525,0.017040
124.865,64.1650,0.016965
124.928,64.1778,0.016965
124.991,64.1902,0.016965
125.053,64.2026,0.016965
125.115,64.2151,0.016965
125.177,64.2275,0.016918
125.241,64.2402,0.016918
125.303,64.2526,0.016918
125.364,64.2647,0.016889
125.427,64.2775,0.016889
125.489,64.2898,0.016889
125.552,64.3024,0.016889
125.613,64.3146,0.016871
125.676,64.3272,0.016871
125.738,64.3395,0.016871
125.801,64.3523,0.016871
125.863,64.3647,0.016842
125.925,64.3770,0.016842
125.988,64.3896,0.016842
126.050,64.4020,0.016842
126.112,64.4144,0.016842
126.174,64.4270,0.016842
126.236,64.4394,0.016842
126.298,64.4516,0.016842
126.361,64.4642,0.016776
126.423,64.4767,0.016776
126.486,64.4891,0.016776
126.549,64.5017,0.016776
126.612,64.5145,0.016720
126.674,64.5267,0.016720
126.736,64.5392,0.016720
126.800,64.5521,0.016720
126.863,64.5647,0.016701
126.926,64.5773,0.016701
126.990,64.5900,0.016701
127.052,64.6024,0.016701
127.116,64.6152,0.016701
127.178,64.6276,0.016663
127.241,64.6401,0.016663
127.304,64.6527,0.016663
127.366,64.6652,0.016663
127.428,64.6776,0.016579
127.490,64.6900,0.016579
127.553,64.7025,0.016579
127.613,64.7146,0.016513
127.675,64.7270,0.016513
127.737,64.7396,0.016513
127.801,64.7523,0.016513
127.863,64.7645,0.016494
127.925,64.7769,0.016494
127.987,64.7895,0.016494
128.048,64.8016,0.016494
128.110,64.8142,0.016494
128.173,64.8267,0.016437
128.235,64.8390,0.016437
128.297,64.8515,0.016437
128.359,64.8640,0.016362
128.422,64.8763,0.016362
128.484,64.8888,0.016362
128.548,64.9017,0.016362
128.610,64.9140,0.016315
128.674,64.9270,0.016315
128.734,64.9388,0.016315
128.796,64.9513,0.016315
128.861,64.9643,0.016315
128.920,64.9760,0.016230
128.981,64.9882,0.016230
129.043,65.0008,0.016230
129.106,65.0133,0.016230
129.171,65.0262,0.016174
129.231,65.0383,0.016174
129.294,65.0509,0.016174
129.355,65.0632,0.016174
129.417,65.0756,0.016099
129.480,65.0879,0.016099
129.541,65.1003,0.016099
129.602,65.1124,0.016099
129.665,65.1251,0.016051
129.727,65.1375,0.016051
129.789,65.1499,0.016051
129.850,65.1622,0.016051
129.915,65.1751,0.016033
129.974,65.1868,0.016033
130.036,65.1991,0.016033
130.096,65.2113,0.016033
130.159,65.2238,0.015929
130.221,65.2362,0.015929
130.283,65.2487,0.015929
130.346,65.2613,0.015929
130.408,65.2739,0.015854
130.470,65.2859,0.015854
130.531,65.2982,0.015854
130.593,65.3106,0.015854
130.655,65.3230,0.015760
130.717,65.3354,0.015760
130.779,65.3478,0.015760
130.842,65.3604,0.015760
130.904,65.3728,0.015694
130.967,65.3853,0.015694
131.029,65.3979,0.015694
131.092,65.4106,0.015694
131.155,65.4230,0.015618
131.217,65.4354,0.015618
131.280,65.4479,0.015618
131.343,65.4604,0.015618
131.406,65.4731,0.015468
131.469,65.4857,0.015468
131.531,65.4981,0.015468
131.592,65.5103,0.015468
131.656,65.5231,0.015355
131.715,65.5350,0.015355
131.777,65.5475,0.015355
131.839,65.5599,0.015355
131.903,65.5726,0.015289
131.966,65.5852,0.015289
132.027,65.5974,0.015289
132.088,65.6096,0.015289
132.151,65.6220,0.015167
132.212,65.6343,0.015167
132.275,65.6468,0.015167
132.336,65.6592,0.015167
132.399,65.6719,0.015016
132.462,65.6843,0.015016
132.523,65.6966,0.015016
132.586,65.7091,0.015016
132.649,65.7218,0.014894
132.711,65.7343,0.014894
132.772,65.7463,0.014894
132.834,65.7587,0.014894
132.895,65.7711,0.014743
132.957,65.7834,0.014743
133.019,65.7959,0.014743
133.081,65.8083,0.014743
133.143,65.8207,0.014639
133.206,65.8333,0.014639
133.268,65.8457,0.014639
133.330,65.8581,0.014639
133.392,65.8703,0.014526
133.454,65.8829,0.014526
133.516,65.8951,0.014526
133.579,65.9077,0.014526
133.642,65.9203,0.014310
133.703,65.9326,0.014310
133.765,65.9450,0.014310
133.827,65.9573,0.014310
133.890,65.9701,0.014093
133.953,65.9827,0.014093
134.015,65.9950,0.014093
134.079,66.0078,0.014093
134.139,66.0198,0.013933
134.202,66.0323,0.013933
134.264,66.0447,0.013933
134.326,66.0572,0.013933
134.389,66.0696,0.013933
134.450,66.0819,0.013754
134.514,66.0947,0.013754
134.576,66.1072,0.013754
134.637,66.1195,0.013566
134.698,66.1317,0.013566
134.760,66.1439,0.013566
134.822,66.1563,0.013566
134.885,66.1690,0.013312
134.948,66.1815,0.013312
135.011,66.1942,0.013312
135.074,66.2068,0.013312
135.137,66.2192,0.013048
135.200,66.2319,0.013048
135.262,66.2444,0.013048
135.324,66.2568,0.013048
135.385,66.2689,0.012832
135.449,66.2817,0.012832
135.513,66.2945,0.012832
135.574,66.3067,0.012832
135.634,66.3188,0.012596
135.696,66.3313,0.012596
135.758,66.3436,0.012596
135.821,66.3561,0.012596
135.882,66.3684,0.012305
135.944,66.3807,0.012305
136.007,66.3933,0.012305
136.069,66.4056,0.012305
136.130,66.4180,0.012050
136.192,66.4303,0.012050
136.254,66.4427,0.012050
136.316,66.4552,0.012050
136.379,66.4660,0.012173
136.442,66.4740,0.012173
136.504,66.4788,0.012173
136.567,66.4808,0.012173
136.629,66.4808,0.012596
136.691,66.4808,0.012596
136.753,66.4808,0.012596
136.816,66.4808,0.012596
136.878,66.4808,0.013105
136.940,66.4808,0.013105
137.003,66.4808,0.013105
137.066,66.4808,0.013105
137.127,66.4808,0.013660
137.189,66.4808,0.013660
137.252,66.4808,0.013660
137.314,66.4808,0.013660
137.378,66.4808,0.013660
137.439,66.4808,0.014065
137.501,66.4808,0.014065
137.565,66.4808,0.014065
137.626,66.4808,0.014300
137.688,66.4808,0.014300
137.753,66.4808,0.014300
137.814,66.4808,0.014300
137.875,66.4808,0.014555
137.937,66.4808,0.014555
138.000,66.4808,0.014555
138.063,66.4808,0.014555
138.125,66.4808,0.014818
138.187,66.4808,0.014818
138.249,66.4808,0.014818
138.311,66.4808,0.014818
138.377,66.4808,0.014818
138.437,66.4808,0.015044
138.499,66.4808,0.015044
138.561,66.4808,0.015044
138.624,66.4808,0.015242
138.687,66.4808,0.015242
138.750,66.4808,0.015242
138.812,66.4808,0.015242
138.875,66.4808,0.015392
138.937,66.4808,0.015392
139.001,66.4808,0.015392
139.065,66.4808,0.015392
139.128,66.4808,0.015524
139.191,66.4808,0.015524
139.254,66.4808,0.015524
139.316,66.4808,0.015524
139.378,66.4808,0.015600
139.441,66.4808,0.015600
139.504,66.4808,0.015600
139.566,66.4808,0.015600
139.627,66.4808,0.015713
139.688,66.4808,0.015713
139.751,66.4808,0.015713
139.812,66.4808,0.015713
139.875,66.4808,0.015844
139.939,66.4808,0.015844
140.002,66.4808,0.015844
140.065,66.4808,0.015844
140.128,66.4808,0.015939
140.192,66.4808,0.015939
140.254,66.4808,0.015939
140.318,66.4808,0.015939
140.381,66.4808,0.015939
140.444,66.4808,0.016014
140.507,66.4808,0.016014
140.569,66.4808,0.016014
140.632,66.4808,0.016089
140.697,66.4808,0.016089
140.759,66.4808,0.016089
140.821,66.4808,0.016089
140.885,66.4808,0.016089
140.946,66.4808,0.016202
141.010,66.4808,0.016202
141.073,66.4808,0.016202
141.134,66.4800,0.016277
141.197,66.4764,0.016277
141.260,66.4697,0.016277
141.323,66.4601,0.016277
141.385,66.4479,0.016579
141.446,66.4358,0.016579
141.509,66.4232,0.016579
141.572,66.4107,0.016579
141.632,66.3988,0.017520
141.694,66.3863,0.017520
141.756,66.3739,0.017520
141.819,66.3613,0.017520
141.880,66.3491,0.017520
141.941,66.3369,0.018546
142.003,66.3246,0.018546
142.066,66.3120,0.018546
142.128,66.2993,0.019281
142.192,66.2868,0.019281
142.254,66.2744,0.019281
142.316,66.2620,0.019281
142.379,66.2495,0.019977
142.442,66.2367,0.019977
142.504,66.2243,0.019977
142.567,66.2119,0.019977
142.629,66.1994,0.020636
142.692,66.1868,0.020636
142.753,66.1746,0.020636
142.816,66.1620,0.020636
142.879,66.1494,0.021182
142.940,66.1371,0.021182
143.002,66.1248,0.021182
143.064,66.1124,0.021182
143.126,66.0998,0.021681
143.188,66.0875,0.021681
143.250,66.0752,0.021681
143.312,66.0628,0.021681
143.375,66.0502,0.022152
143.438,66.0376,0.022152
143.499,66.0252,0.022152
143.562,66.0128,0.022152
143.625,66.0002,0.022500
143.687,65.9877,0.022500
143.749,65.9753,0.022500
143.811,65.9629,0.022500
143.874,65.9502,0.022867
143.936,65.9377,0.022867
144.000,65.9250,0.022867
144.062,65.9126,0.022867
144.126,65.9001,0.023140
144.187,65.8877,0.023140
144.250,65.8752,0.023140
144.313,65.8626,0.023140
144.375,65.8502,0.023272
144.435,65.8381,0.023272
144.497,65.8258,0.023272
144.559,65.8132,0.023272
144.622,65.8009,0.023272
144.685,65.7882,0.023423
144.748,65.7756,0.023423
144.810,65.7633,0.023423
144.872,65.7508,0.023451
144.933,65.7385,0.023451
144.995,65.7262,0.023451
145.058,65.7134,0.023451
145.121,65.7010,0.023385
145.183,65.6886,0.023385
145.245,65.6760,0.023385
145.308,65.6636,0.023385
145.370,65.6512,0.023197
145.432,65.6388,0.023197
145.495,65.6261,0.023197
145.557,65.6137,0.023197
145.619,65.6013,0.022933
145.682,65.5888,0.022933
145.744,65.5763,0.022933
145.807,65.5637,0.022933
145.870,65.5512,0.022651
145.932,65.5388,0.022651
145.995,65.5263,0.022651
146.057,65.5135,0.022651
146.119,65.5014,0.022312
146.182,65.4887,0.022312
146.244,65.4764,0.022312
146.307,65.4638,0.022312
146.368,65.4514,0.022011
146.430,65.4391,0.022011
146.494,65.4263,0.022011
146.554,65.4142,0.022011
146.617,65.4018,0.022011
146.678,65.3894,0.021691
146.740,65.3772,0.021691
146.801,65.3649,0.021691
146.864,65.3523,0.021691
146.926,65.3399,0.021446
146.989,65.3275,0.021446
147.051,65.3148,0.021446
147.113,65.3026,0.021201
147.175,65.2900,0.021201
147.237,65.2778,0.021201
147.300,65.2652,0.021201
147.362,65.2527,0.020966
147.425,65.2402,0.020966
147.488,65.2276,0.020966
147.550,65.2151,0.020966
147.612,65.2027,0.020796
147.674,65.1903,0.020796
147.737,65.1778,0.020796
147.799,65.1655,0.020796
147.861,65.1529,0.020599
147.922,65.1407,0.020599
147.984,65.1284,0.020599
148.047,65.1159,0.020599
148.109,65.1034,0.020476
148.171,65.0911,0.020476
148.233,65.0786,0.020476
148.296,65.0659,0.020476
148.357,65.0539,0.020476
148.419,65.0415,0.020354
148.482,65.0288,0.020354
148.544,65.0164,0.020354
148.607,65.0038,0.020250
148.668,64.9915,0.020250
148.729,64.9794,0.020250
148.791,64.9669,0.020250
148.854,64.9545,0.020250
148.916,64.9420,0.020147
148.977,64.9297,0.020147
149.038,64.9176,0.020147
149.101,64.9051,0.020147
149.164,64.8924,0.020062
149.227,64.8798,0.020062
149.290,64.8672,0.020062
149.351,64.8550,0.020062
149.414,64.8423,0.019977
149.477,64.8298,0.019977
149.538,64.8175,0.019977
149.601,64.8050,0.019977
149.663,64.7924,0.019893
149.727,64.7798,0.019893
149.787,64.7678,0.019893
149.850,64.7552,0.019893
149.911,64.7428,0.019893
149.974,64.7303,0.019893
150.036,64.7179,0.019893
150.099,64.7054,0.019893
150.161,64.6931,0.019836
150.223,64.6806,0.019836
150.285,64.6682,0.019836
150.347,64.6558,0.019836
150.408,64.6435,0.019780
150.470,64.6311,0.019780
150.532,64.6187,0.019780
150.594,64.6063,0.019780
150.657,64.5936,0.019751
150.719,64.5814,0.019751
150.780,64.5691,0.019751
150.843,64.5564,0.019751
150.906,64.5440,0.019667
150.968,64.5315,0.019667
151.030,64.5192,0.019667
151.092,64.5066,0.019667
151.155,64.4940,0.019572
151.218,64.4816,0.019572
151.279,64.4692,0.019572
151.342,64.4570,0.019572
151.404,64.4444,0.019535
151.467,64.4319,0.019535
151.530,64.4194,0.019535
151.592,64.4069,0.019535
151.655,64.3943,0.019544
151.715,64.3822,0.019544
151.778,64.3697,0.019544
151.841,64.3570,0.019544
151.904,64.3444,0.019497
151.966,64.3321,0.019497
152.029,64.3194,0.019497
152.092,64.3068,0.019497
152.154,64.2945,0.019412
152.216,64.2821,0.019412
152.278,64.2697,0.019412
152.340,64.2573,0.019412
152.402,64.2448,0.019375
152.465,64.2322,0.019375
152.528,64.2197,0.019375
152.590,64.2072,0.019375
152.653,64.1945,0.019347
152.717,64.1818,0.019347
152.778,64.1696,0.019347
152.841,64.1570,0.019347
152.903,64.1445,0.019309
152.966,64.1320,0.019309
153.027,64.1197,0.019309
153.090,64.1072,0.019309
153.151,64.0949,0.019318
153.215,64.0823,0.019318
153.278,64.0696,0.019318
153.340,64.0572,0.019318
153.403,64.0445,0.019234
153.464,64.0323,0.019234
153.527,64.0199,0.019234
153.588,64.0076,0.019234
153.650,63.9952,0.019158
153.712,63.9828,0.019158
153.774,63.9705,0.019158
153.836,63.9579,0.019158
153.898,63.9456,0.019130
153.962,63.9327,0.019130
154.023,63.9206,0.019130
154.085,63.9082,0.019130
154.150,63.8951,0.019111
154.209,63.8832,0.019111
154.271,63.8710,0.019111
154.333,63.8586,0.019111
154.396,63.8460,0.019036
154.459,63.8334,0.019036
154.520,63.8211,0.019036
154.582,63.8089,0.019036
154.644,63.7963,0.018961
154.707,63.7838,0.018961
154.769,63.7714,0.018961
154.831,63.7590,0.018961
154.892,63.7468,0.018885
154.954,63.7344,0.018885
155.016,63.7221,0.018885
155.078,63.7096,0.018885
155.141,63.6971,0.018866
155.204,63.6843,0.018866
155.265,63.6721,0.018866
155.327,63.6597,0.018866
155.389,63.6473,0.018866
155.452,63.6348,0.018876
155.514,63.6224,0.018876
155.577,63.6099,0.018876
155.638,63.5976,0.018819
155.701,63.5851,0.018819
155.763,63.5727,0.018819
155.825,63.5604,0.018819
155.887,63.5480,0.018791
155.948,63.5357,0.018791
156.010,63.5232,0.018791
156.072,63.5107,0.018791
156.133,63.4985,0.018697
156.195,63.4860,0.018697
156.259,63.4733,0.018697
156.321,63.4612,0.018697
156.384,63.4484,0.018575
156.446,63.4360,0.018575
156.508,63.4236,0.018575
156.571,63.4110,0.018575
156.633,63.3987,0.018509
156.695,63.3861,0.018509
156.758,63.3737,0.018509
156.820,63.3613,0.018509
156.882,63.3488,0.018480
156.945,63.3363,0.018480
157.009,63.3233,0.018480
157.071,63.3110,0.018480
157.132,63.2988,0.018452
157.194,63.2864,0.018452
157.258,63.2737,0.018452
157.320,63.2610,0.018452
157.383,63.2485,0.018386
157.446,63.2360,0.018386
157.507,63.2238,0.018386
157.570,63.2113,0.018386
157.631,63.1991,0.018320
157.693,63.1866,0.018320
157.755,63.1742,0.018320
157.819,63.1615,0.018320
157.881,63.1490,0.018302
157.943,63.1367,0.018302
158.004,63.1243,0.018302
158.067,63.1118,0.018302
158.129,63.0992,0.018245
158.192,63.0868,0.018245
158.255,63.0742,0.018245
158.316,63.0618,0.018245
158.379,63.0492,0.018170
158.442,63.0366,0.018170
158.504,63.0245,0.018170
158.567,63.0118,0.018170
158.629,62.9996,0.018132
158.691,62.9870,0.018132
158.753,62.9746,0.018132
158.815,62.9621,0.018132
158.877,62.9497,0.018085
158.939,62.9372,0.018085
159.002,62.9248,0.018085
159.064,62.9124,0.018085
159.126,62.8999,0.018028
159.188,62.8878,0.018028
159.251,62.8752,0.018028
159.313,62.8628,0.018028
159.376,62.8502,0.018000
159.439,62.8376,0.018000
159.501,62.8252,0.018000
159.563,62.8128,0.018000
159.625,62.8000,0.017963
159.687,62.7879,0.017963
159.748,62.7756,0.017963
159.810,62.7633,0.017963
159.873,62.7504,0.017925
159.936,62.7381,0.017925
159.999,62.7255,0.017925
160.064,62.7125,0.017925
160.124,62.7005,0.017821
160.187,62.6878,0.017821
160.248,62.6755,0.017821
160.312,62.6628,0.017821
160.371,62.6511,0.017793
160.434,62.6385,0.017793
160.498,62.6254,0.017793
160.559,62.6135,0.017793
160.622,62.6007,0.017793
160.685,62.5883,0.017793
160.747,62.5760,0.017793
160.807,62.5637,0.017793
160.871,62.5510,0.017793
160.934,62.5383,0.017784
160.996,62.5259,0.017784
161.064,62.5125,0.017784
161.122,62.5007,0.017784
161.185,62.4881,0.017765
161.246,62.4759,0.017765
161.309,62.4633,0.017765
161.371,62.4514,0.017746
161.432,62.4420,0.017746
161.495,62.4353,0.017746
161.557,62.4315,0.017746
161.619,62.4307,0.017746
161.681,62.4307,0.017643
161.743,62.4307,0.017643
161.805,62.4312,0.017643
161.868,62.4343,0.017643
161.930,62.4403,0.017548
161.992,62.4493,0.017548
162.053,62.4608,0.017548
162.116,62.4733,0.017548
162.177,62.4856,0.017473
162.240,62.4980,0.017473
162.301,62.5103,0.017473
162.364,62.5229,0.017473
162.426,62.5355,0.017445
162.487,62.5476,0.017445
162.552,62.5605,0.017445
162.613,62.5728,0.017445
162.675,62.5852,0.017501
162.737,62.5977,0.017501
162.799,62.6098,0.017501
162.860,62.6220,0.017501
162.920,62.6342,0.017435
162.983,62.6466,0.017435
163.045,62.6592,0.017435
163.109,62.6719,0.017435
163.171,62.6844,0.017445
163.233,62.6968,0.017445
163.296,62.7094,0.017445
163.356,62.7215,0.017445
163.418,62.7339,0.017445
163.480,62.7461,0.017445
163.543,62.7587,0.017445
163.606,62.7712,0.017445
163.667,62.7835,0.017435
163.729,62.7960,0.017435
163.790,62.8083,0.017435
163.854,62.8208,0.017435
163.916,62.8335,0.017492
163.978,62.8459,0.017492
164.043,62.8587,0.017492
164.104,62.8708,0.017492
164.167,62.8835,0.017445
164.229,62.8959,0.017445
164.292,62.9085,0.017445
164.355,62.9211,0.017445
164.417,62.9336,0.017388
164.479,62.9459,0.017388
164.540,62.9580,0.017388
164.602,62.9707,0.017388
164.663,62.9828,0.017426
164.726,62.9953,0.017426
164.788,63.0078,0.017426
164.850,63.0202,0.017426
164.911,63.0324,0.017435
164.974,63.0450,0.017435
165.041,63.0582,0.017435
165.099,63.0698,0.017435
165.160,63.0822,0.017398
165.222,63.0944,0.017398
165.283,63.1068,0.017398
165.348,63.1196,0.017398
165.409,63.1320,0.017407
165.473,63.1447,0.017407
165.534,63.1570,0.017407
165.597,63.1694,0.017407
165.659,63.1818,0.017388
165.721,63.1942,0.017388
165.783,63.2066,0.017388
165.846,63.2192,0.017388
165.908,63.2316,0.017360
165.970,63.2440,0.017360
166.032,63.2565,0.017360
166.095,63.2691,0.017360
166.157,63.2815,0.017379
166.219,63.2939,0.017379
166.282,63.3065,0.017379
166.345,63.3190,0.017379
166.407,63.3315,0.017379
166.470,63.3441,0.017379
166.534,63.3569,0.017379
166.595,63.3692,0.017379
166.657,63.3817,0.017388
166.719,63.3940,0.017388
166.782,63.4066,0.017388
166.845,63.4190,0.017388
166.906,63.4313,0.017417
166.967,63.4434,0.017417
167.030,63.4561,0.017417
167.093,63.4687,0.017341
167.154,63.4809,0.017341
167.216,63.4933,0.017341
167.279,63.5058,0.017341
167.341,63.5182,0.017341
167.404,63.5308,0.017332
167.466,63.5432,0.017332
167.527,63.5554,0.017332
167.590,63.5681,0.017332
167.653,63.5807,0.017322
167.714,63.5929,0.017322
167.777,63.6053,0.017322
167.838,63.6177,0.017322
167.901,63.6302,0.017275
167.962,63.6425,0.017275
168.024,63.6549,0.017275
168.085,63.6669,0.017275
168.147,63.6795,0.017238
168.209,63.6920,0.017238
168.271,63.7043,0.017238
168.334,63.7169,0.017238
168.397,63.7293,0.017228
168.459,63.7417,0.017228
168.521,63.7542,0.017228
168.582,63.7664,0.017228
168.645,63.7791,0.017257
168.707,63.7915,0.017257
168.769,63.8037,0.017257
168.831,63.8164,0.017257
168.895,63.8292,0.017162
168.956,63.8413,0.017162
169.018,63.8537,0.017162
169.081,63.8664,0.017162
169.146,63.8791,0.017068
169.206,63.8913,0.017068
169.268,63.9037,0.017068
169.330,63.9161,0.017068
169.393,63.9286,0.017068
169.456,63.9413,0.017068
169.519,63.9538,0.017068
169.581,63.9663,0.017068
169.644,63.9789,0.017087
169.706,63.9913,0.017087
169.767,64.0035,0.017087
169.829,64.0159,0.017087
169.891,64.0282,0.017059
169.953,64.0406,0.017059
170.015,64.0530,0.017059
170.077,64.0654,0.017059
170.140,64.0781,0.017012
170.201,64.0902,0.017012
170.263,64.1029,0.017012
170.326,64.1152,0.017012
170.387,64.1276,0.016965
170.449,64.1398,0.016965
170.510,64.1521,0.016965
170.573,64.1646,0.016965
170.634,64.1768,0.016955
170.697,64.1894,0.016955
170.760,64.2021,0.016955
170.823,64.2146,0.016955
170.885,64.2273,0.016955
170.947,64.2396,0.016927
171.010,64.2521,0.016927
171.071,64.2642,0.016927
171.134,64.2768,0.016927
171.198,64.2895,0.016889
171.260,64.3019,0.016889
171.323,64.3147,0.016889
171.385,64.3271,0.016852
171.447,64.3396,0.016852
171.510,64.3520,0.016852
171.571,64.3643,0.016852
171.633,64.3767,0.016767
171.696,64.3892,0.016767
171.758,64.4017,0.016767
171.820,64.4139,0.016767
171.882,64.4263,0.016748
171.944,64.4389,0.016748
172.007,64.4514,0.016748
172.068,64.4637,0.016748
172.130,64.4759,0.016767
172.192,64.4885,0.016767
172.255,64.5010,0.016767
172.317,64.5134,0.016767
172.379,64.5257,0.016692
172.441,64.5384,0.016692
172.504,64.5509,0.016692
172.567,64.5634,0.016692
172.629,64.5759,0.016645
172.692,64.5884,0.016645
172.755,64.6010,0.016645
172.819,64.6137,0.016645
172.881,64.6261,0.016579
172.943,64.6387,0.016579
173.006,64.6512,0.016579
173.068,64.6637,0.016579
173.131,64.6761,0.016485
173.192,64.6885,0.016485
173.255,64.7009,0.016485
173.316,64.7132,0.016485
173.378,64.7256,0.016466
173.439,64.7379,0.016466
173.502,64.7504,0.016466
173.564,64.7627,0.016466
173.626,64.7751,0.016466
173.688,64.7877,0.016409
173.751,64.8001,0.016409
173.812,64.8124,0.016409
173.874,64.8247,0.016353
173.935,64.8371,0.016353
173.997,64.8494,0.016353
174.060,64.8620,0.016353
174.124,64.8749,0.016315
174.186,64.8872,0.016315
174.249,64.8997,0.016315
174.310,64.9119,0.016315
174.372,64.9244,0.016212
174.434,64.9368,0.016212
174.497,64.9495,0.016212
174.560,64.9620,0.016212
174.623,64.9746,0.016183
174.685,64.9869,0.016183
174.747,64.9993,0.016183
174.809,65.0118,0.016183
174.871,65.0242,0.016108
174.933,65.0367,0.016108
174.997,65.0493,0.016108
175.060,65.0620,0.016108
175.121,65.0742,0.016033
175.183,65.0866,0.016033
175.246,65.0992,0.016033
175.308,65.1117,0.016033
175.370,65.1238,0.015976
175.433,65.1367,0.015976
175.494,65.1489,0.015976
175.557,65.1613,0.015976
175.619,65.1738,0.015901
175.681,65.1862,0.015901
175.743,65.1986,0.015901
175.805,65.2112,0.015901
175.867,65.2234,0.015901
175.929,65.2358,0.015797
175.993,65.2487,0.015797
176.055,65.2610,0.015797
176.116,65.2734,0.015675
176.178,65.2856,0.015675
176.240,65.2980,0.015675
176.302,65.3104,0.015675
176.364,65.3228,0.015675
176.427,65.3353,0.015618
176.491,65.3481,0.015618
176.553,65.3607,0.015618
176.617,65.3735,0.015562
176.678,65.3857,0.015562
176.741,65.3983,0.015562
176.803,65.4106,0.015562
176.866,65.4231,0.015477
176.927,65.4354,0.015477
176.989,65.4479,0.015477
177.050,65.4601,0.015477
177.114,65.4727,0.015477
177.177,65.4855,0.015421
177.240,65.4981,0.015421
177.300,65.5102,0.015421
177.362,65.5226,0.015421
177.424,65.5347,0.015336
177.485,65.5470,0.015336
177.548,65.5595,0.015336
177.613,65.5727,0.015336
177.673,65.5846,0.015204
177.735,65.5970,0.015204
177.797,65.6094,0.015204
177.860,65.6219,0.015204
177.923,65.6346,0.015119
177.985,65.6470,0.015119
178.046,65.6592,0.015119
178.107,65.6714,0.015016
178.169,65.6838,0.015016
178.231,65.6962,0.015016
178.294,65.7089,0.015016
178.357,65.7214,0.015016
178.420,65.7340,0.014912
178.482,65.7464,0.014912
178.545,65.7590,0.014912
178.607,65.7714,0.014733
178.668,65.7836,0.014733
178.731,65.7962,0.014733
178.794,65.8088,0.014733
178.855,65.8211,0.014733
178.917,65.8334,0.014526
178.980,65.8460,0.014526
179.044,65.8588,0.014526
179.105,65.8711,0.014526
179.167,65.8835,0.014470
179.229,65.8959,0.014470
179.291,65.9080,0.014470
179.353,65.9206,0.014470
179.416,65.9332,0.014319
179.478,65.9455,0.014319
179.540,65.9580,0.014319
179.603,65.9707,0.014319
179.664,65.9828,0.014131
179.726,65.9952,0.014131
179.788,66.0076,0.014131
179.850,66.0199,0.013990
179.912,66.0324,0.013990
179.974,66.0448,0.013990
180.036,66.0571,0.013990
180.099,66.0698,0.013990
180.161,66.0822,0.013754
180.223,66.0946,0.013754
180.285,66.1071,0.013754
180.348,66.1196,0.013566
180.410,66.1319,0.013566
180.471,66.1442,0.013566
180.534,66.1567,0.013566
180.597,66.1694,0.013566
180.660,66.1823,0.013321
180.722,66.1944,0.013321
180.784,66.2069,0.013321
180.846,66.2192,0.013321
180.908,66.2315,0.013048
180.971,66.2444,0.013048
181.032,66.2564,0.013048
181.094,66.2689,0.013048
181.157,66.2813,0.012851
181.219,66.2938,0.012851
181.281,66.3063,0.012851
181.343,66.3187,0.012851
181.406,66.3312,0.012578
181.469,66.3437,0.012578
181.531,66.3561,0.012578
181.593,66.3687,0.012578
181.656,66.3812,0.012286
181.717,66.3935,0.012286
181.778,66.4056,0.012286
181.841,66.4164,0.012286
181.905,66.4242,0.012022
181.966,66.4288,0.012022
182.030,66.4307,0.012022
182.091,66.4307,0.012022
182.153,66.4307,0.011947
182.215,66.4307,0.011947
182.277,66.4307,0.011947
182.338,66.4307,0.011947
182.400,66.4307,0.012540
182.462,66.4307,0.012540
182.524,66.4307,0.012540
182.587,66.4307,0.012540
182.649,66.4307,0.013594
182.711,66.4307,0.013594
182.772,66.4307,0.013594
182.835,66.4307,0.013594
182.897,66.4307,0.014329
182.959,66.4307,0.014329
183.022,66.4307,0.014329
183.083,66.4307,0.014329
183.146,66.4307,0.014705
183.208,66.4307,0.014705
183.272,66.4307,0.014705
183.334,66.4307,0.014705
183.396,66.4307,0.014941
183.459,66.4307,0.014941
183.521,66.4307,0.014941
183.583,66.4307,0.014941
183.646,66.4307,0.015148
183.708,66.4307,0.015148
183.771,66.4307,0.015148
183.833,66.4307,0.015148
183.895,66.4307,0.015327
183.958,66.4307,0.015327
184.021,66.4307,0.015327
184.084,66.4307,0.015327
184.147,66.4307,0.015496
184.209,66.4307,0.015496
184.272,66.4307,0.015496
184.334,66.4307,0.015496
184.396,66.4307,0.015628
184.457,66.4307,0.015628
184.520,66.4307,0.015628
184.582,66.4307,0.015628
184.645,66.4307,0.015760
184.708,66.4307,0.015760
184.772,66.4307,0.015760
184.833,66.4307,0.015760
184.896,66.4307,0.015873
184.958,66.4307,0.015873
185.020,66.4307,0.015873
185.081,66.4307,0.015873
185.143,66.4307,0.016051
185.206,66.4307,0.016051
185.269,66.4307,0.016051
185.332,66.4307,0.016051
185.394,66.4307,0.016221
185.455,66.4307,0.016221
185.518,66.4307,0.016221
185.581,66.4307,0.016221
185.643,66.4307,0.016249
185.706,66.4307,0.016249
185.768,66.4307,0.016249
185.831,66.4307,0.016249
185.893,66.4307,0.016324
185.954,66.4307,0.016324
186.015,66.4307,0.016324
186.077,66.4307,0.016324
186.140,66.4307,0.016381
186.204,66.4307,0.016381
186.266,66.4307,0.016381
186.329,66.4307,0.016381
186.393,66.4307,0.016428
186.455,66.4307,0.016428
186.518,66.4307,0.016428
186.582,66.4307,0.016428
186.645,66.4307,0.016532
186.707,66.4307,0.016532
186.769,66.4294,0.016532
186.831,66.4252,0.016532
186.893,66.4180,0.016616
186.955,66.4081,0.016616
187.018,66.3956,0.016616
187.081,66.3830,0.016616
187.143,66.3706,0.017257
187.206,66.3581,0.017257
187.269,66.3455,0.017257
187.332,66.3329,0.017257
187.395,66.3203,0.018283
187.458,66.3075,0.018283
187.519,66.2955,0.018283
187.581,66.2831,0.018283
187.643,66.2707,0.019064
187.704,66.2585,0.019064
187.766,66.2460,0.019064
187.828,66.2336,0.019064
187.892,66.2210,0.019770
187.955,66.2083,0.019770
188.018,66.1958,0.019770
188.080,66.1832,0.019770
188.141,66.1710,0.020439
188.203,66.1586,0.020439
188.264,66.1462,0.020439
188.327,66.1338,0.020439
188.390,66.1211,0.020956
188.451,66.1090,0.020956
188.512,66.0967,0.020956
188.575,66.0843,0.020956
188.636,66.0719,0.021408
188.699,66.0593,0.021408
188.764,66.0463,0.021408
188.823,66.0347,0.021408
188.886,66.0220,0.021860
188.948,66.0096,0.021860
189.009,65.9973,0.021860
189.071,65.9848,0.021860
189.135,65.9722,0.022190
189.195,65.9601,0.022190
189.259,65.9475,0.022190
189.320,65.9351,0.022190
189.382,65.9228,0.022491
189.444,65.9105,0.022491
189.507,65.8979,0.022491
189.570,65.8852,0.022491
189.632,65.8727,0.022754
189.695,65.8602,0.022754
189.758,65.8476,0.022754
189.820,65.8352,0.022754
189.883,65.8227,0.022877
189.945,65.8103,0.022877
190.008,65.7975,0.022877
190.072,65.7848,0.022877
190.134,65.7724,0.022924
190.197,65.7598,0.022924
190.260,65.7472,0.022924
190.323,65.7347,0.022924
190.385,65.7221,0.022924
190.448,65.7096,0.022915
190.510,65.6970,0.022915
190.573,65.6844,0.022915
190.636,65.6720,0.022849
190.700,65.6591,0.022849
190.763,65.6466,0.022849
190.826,65.6339,0.022849
190.889,65.6213,0.022849
190.952,65.6088,0.022651
191.017,65.5957,0.022651
191.078,65.5837,0.022651
191.141,65.5712,0.022387
191.203,65.5587,0.022387
191.265,65.5460,0.022387
191.328,65.5335,0.022387
191.390,65.5212,0.022058
191.453,65.5087,0.022058
191.514,65.4964,0.022058
191.577,65.4839,0.022058
191.640,65.4714,0.022058
191.702,65.4588,0.021785
191.764,65.4464,0.021785
191.828,65.4336,0.021785
191.890,65.4212,0.021785
191.951,65.4090,0.021521
192.014,65.3964,0.021521
192.075,65.3842,0.021521
192.139,65.3714,0.021248
192.202,65.3587,0.021248
192.263,65.3466,0.021248
192.327,65.3338,0.021248
192.390,65.3213,0.021248
192.450,65.3091,0.021032
192.512,65.2969,0.021032
192.574,65.2844,0.021032
192.636,65.2722,0.020806
192.697,65.2596,0.020806
192.760,65.2471,0.020806
192.823,65.2346,0.020806
192.886,65.2219,0.020806
192.949,65.2095,0.020683
193.012,65.1970,0.020683
193.072,65.1849,0.020683
193.133,65.1727,0.020504
193.195,65.1603,0.020504
193.257,65.1479,0.020504
193.320,65.1354,0.020504
193.382,65.1228,0.020363
193.444,65.1106,0.020363
193.507,65.0979,0.020363
193.570,65.0853,0.020363
193.633,65.0727,0.020241
193.694,65.0605,0.020241
193.755,65.0483,0.020241
193.817,65.0358,0.020241
193.878,65.0236,0.020081
193.941,65.0110,0.020081
194.003,64.9986,0.020081
194.065,64.9863,0.020081
194.128,64.9738,0.020006
194.190,64.9612,0.020006
194.253,64.9488,0.020006
194.314,64.9364,0.020006
194.376,64.9242,0.019930
194.437,64.9119,0.019930
194.499,64.8995,0.019930
194.561,64.8870,0.019930
194.624,64.8746,0.019911
194.686,64.8621,0.019911
194.749,64.8496,0.019911
194.811,64.8371,0.019911
194.874,64.8246,0.019836
194.936,64.8120,0.019836
194.998,64.7996,0.019836
195.061,64.7871,0.019836
195.121,64.7752,0.019836
195.184,64.7624,0.019751
195.246,64.7500,0.019751
195.309,64.7375,0.019751
195.371,64.7251,0.019751
195.433,64.7127,0.019714
195.496,64.7002,0.019714
195.558,64.6876,0.019714
195.622,64.6747,0.019714
195.683,64.6627,0.019629
195.746,64.6502,0.019629
195.809,64.6377,0.019629
195.871,64.6250,0.019591
195.934,64.6126,0.019591
195.996,64.6001,0.019591
196.058,64.5877,0.019591
196.121,64.5750,0.019544
196.184,64.5625,0.019544
196.247,64.5499,0.019544
196.307,64.5378,0.019544
196.370,64.5253,0.019478
196.432,64.5128,0.019478
196.496,64.5001,0.019478
196.558,64.4877,0.019478
196.620,64.4753,0.019478
196.681,64.4630,0.019441
196.743,64.4508,0.019441
196.807,64.4380,0.019441
196.867,64.4260,0.019441
196.930,64.4133,0.019441
196.992,64.4010,0.019441
197.054,64.3886,0.019441
197.116,64.3761,0.019375
197.177,64.3638,0.019375
197.240,64.3514,0.019375
197.303,64.3386,0.019375
197.366,64.3261,0.019375
197.429,64.3136,0.019337
197.492,64.3009,0.019337
197.554,64.2884,0.019337
197.617,64.2759,0.019299
197.679,64.2635,0.019299
197.740,64.2512,0.019299
197.802,64.2389,0.019299
197.865,64.2264,0.019224
197.927,64.2139,0.019224
197.989,64.2015,0.019224
198.053,64.1887,0.019224
198.115,64.1763,0.019224
198.177,64.1639,0.019215
198.238,64.1517,0.019215
198.301,64.1391,0.019215
198.363,64.1267,0.019215
198.425,64.1142,0.019224
198.486,64.1021,0.019224
198.549,64.0895,0.019224
198.610,64.0773,0.019196
198.672,64.0648,0.019196
198.734,64.0525,0.019196
198.797,64.0400,0.019196
198.860,64.0273,0.019196
198.921,64.0152,0.019130
198.983,64.0027,0.019130
199.047,63.9900,0.019130
199.108,63.9777,0.019055
199.170,63.9653,0.019055
199.232,63.9531,0.019055
199.294,63.9407,0.019055
199.355,63.9284,0.019008
199.417,63.9160,0.019008
199.479,63.9036,0.019008
199.541,63.8912,0.019008
199.603,63.8786,0.019008
199.666,63.8661,0.018961
199.728,63.8536,0.018961
199.788,63.8417,0.018961
199.851,63.8292,0.018961
199.913,63.8168,0.018923
199.975,63.8044,0.018923
200.037,63.7918,0.018923
200.099,63.7795,0.018923
200.161,63.7670,0.018829
200.223,63.7546,0.018829
200.285,63.7423,0.018829
200.349,63.7296,0.018829
200.412,63.7170,0.018744
200.473,63.7048,0.018744
200.534,63.6925,0.018744
200.598,63.6797,0.018744
200.660,63.6673,0.018735
200.723,63.6547,0.018735
200.785,63.6423,0.018735
200.848,63.6297,0.018687
200.911,63.6171,0.018687
200.974,63.6044,0.018687
201.035,63.5923,0.018687
201.097,63.5797,0.018687
201.159,63.5673,0.018584
201.222,63.5548,0.018584
201.285,63.5423,0.018584
201.346,63.5299,0.018584
201.409,63.5175,0.018518
201.472,63.5048,0.018518
201.534,63.4923,0.018518
201.596,63.4802,0.018518
201.659,63.4675,0.018518
201.721,63.4551,0.018518
201.784,63.4426,0.018518
201.847,63.4298,0.018480
201.909,63.4175,0.018480
201.971,63.4050,0.018480
202.034,63.3925,0.018480
202.095,63.3802,0.018480
202.157,63.3678,0.018424
202.220,63.3554,0.018424
202.282,63.3430,0.018424
202.345,63.3305,0.018424
202.407,63.3179,0.018367
202.470,63.3054,0.018367
202.533,63.2928,0.018367
202.595,63.2805,0.018367
202.657,63.2680,0.018254
202.718,63.2558,0.018254
202.781,63.2430,0.018254
202.844,63.2304,0.018254
202.907,63.2178,0.018207
202.970,63.2052,0.018207
203.031,63.1930,0.018207
203.093,63.1805,0.018207
203.157,63.1679,0.018160
203.219,63.1555,0.018160
203.282,63.1429,0.018160
203.345,63.1304,0.018160
203.408,63.1178,0.018123
203.471,63.1052,0.018123
203.533,63.0928,0.018123
203.596,63.0802,0.018123
203.659,63.0675,0.018123
203.722,63.0550,0.018123
203.785,63.0422,0.018123
203.847,63.0300,0.018047
203.910,63.0174,0.018047
203.972,63.0048,0.018047
204.035,62.9922,0.018047
204.098,62.9796,0.018047
204.159,62.9674,0.018028
204.221,62.9550,0.018028
204.285,62.9421,0.018028
204.345,62.9305,0.018028
204.405,62.9183,0.017972
204.466,62.9061,0.017972
204.530,62.8933,0.017972
204.593,62.8808,0.017972
204.654,62.8683,0.017934
204.718,62.8558,0.017934
204.779,62.8435,0.017934
204.841,62.8309,0.017934
204.903,62.8187,0.017887
204.965,62.8063,0.017887
205.027,62.7939,0.017887
205.090,62.7813,0.017887
205.153,62.7686,0.017831
205.215,62.7562,0.017831
205.277,62.7437,0.017831
205.343,62.7307,0.017831
205.403,62.7187,0.017831
205.466,62.7062,0.017831
205.528,62.6936,0.017831
205.589,62.6814,0.017831
205.652,62.6689,0.017755
205.713,62.6568,0.017755
205.777,62.6437,0.017755
205.838,62.6317,0.017755
205.900,62.6194,0.017708
205.962,62.6070,0.017708
206.024,62.5945,0.017708
206.086,62.5822,0.017708
206.149,62.5695,0.017718
206.211,62.5569,0.017718
206.273,62.5448,0.017718
206.335,62.5324,0.017718
206.398,62.5197,0.017737
206.461,62.5072,0.017737
206.523,62.4948,0.017737
206.585,62.4823,0.017737
206.647,62.4700,0.017746
206.709,62.4576,0.017746
206.772,62.4449,0.017746
206.834,62.4325,0.017746
206.895,62.4204,0.017737
206.958,62.4077,0.017737
207.021,62.3964,0.017737
207.084,62.3883,0.017737
207.145,62.3832,0.017614
207.207,62.3808,0.017614
207.270,62.3807,0.017614
207.332,62.3808,0.017614
207.394,62.3830,0.017520
207.456,62.3883,0.017520
207.519,62.3963,0.017520
207.580,62.4071,0.017520
207.642,62.4195,0.017388
207.704,62.4319,0.017388
207.766,62.4443,0.017388
207.829,62.4568,0.017388
207.891,62.4692,0.017332
207.953,62.4816,0.017332
208.014,62.4942,0.017332
208.077,62.5067,0.017332
208.138,62.5189,0.017417
208.200,62.5311,0.017417
208.262,62.5435,0.017417
208.324,62.5561,0.017417
208.386,62.5682,0.017388
208.447,62.5806,0.017388
208.509,62.5930,0.017388
208.571,62.6054,0.017388
208.634,62.6179,0.017398
208.697,62.6305,0.017398
208.759,62.6429,0.017398
208.821,62.6554,0.017398
208.883,62.6679,0.017417
208.945,62.6802,0.017417
209.006,62.6925,0.017417
209.068,62.7049,0.017417
209.130,62.7173,0.017341
209.194,62.7299,0.017341
209.255,62.7423,0.017341
209.317,62.7546,0.017341
209.380,62.7671,0.017322
209.444,62.7799,0.017322
209.506,62.7923,0.017322
209.568,62.8050,0.017322
209.630,62.8173,0.017351
209.693,62.8299,0.017351
209.756,62.8424,0.017351
209.818,62.8548,0.017351
209.880,62.8671,0.017360
209.940,62.8793,0.017360
210.002,62.8917,0.017360
210.067,62.9047,0.017360
210.126,62.9165,0.017332
210.191,62.9295,0.017332
210.251,62.9414,0.017332
210.313,62.9539,0.017332
210.377,62.9666,0.017360
210.439,62.9791,0.017360
210.502,62.9918,0.017360
210.566,63.0044,0.017360
210.630,63.0173,0.017388
210.690,63.0292,0.017388
210.752,63.0415,0.017388
210.814,63.0540,0.017388
210.876,63.0663,0.017322
210.938,63.0787,0.017322
211.001,63.0912,0.017322
211.064,63.1039,0.017322
211.126,63.1164,0.017322
211.188,63.1287,0.017322
211.252,63.1414,0.017322
211.314,63.1540,0.017322
211.375,63.1661,0.017341
211.438,63.1788,0.017341
211.501,63.1913,0.017341
211.563,63.2038,0.017341
211.626,63.2164,0.017313
211.689,63.2290,0.017313
211.751,63.2414,0.017313
211.814,63.2538,0.017313
211.876,63.2662,0.017313
211.938,63.2787,0.017313
211.999,63.2911,0.017313
212.061,63.3034,0.017313
212.123,63.3157,0.017313
212.185,63.3282,0.017332
212.248,63.3408,0.017332
212.311,63.3534,0.017332
212.372,63.3656,0.017332
212.433,63.3778,0.017285
212.495,63.3902,0.017285
212.558,63.4028,0.017285
212.621,63.4153,0.017238
212.683,63.4278,0.017238
212.746,63.4402,0.017238
212.808,63.4527,0.017238
212.871,63.4653,0.017275
212.933,63.4777,0.017275
212.995,63.4902,0.017275
213.059,63.5029,0.017275
213.122,63.5155,0.017238
213.183,63.5278,0.017238
213.245,63.5402,0.017238
213.308,63.5527,0.017238
213.369,63.5650,0.017209
213.431,63.5774,0.017209
213.493,63.5899,0.017209
213.556,63.6023,0.017209
213.618,63.6147,0.017219
213.681,63.6272,0.017219
213.743,63.6397,0.017219
213.806,63.6522,0.017219
213.869,63.6650,0.017181
213.932,63.6775,0.017181
213.993,63.6898,0.017181
214.056,63.7024,0.017181
214.119,63.7149,0.017172
214.181,63.7273,0.017172
214.244,63.7400,0.017172
214.306,63.7523,0.017172
214.368,63.7647,0.017219
214.429,63.7769,0.017219
214.492,63.7897,0.017219
214.555,63.8020,0.017219
214.618,63.8148,0.017247
214.679,63.8268,0.017247
214.741,63.8395,0.017247
214.803,63.8517,0.017247
214.865,63.8641,0.017125
214.927,63.8764,0.017125
214.988,63.8888,0.017125
215.050,63.9012,0.017125
215.111,63.9134,0.017125
215.174,63.9259,0.016993
215.236,63.9383,0.016993
215.299,63.9509,0.016993
215.362,63.9635,0.017021
215.423,63.9758,0.017021
215.486,63.9883,0.017021
215.547,64.0006,0.017021
215.609,64.0130,0.017040
215.672,64.0256,0.017040
215.735,64.0383,0.017040
215.797,64.0507,0.017040
215.858,64.0628,0.016993
215.921,64.0753,0.016993
215.983,64.0877,0.016993
216.047,64.1005,0.016993
216.109,64.1128,0.016936
216.172,64.1253,0.016936
216.233,64.1379,0.016936
216.295,64.1503,0.016936
216.358,64.1628,0.016936
216.420,64.1751,0.016889
216.482,64.1876,0.016889
216.544,64.1999,0.016889
216.608,64.2128,0.016889
216.669,64.2249,0.016889
216.733,64.2378,0.016889
216.793,64.2497,0.016889
216.857,64.2625,0.016889
216.918,64.2748,0.016861
216.982,64.2875,0.016861
217.044,64.2998,0.016861
217.107,64.3125,0.016861
217.168,64.3249,0.016842
217.230,64.3372,0.016842
217.293,64.3497,0.016842
217.356,64.3623,0.016842
217.417,64.3744,0.016776
217.480,64.3873,0.016776
217.542,64.3994,0.016776
217.604,64.4118,0.016776
217.666,64.4243,0.016692
217.728,64.4369,0.016692
217.791,64.4493,0.016692
217.853,64.4617,0.016692
217.915,64.4742,0.016682
217.978,64.4867,0.016682
218.040,64.4991,0.016682
218.103,64.5118,0.016682
218.166,64.5243,0.016635
218.229,64.5370,0.016635
218.290,64.5491,0.016635
218.352,64.5615,0.016635
218.414,64.5740,0.016541
218.476,64.5863,0.016541
218.537,64.5985,0.016541
218.600,64.6111,0.016494
218.662,64.6237,0.016494
218.726,64.6363,0.016494
218.788,64.6488,0.016494
218.850,64.6611,0.016494
218.912,64.6735,0.016513
218.974,64.6859,0.016513
219.036,64.6983,0.016513
219.099,64.7108,0.016475
219.161,64.7234,0.016475
219.224,64.7360,0.016475
219.287,64.7484,0.016475
219.350,64.7611,0.016475
219.411,64.7733,0.016390
219.474,64.7858,0.016390
219.536,64.7984,0.016390
219.598,64.8108,0.016390
219.661,64.8232,0.016334
219.723,64.8356,0.016334
219.785,64.8480,0.016334
219.848,64.8607,0.016334
219.910,64.8731,0.016287
219.973,64.8857,0.016287
220.034,64.8980,0.016287
220.096,64.9104,0.016287
220.158,64.9228,0.016212
220.219,64.9351,0.016212
220.282,64.9475,0.016212
220.344,64.9599,0.016212
220.405,64.9720,0.016155
220.467,64.9844,0.016155
220.529,64.9968,0.016155
220.593,65.0096,0.016089
220.655,65.0221,0.016089
220.717,65.0345,0.016089
220.779,65.0469,0.016089
220.842,65.0593,0.016089
220.904,65.0717,0.015976
220.966,65.0843,0.015976
221.029,65.0968,0.015976
221.092,65.1095,0.015976
221.154,65.1220,0.015948
221.218,65.1349,0.015948
221.280,65.1470,0.015948
221.342,65.1594,0.015948
221.404,65.1718,0.015920
221.466,65.1842,0.015920
221.529,65.1968,0.015920
221.589,65.2088,0.015920
221.651,65.2213,0.015807
221.713,65.2337,0.015807
221.776,65.2461,0.015807
221.837,65.2584,0.015807
221.899,65.2709,0.015703
221.962,65.2833,0.015703
222.024,65.2959,0.015703
222.086,65.3083,0.015703
222.148,65.3208,0.015665
222.211,65.3332,0.015665
222.274,65.3457,0.015665
222.336,65.3582,0.015665
222.397,65.3704,0.015628
222.457,65.3826,0.015628
222.519,65.3948,0.015628
222.581,65.4072,0.015628
222.644,65.4199,0.015524
222.706,65.4323,0.015524
222.769,65.4447,0.015524
222.830,65.4570,0.015524
222.891,65.4692,0.015430
222.954,65.4819,0.015430
223.016,65.4943,0.015430
223.079,65.5068,0.015430
223.141,65.5193,0.015364
223.203,65.5318,0.015364
223.266,65.5444,0.015364
223.329,65.5571,0.015364
223.392,65.5696,0.015251
223.456,65.5824,0.015251
223.519,65.5949,0.015251
223.581,65.6074,0.015251
223.644,65.6198,0.015167
223.706,65.6322,0.015167
223.768,65.6446,0.015167
223.829,65.6570,0.015167
223.893,65.6697,0.015025
223.954,65.6817,0.015025
224.015,65.6940,0.015025
224.076,65.7063,0.015025
224.139,65.7188,0.015025
224.202,65.7314,0.014912
224.264,65.7440,0.014912
224.326,65.7562,0.014912
224.388,65.7685,0.014828
224.450,65.7809,0.014828
224.512,65.7933,0.014828
224.574,65.8057,0.014828
224.636,65.8182,0.014724
224.698,65.8308,0.014724
224.761,65.8432,0.014724
224.823,65.8557,0.014724
224.885,65.8681,0.014545
224.947,65.8805,0.014545
225.010,65.8930,0.014545
225.072,65.9054,0.014545
225.134,65.9177,0.014366
225.195,65.9301,0.014366
225.258,65.9429,0.014366
225.320,65.9549,0.014366
225.383,65.9676,0.014197
225.445,65.9801,0.014197
225.508,65.9927,0.014197
225.571,66.0053,0.014197
225.634,66.0179,0.013961
225.696,66.0302,0.013961
225.760,66.0430,0.013961
225.822,66.0555,0.013961
225.883,66.0677,0.013820
225.945,66.0802,0.013820
226.008,66.0927,0.013820
226.071,66.1054,0.013820
226.133,66.1176,0.013698
226.195,66.1300,0.013698
226.258,66.1426,0.013698
226.319,66.1550,0.013698
226.382,66.1676,0.013453
226.444,66.1800,0.013453
226.507,66.1925,0.013453
226.569,66.2050,0.013453
226.631,66.2172,0.013227
226.693,66.2298,0.013227
226.756,66.2423,0.013227
226.818,66.2548,0.013227
226.881,66.2673,0.013011
226.943,66.2797,0.013011
227.006,66.2923,0.013011
227.068,66.3048,0.013011
227.130,66.3171,0.012662
227.192,66.3295,0.012662
227.254,66.3417,0.012662
227.316,66.3540,0.012662
227.378,66.3652,0.012389
227.440,66.3733,0.012389
227.502,66.3783,0.012389
227.562,66.3806,0.012389
227.624,66.3807,0.012352
227.686,66.3807,0.012352
227.749,66.3807,0.012352
227.811,66.3807,0.012352
227.873,66.3807,0.012615
227.935,66.3807,0.012615
227.997,66.3807,0.012615
228.059,66.3807,0.012615
228.122,66.3807,0.013011
228.184,66.3807,0.013011
228.249,66.3807,0.013011
228.311,66.3807,0.013011
228.374,66.3807,0.013011
228.437,66.3807,0.013359
228.500,66.3807,0.013359
228.561,66.3807,0.013359
228.623,66.3807,0.013359
228.684,66.3807,0.013623
228.746,66.3807,0.013623
228.808,66.3807,0.013623
228.871,66.3807,0.013830
228.932,66.3807,0.013830
228.994,66.3807,0.013830
229.056,66.3807,0.013830
229.119,66.3807,0.013999
229.181,66.3807,0.013999
229.245,66.3807,0.013999
229.306,66.3807,0.013999
229.369,66.3807,0.014169
229.430,66.3807,0.014169
229.492,66.3807,0.014169
229.554,66.3807,0.014169
229.618,66.3807,0.014347
229.679,66.3807,0.014347
229.740,66.3807,0.014347
229.802,66.3807,0.014347
229.864,66.3807,0.014347
229.927,66.3807,0.014470
229.990,66.3807,0.014470
230.053,66.3807,0.014470
230.114,66.3807,0.014470
230.176,66.3807,0.014573
230.238,66.3807,0.014573
230.302,66.3807,0.014573
230.365,66.3807,0.014573
230.427,66.3807,0.014649
230.489,66.3807,0.014649
230.552,66.3807,0.014649
230.615,66.3807,0.014762
230.678,66.3807,0.014762
230.740,66.3807,0.014762
230.803,66.3807,0.014762
230.865,66.3807,0.014818
230.926,66.3807,0.014818
230.988,66.3807,0.014818
231.051,66.3807,0.014818
231.113,66.3807,0.014903
231.176,66.3807,0.014903
231.237,66.3807,0.014903
231.300,66.3807,0.014903
231.362,66.3807,0.015044
231.424,66.3807,0.015044
231.486,66.3807,0.015044
231.548,66.3807,0.015044
231.611,66.3807,0.015044
231.674,66.3807,0.015119
231.736,66.3807,0.015119
231.797,66.3807,0.015119
231.860,66.3807,0.015157
231.923,66.3807,0.015157
231.985,66.3807,0.015157
232.047,66.3807,0.015157
232.109,66.3807,0.015223
232.172,66.3795,0.015223
232.235,66.3750,0.015223
232.296,66.3679,0.015223
232.358,66.3580,0.015411
232.422,66.3453,0.015411
232.484,66.3331,0.015411
232.546,66.3205,0.015411
232.607,66.3084,0.015939
232.668,66.2960,0.015939
232.730,66.2837,0.015939
232.794,66.2709,0.015939
232.856,66.2585,0.015939
232.918,66.2461,0.016720
232.980,66.2337,0.016720
233.041,66.2213,0.016720
233.106,66.2084,0.016720
233.166,66.1966,0.017417
233.229,66.1840,0.017417
233.290,66.1716,0.017417
233.353,66.1589,0.017417
233.415,66.1468,0.018057
233.478,66.1340,0.018057
233.540,66.1217,0.018057
233.603,66.1091,0.018057
233.666,66.0964,0.018659
233.730,66.0837,0.018659
233.793,66.0711,0.018659
233.854,66.0586,0.019186
233.917,66.0464,0.019186
233.978,66.0340,0.019186
234.042,66.0214,0.019186
234.103,66.0091,0.019186
234.164,65.9968,0.019620
234.225,65.9847,0.019620
234.289,65.9720,0.019620
234.350,65.9596,0.019620
234.413,65.9469,0.019949
234.476,65.9346,0.019949
234.538,65.9221,0.019949
234.600,65.9097,0.020260
234.665,65.8968,0.020260
234.727,65.8842,0.020260
234.789,65.8719,0.020260
234.849,65.8598,0.020260
234.911,65.8474,0.020533
234.973,65.8350,0.020533
235.035,65.8227,0.020533
235.101,65.8094,0.020533
235.161,65.7975,0.020683
235.223,65.7851,0.020683
235.286,65.7726,0.020683
235.348,65.7601,0.020683
235.410,65.7477,0.020712
235.472,65.7354,0.020712
235.534,65.7230,0.020712
235.595,65.7108,0.020712
235.659,65.6978,0.020777
235.720,65.6858,0.020777
235.782,65.6734,0.020777
235.843,65.6611,0.020777
235.906,65.6486,0.020683
235.968,65.6362,0.020683
236.030,65.6237,0.020683
236.093,65.6111,0.020683
236.154,65.5988,0.020457
236.216,65.5866,0.020457
236.280,65.5738,0.020457
236.342,65.5611,0.020457
236.405,65.5487,0.020250
236.468,65.5362,0.020250
236.530,65.5238,0.020250
236.592,65.5114,0.020250
236.655,65.4989,0.020071
236.717,65.4862,0.020071
236.781,65.4735,0.020071
236.841,65.4616,0.020071
236.904,65.4490,0.019864
236.966,65.4364,0.019864
237.028,65.4242,0.019864
237.090,65.4117,0.019864
237.152,65.3993,0.019629
237.214,65.3870,0.019629
237.276,65.3745,0.019629
237.338,65.3620,0.019629
237.400,65.3498,0.019412
237.464,65.3370,0.019412
237.525,65.3248,0.019412
237.588,65.3122,0.019412
237.649,65.2997,0.019196
237.713,65.2873,0.019196
237.774,65.2750,0.019196
237.836,65.2626,0.019196
237.898,65.2502,0.019073
237.961,65.2376,0.019073
238.024,65.2250,0.019073
238.086,65.2125,0.019073
238.149,65.2001,0.018942
238.211,65.1876,0.018942
238.273,65.1751,0.018942
238.336,65.1627,0.018942
238.398,65.1501,0.018800
238.461,65.1376,0.018800
238.524,65.1251,0.018800
238.586,65.1126,0.018800
238.649,65.1000,0.018678
238.710,65.0879,0.018678
238.772,65.0752,0.018678
238.834,65.0629,0.018678
238.898,65.0503,0.018556
238.960,65.0378,0.018556
239.022,65.0254,0.018556
239.085,65.0128,0.018556
239.147,65.0003,0.018556
239.210,64.9875,0.018509
239.273,64.9751,0.018509
239.335,64.9626,0.018509
239.396,64.9503,0.018490
239.458,64.9381,0.018490
239.521,64.9254,0.018490
239.584,64.9130,0.018490
239.646,64.9007,0.018433
239.708,64.8881,0.018433
239.770,64.8758,0.018433
239.832,64.8633,0.018433
239.894,64.8507,0.018396
239.957,64.8383,0.018396
240.020,64.8257,0.018396
240.081,64.8134,0.018396
240.143,64.8011,0.018377
240.204,64.7890,0.018377
240.265,64.7768,0.018377
240.328,64.7642,0.018377
240.391,64.7518,0.018358
240.453,64.7391,0.018358
240.515,64.7267,0.018358
240.577,64.7144,0.018358
240.638,64.7022,0.018349
240.700,64.6898,0.018349
240.762,64.6772,0.018349
240.823,64.6651,0.018349
240.886,64.6527,0.018320
240.947,64.6403,0.018320
241.010,64.6279,0.018320
241.073,64.6152,0.018320
241.135,64.6028,0.018273
241.199,64.5900,0.018273
241.261,64.5775,0.018273
241.324,64.5651,0.018273
241.385,64.5527,0.018273
241.447,64.5402,0.018273
241.509,64.5278,0.018273
241.571,64.5154,0.018273
241.634,64.5029,0.018264
241.696,64.4903,0.018264
241.759,64.4778,0.018264
241.822,64.4654,0.018264
241.884,64.4530,0.018207
241.946,64.4406,0.018207
242.008,64.4282,0.018207
242.071,64.4157,0.018207
242.134,64.4029,0.018179
242.196,64.3905,0.018179
242.258,64.3782,0.018179
242.320,64.3657,0.018179
242.381,64.3537,0.018207
242.444,64.3410,0.018207
242.507,64.3284,0.018207
242.569,64.3160,0.018207
242.632,64.3034,0.018151
242.695,64.2909,0.018151
242.758,64.2781,0.018151
242.819,64.2660,0.018151
242.881,64.2536,0.018141
242.943,64.2412,0.018141
243.005,64.2286,0.018141
243.068,64.2160,0.018141
243.130,64.2037,0.018170
243.192,64.1912,0.018170
243.255,64.1787,0.018170
243.318,64.1661,0.018170
243.381,64.1535,0.018151
243.443,64.1411,0.018151
243.506,64.1287,0.018151
243.568,64.1163,0.018151
243.630,64.1039,0.018132
243.691,64.0916,0.018132
243.753,64.0792,0.018132
243.815,64.0669,0.018132
243.876,64.0544,0.018113
243.937,64.0424,0.018113
244.000,64.0298,0.018113
244.062,64.0174,0.018113
244.123,64.0051,0.018123
244.185,63.9927,0.018123
244.248,63.9802,0.018123
244.311,63.9677,0.018123
244.374,63.9550,0.018113
244.437,63.9425,0.018113
244.498,63.9302,0.018113
244.561,63.9176,0.018113
244.624,63.9049,0.018104
244.686,63.8927,0.018104
244.747,63.8804,0.018104
244.810,63.8679,0.018104
244.872,63.8553,0.018085
244.934,63.8429,0.018085
244.996,63.8306,0.018085
245.057,63.8185,0.018085
245.119,63.8060,0.018094
245.182,63.7933,0.018094
245.244,63.7809,0.018094
245.306,63.7685,0.018094
245.369,63.7559,0.018085
245.432,63.7432,0.018085
245.495,63.7307,0.018085
245.558,63.7182,0.018085
245.619,63.7059,0.018019
245.681,63.6936,0.018019
245.744,63.6810,0.018019
245.806,63.6687,0.018019
245.868,63.6563,0.018010
245.930,63.6437,0.018010
245.992,63.6312,0.018010
246.055,63.6188,0.018010
246.117,63.6064,0.018038
246.180,63.5939,0.018038
246.243,63.5812,0.018038
246.304,63.5690,0.018038
246.368,63.5563,0.018047
246.431,63.5437,0.018047
246.494,63.5311,0.018047
246.555,63.5187,0.018047
246.617,63.5064,0.018019
246.678,63.4943,0.018019
246.741,63.4815,0.018019
246.803,63.4691,0.018019
246.865,63.4568,0.018019
246.926,63.4446,0.018047
246.989,63.4320,0.018047
247.051,63.4196,0.018047
247.114,63.4071,0.018047
247.176,63.3945,0.018028
247.237,63.3824,0.018028
247.299,63.3698,0.018028
247.361,63.3576,0.018028
247.425,63.3446,0.018010
247.488,63.3323,0.018010
247.549,63.3199,0.018010
247.612,63.3074,0.017981
247.673,63.2951,0.017981
247.734,63.2830,0.017981
247.797,63.2704,0.017981
247.859,63.2578,0.017897
247.923,63.2454,0.017897
247.984,63.2330,0.017897
248.047,63.2203,0.017897
248.111,63.2077,0.017897
248.173,63.1953,0.017887
248.233,63.1832,0.017887
248.295,63.1710,0.017887
248.357,63.1583,0.017887
248.420,63.1458,0.017925
248.483,63.1330,0.017925
248.546,63.1206,0.017925
248.609,63.1081,0.017963
248.673,63.0952,0.017963
248.734,63.0832,0.017963
248.795,63.0708,0.017963
248.857,63.0584,0.017887
248.920,63.0460,0.017887
248.982,63.0334,0.017887
249.043,63.0211,0.017887
249.105,63.0089,0.017831
249.167,62.9963,0.017831
249.229,62.9839,0.017831
249.291,62.9715,0.017831
249.355,62.9589,0.017831
249.416,62.9466,0.017821
249.477,62.9343,0.017821
249.540,62.9218,0.017821
249.602,62.9094,0.017821
249.664,62.8970,0.017840
249.726,62.8845,0.017840
249.788,62.8721,0.017840
249.850,62.8597,0.017840
249.913,62.8473,0.017831
249.975,62.8346,0.017831
250.039,62.8220,0.017831
250.102,62.8093,0.017812
250.165,62.7969,0.017812
250.226,62.7846,0.017812
250.288,62.7724,0.017812
250.351,62.7597,0.017812
250.414,62.7471,0.017803
250.476,62.7347,0.017803
250.536,62.7226,0.017803
250.599,62.7101,0.017803
250.662,62.6974,0.017774
250.723,62.6850,0.017774
250.785,62.6728,0.017774
250.848,62.6601,0.017774
250.911,62.6476,0.017774
250.973,62.6352,0.017774
251.035,62.6228,0.017774
251.097,62.6104,0.017774
251.158,62.5981,0.017765
251.220,62.5857,0.017765
251.283,62.5732,0.017765
251.346,62.5606,0.017765
251.409,62.5480,0.017737
251.471,62.5355,0.017737
251.533,62.5232,0.017737
251.595,62.5110,0.017737
251.659,62.4981,0.017671
251.719,62.4860,0.017671
251.782,62.4735,0.017671
251.844,62.4609,0.017671
251.906,62.4485,0.017652
251.968,62.4364,0.017652
252.031,62.4236,0.017652
252.093,62.4112,0.017652
252.154,62.3989,0.017661
252.216,62.3865,0.017661
252.278,62.3742,0.017661
252.341,62.3617,0.017661
252.406,62.3494,0.017614
252.467,62.3405,0.017614
252.529,62.3344,0.017614
252.591,62.3312,0.017614
252.655,62.3307,0.017445
252.717,62.3307,0.017445
252.780,62.3307,0.017445
252.842,62.3315,0.017445
252.904,62.3349,0.017369
252.966,62.3411,0.017369
253.028,62.3506,0.017369
253.090,62.3625,0.017369
253.153,62.3750,0.017322
253.216,62.3876,0.017322
253.276,62.3998,0.017322
253.337,62.4119,0.017322
253.399,62.4243,0.017304
253.462,62.4369,0.017304
253.524,62.4491,0.017304
253.586,62.4617,0.017304
253.649,62.4742,0.017341
253.711,62.4866,0.017341
253.774,62.4991,0.017341
253.835,62.5115,0.017341
253.897,62.5239,0.017351
253.959,62.5361,0.017351
254.021,62.5486,0.017351
254.084,62.5613,0.017351
254.147,62.5738,0.017379
254.208,62.5859,0.017379
254.272,62.5988,0.017379
254.333,62.6110,0.017379
254.394,62.6233,0.017351
254.456,62.6357,0.017351
254.517,62.6481,0.017351
254.579,62.6604,0.017351
254.641,62.6729,0.017351
254.704,62.6854,0.017351
254.767,62.6979,0.017351
254.829,62.7103,0.017351
254.892,62.7229,0.017398
254.956,62.7356,0.017398
255.018,62.7480,0.017398
255.082,62.7609,0.017398
255.144,62.7732,0.017379
255.205,62.7855,0.017379
255.267,62.7978,0.017379
255.328,62.8101,0.017379
255.391,62.8225,0.017360
255.456,62.8356,0.017360
255.516,62.8476,0.017360
255.578,62.8600,0.017360
255.639,62.8723,0.017322
255.701,62.8847,0.017322
255.763,62.8971,0.017322
255.825,62.9095,0.017322
255.888,62.9222,0.017304
255.953,62.9352,0.017304
256.012,62.9470,0.017304
256.075,62.9596,0.017304
256.138,62.9723,0.017294
256.200,62.9846,0.017294
256.263,62.9972,0.017294
256.325,63.0095,0.017294
256.387,63.0219,0.017266
256.449,63.0343,0.017266
256.512,63.0468,0.017266
256.574,63.0593,0.017266
256.636,63.0716,0.017313
256.700,63.0844,0.017313
256.761,63.0968,0.017313
256.825,63.1096,0.017313
256.885,63.1216,0.017313
256.949,63.1343,0.017379
257.011,63.1467,0.017379
257.074,63.1593,0.017379
257.136,63.1715,0.017379
257.198,63.1840,0.017322
257.260,63.1964,0.017322
257.324,63.2093,0.017322
257.385,63.2216,0.017322
257.446,63.2338,0.017266
257.509,63.2462,0.017266
257.570,63.2585,0.017266
257.632,63.2708,0.017294
257.694,63.2833,0.017294
257.756,63.2959,0.017294
257.819,63.3083,0.017294
257.880,63.3205,0.017294
257.943,63.3331,0.017294
258.005,63.3455,0.017294
258.068,63.3582,0.017294
258.131,63.3705,0.017266
258.193,63.3830,0.017266
258.254,63.3952,0.017266
258.316,63.4076,0.017266
258.378,63.4200,0.017181
258.441,63.4325,0.017181
258.503,63.4451,0.017181
258.564,63.4571,0.017181
258.626,63.4696,0.017181
258.689,63.4821,0.017181
258.751,63.4947,0.017181
258.814,63.5073,0.017181
258.878,63.5200,0.017228
258.940,63.5326,0.017228
259.006,63.5458,0.017228
259.067,63.5577,0.017228
259.129,63.5703,0.017181
259.190,63.5825,0.017181
259.253,63.5951,0.017181
259.315,63.6077,0.017181
259.375,63.6196,0.017162
259.437,63.6318,0.017162
259.499,63.6442,0.017162
259.562,63.6568,0.017162
259.622,63.6688,0.017106
259.685,63.6814,0.017106
259.748,63.6941,0.017106
259.811,63.7066,0.017106
259.873,63.7190,0.017068
259.937,63.7318,0.017068
260.000,63.7447,0.017068
260.061,63.7567,0.017068
260.124,63.7691,0.017068
260.186,63.7815,0.017106
260.251,63.7946,0.017106
260.312,63.8067,0.017106
260.370,63.8186,0.017059
260.433,63.8310,0.017059
260.497,63.8439,0.017059
260.558,63.8562,0.017059
260.621,63.8687,0.017002
260.684,63.8812,0.017002
260.747,63.8938,0.017002
260.807,63.9059,0.017002
260.870,63.9185,0.017002
260.933,63.9310,0.017012
260.995,63.9434,0.017012
261.056,63.9557,0.017012
261.119,63.9683,0.017012
261.182,63.9808,0.017040
261.245,63.9935,0.017040
261.307,64.0059,0.017040
261.369,64.0182,0.016983
261.432,64.0308,0.016983
261.494,64.0432,0.016983
261.556,64.0556,0.016983
261.619,64.0683,0.016918
261.681,64.0807,0.016918
261.743,64.0930,0.016918
261.805,64.1055,0.016918
261.868,64.1179,0.016918
261.930,64.1305,0.016918
261.993,64.1431,0.016918
262.055,64.1555,0.016918
262.118,64.1680,0.016899
262.181,64.1805,0.016899
262.242,64.1929,0.016899
262.305,64.2053,0.016899
262.367,64.2177,0.016852
262.429,64.2302,0.016852
262.491,64.2427,0.016852
262.553,64.2551,0.016852
262.616,64.2677,0.016795
262.677,64.2799,0.016795
262.740,64.2924,0.016795
262.803,64.3049,0.016795
262.866,64.3174,0.016767
262.927,64.3297,0.016767
262.989,64.3421,0.016767
263.051,64.3545,0.016767
263.114,64.3670,0.016710
263.176,64.3796,0.016710
263.239,64.3922,0.016710
263.301,64.4046,0.016710
263.363,64.4172,0.016645
263.426,64.4296,0.016645
263.488,64.4418,0.016645
263.550,64.4544,0.016645
263.613,64.4669,0.016598
263.675,64.4794,0.016598
263.738,64.4921,0.016598
263.801,64.5046,0.016598
263.863,64.5169,0.016598
263.924,64.5293,0.016616
263.987,64.5419,0.016616
264.049,64.5543,0.016616
264.111,64.5668,0.016598
264.174,64.5793,0.016598
264.237,64.5919,0.016598
264.299,64.6043,0.016598
264.362,64.6167,0.016513
264.423,64.6292,0.016513
264.487,64.6419,0.016513
264.548,64.6539,0.016513
264.610,64.6663,0.016513
264.673,64.6790,0.016475
264.736,64.6915,0.016475
264.802,64.7048,0.016475
264.862,64.7168,0.016475
264.924,64.7292,0.016381
264.984,64.7412,0.016381
265.047,64.7539,0.016381
265.110,64.7664,0.016381
265.172,64.7789,0.016306
265.232,64.7908,0.016306
265.294,64.8032,0.016306
265.356,64.8155,0.016306
265.417,64.8277,0.016334
265.479,64.8401,0.016334
265.541,64.8526,0.016334
265.604,64.8651,0.016334
265.667,64.8777,0.016277
265.727,64.8898,0.016277
265.790,64.9025,0.016277
265.853,64.9150,0.016277
265.915,64.9274,0.016212
265.976,64.9395,0.016212
266.038,64.9521,0.016212
266.101,64.9647,0.016212
266.160,64.9764,0.016155
266.223,64.9890,0.016155
266.289,65.0024,0.016155
266.350,65.0145,0.016155
266.413,65.0270,0.016061
266.475,65.0393,0.016061
266.538,65.0519,0.016061
266.601,65.0646,0.016061
266.663,65.0771,0.016004
266.725,65.0894,0.016004
266.787,65.1018,0.016004
266.851,65.1145,0.016004
266.912,65.1269,0.015891
266.978,65.1398,0.015891
267.038,65.1519,0.015891
267.100,65.1644,0.015826
267.162,65.1767,0.015826
267.223,65.1890,0.015826
267.286,65.2016,0.015826
267.347,65.2138,0.015826
267.410,65.2263,0.015778
267.473,65.2389,0.015778
267.535,65.2513,0.015778
267.597,65.2639,0.015694
267.659,65.2763,0.015694
267.722,65.2887,0.015694
267.784,65.3012,0.015694
267.845,65.3133,0.015694
267.908,65.3260,0.015628
267.970,65.3383,0.015628
268.033,65.3510,0.015628
268.094,65.3632,0.015628
268.160,65.3764,0.015543
268.220,65.3884,0.015543
268.282,65.4009,0.015543
268.348,65.4139,0.015543
268.409,65.4262,0.015505
268.468,65.4379,0.015505
268.530,65.4504,0.015505
268.595,65.4634,0.015505
268.655,65.4754,0.015505
268.716,65.4875,0.015440
268.777,65.4998,0.015440
268.838,65.5122,0.015440
268.901,65.5247,0.015280
268.964,65.5372,0.015280
269.026,65.5497,0.015280
269.088,65.5620,0.015280
269.150,65.5744,0.015280
269.212,65.5868,0.015176
269.275,65.5992,0.015176
269.337,65.6117,0.015176
269.399,65.6240,0.015119
269.462,65.6367,0.015119
269.523,65.6490,0.015119
269.585,65.6614,0.015119
269.647,65.6736,0.015016
269.709,65.6860,0.015016
269.772,65.6987,0.015016
269.833,65.7110,0.015016
269.896,65.7235,0.014912
269.958,65.7359,0.014912
270.021,65.7485,0.014912
270.084,65.7611,0.014912
270.146,65.7736,0.014799
270.207,65.7858,0.014799
270.269,65.7982,0.014799
270.332,65.8108,0.014799
270.394,65.8233,0.014639
270.457,65.8359,0.014639
270.518,65.8480,0.014639
270.581,65.8607,0.014639
270.643,65.8731,0.014526
270.707,65.8857,0.014526
270.768,65.8981,0.014526
270.830,65.9103,0.014526
270.892,65.9228,0.014395
270.957,65.9358,0.014395
271.017,65.9479,0.014395
271.080,65.9603,0.014395
271.142,65.9728,0.014197
271.204,65.9852,0.014197
271.266,65.9977,0.014197
271.329,66.0100,0.014197
271.394,66.0231,0.013980
271.454,66.0352,0.013980
271.516,66.0474,0.013980
271.578,66.0600,0.013980
271.641,66.0726,0.013811
271.703,66.0851,0.013811
271.766,66.0975,0.013811
271.828,66.1098,0.013811
271.890,66.1222,0.013651
271.950,66.1344,0.013651
272.011,66.1465,0.013651
272.072,66.1586,0.013651
272.132,66.1710,0.013425
272.192,66.1828,0.013425
272.252,66.1947,0.013425
272.312,66.2067,0.013425
272.373,66.2188,0.013227
272.432,66.2307,0.013227
272.494,66.2430,0.013227
272.556,66.2554,0.013227
272.618,66.2678,0.013001
272.681,66.2805,0.013001
272.743,66.2928,0.013001
272.805,66.3053,0.013001
272.866,66.3158,0.012775
272.931,66.3240,0.012775
272.992,66.3287,0.012775
273.052,66.3307,0.012775
273.115,66.3307,0.012794
273.176,66.3307,0.012794
273.238,66.3307,0.012794
273.300,66.3307,0.012794
273.362,66.3307,0.013020
273.424,66.3307,0.013020
273.489,66.3307,0.013020
