Elapsed Time (s),Position (mm),Force (N)
-0.013,64.8808,0.016051
0.049,64.8808,0.016051
0.112,64.8808,0.016051
0.174,64.8808,0.016051
0.236,64.8808,0.016183
0.298,64.8808,0.016183
0.361,64.8808,0.016183
0.425,64.8808,0.016183
0.488,64.8808,0.016221
0.552,64.8808,0.016221
0.613,64.8808,0.016221
0.675,64.8808,0.016221
0.739,64.8808,0.016249
0.800,64.8808,0.016249
0.863,64.8808,0.016249
0.926,64.8808,0.016249
0.990,64.8808,0.016315
1.051,64.8808,0.016315
1.114,64.8808,0.016315
1.176,64.8808,0.016315
1.237,64.8808,0.016324
1.300,64.8808,0.016324
1.364,64.8808,0.016324
1.426,64.8808,0.016324
1.490,64.8808,0.016343
1.554,64.8808,0.016343
1.614,64.8808,0.016343
1.677,64.8808,0.016343
1.740,64.8808,0.016343
1.801,64.8808,0.016372
1.866,64.8808,0.016372
1.925,64.8808,0.016372
1.986,64.8808,0.016390
2.050,64.8808,0.016390
2.115,64.8808,0.016390
2.175,64.8808,0.016390
2.236,64.8808,0.016419
2.299,64.8808,0.016419
2.361,64.8808,0.016419
2.423,64.8808,0.016419
2.487,64.8808,0.016419
2.549,64.8808,0.016390
2.613,64.8808,0.016390
2.676,64.8808,0.016390
2.739,64.8808,0.016437
2.802,64.8808,0.016437
2.864,64.8808,0.016437
2.926,64.8808,0.016437
2.990,64.8808,0.016437
3.053,64.8808,0.016428
3.115,64.8808,0.016428
3.178,64.8808,0.016428
3.240,64.8808,0.016390
3.304,64.8808,0.016390
3.366,64.8808,0.016390
3.428,64.8808,0.016390
3.491,64.8808,0.016390
3.554,64.8808,0.016390
3.616,64.8808,0.016390
3.679,64.8808,0.016390
3.740,64.8808,0.016372
3.803,64.8808,0.016372
3.865,64.8808,0.016372
3.926,64.8808,0.016372
3.988,64.8808,0.016362
4.051,64.8808,0.016362
4.114,64.8806,0.016362
4.178,64.8783,0.016362
4.240,64.8728,0.016362
4.302,64.8646,0.016372
4.364,64.8535,0.016372
4.427,64.8409,0.016372
4.490,64.8283,0.016372
4.552,64.8160,0.016579
4.615,64.8035,0.016579
4.678,64.7908,0.016579
4.739,64.7786,0.016814
4.802,64.7659,0.016814
4.863,64.7536,0.016814
4.925,64.7414,0.016814
4.988,64.7288,0.016814
5.050,64.7163,0.016852
5.111,64.7041,0.016852
5.173,64.6917,0.016852
5.234,64.6796,0.016889
5.295,64.6673,0.016889
5.358,64.6548,0.016889
5.420,64.6423,0.016889
5.482,64.6299,0.016889
5.544,64.6175,0.016918
5.606,64.6049,0.016918
5.668,64.5926,0.016918
5.732,64.5800,0.016918
5.794,64.5676,0.016936
5.856,64.5553,0.016936
5.918,64.5427,0.016936
5.980,64.5303,0.016936
6.045,64.5174,0.016955
6.104,64.5056,0.016955
6.165,64.4933,0.016955
6.228,64.4808,0.017002
6.291,64.4681,0.017002
6.355,64.4554,0.017002
6.416,64.4432,0.017002
6.478,64.4308,0.017087
6.541,64.4181,0.017087
6.605,64.4054,0.017087
6.665,64.3932,0.017087
6.728,64.3808,0.017125
6.790,64.3683,0.017125
6.852,64.3560,0.017125
6.913,64.3437,0.017125
6.977,64.3311,0.017115
7.040,64.3184,0.017115
7.102,64.3062,0.017115
7.164,64.2936,0.017115
7.226,64.2811,0.017115
7.289,64.2687,0.017106
7.351,64.2562,0.017106
7.413,64.2436,0.017106
7.475,64.2314,0.017125
7.537,64.2190,0.017125
7.598,64.2068,0.017125
7.660,64.1943,0.017125
7.723,64.1818,0.017125
7.787,64.1691,0.017125
7.849,64.1566,0.017125
7.910,64.1444,0.017125
7.972,64.1320,0.017181
8.035,64.1194,0.017181
8.099,64.1065,0.017181
8.163,64.0937,0.017181
8.223,64.0818,0.017181
8.283,64.0696,0.017228
8.346,64.0571,0.017228
8.411,64.0440,0.017228
8.470,64.0324,0.017228
8.532,64.0199,0.017191
8.595,64.0074,0.017191
8.657,63.9951,0.017191
8.721,63.9821,0.017191
8.780,63.9703,0.017172
8.845,63.9574,0.017172
8.907,63.9449,0.017172
8.968,63.9326,0.017172
9.030,63.9202,0.017219
9.096,63.9069,0.017219
9.158,63.8945,0.017219
9.218,63.8826,0.017219
9.282,63.8701,0.017209
9.346,63.8573,0.017209
9.403,63.8458,0.017209
9.466,63.8333,0.017162
9.528,63.8208,0.017162
9.591,63.8083,0.017162
9.653,63.7958,0.017162
9.716,63.7833,0.017162
9.780,63.7702,0.017162
9.843,63.7577,0.017162
9.902,63.7459,0.017162
9.964,63.7335,0.017162
10.028,63.7209,0.017200
10.089,63.7085,0.017200
10.152,63.6960,0.017200
10.213,63.6838,0.017200
10.275,63.6714,0.017247
10.338,63.6586,0.017247
10.400,63.6465,0.017247
10.462,63.6338,0.017247
10.523,63.6218,0.017275
10.584,63.6095,0.017275
10.647,63.5969,0.017275
10.709,63.5846,0.017275
10.769,63.5726,0.017322
10.831,63.5603,0.017322
10.894,63.5475,0.017322
10.957,63.5350,0.017322
11.018,63.5227,0.017219
11.079,63.5105,0.017219
11.141,63.4981,0.017219
11.205,63.4852,0.017219
11.267,63.4730,0.017191
11.329,63.4607,0.017191
11.393,63.4478,0.017191
11.454,63.4355,0.017191
11.516,63.4231,0.017238
11.578,63.4108,0.017238
11.641,63.3983,0.017238
11.704,63.3857,0.017238
11.766,63.3734,0.017219
11.829,63.3607,0.017219
11.891,63.3482,0.017219
11.954,63.3357,0.017219
12.017,63.3230,0.017228
12.079,63.3106,0.017228
12.141,63.2982,0.017228
12.204,63.2857,0.017228
12.265,63.2734,0.017209
12.327,63.2609,0.017209
12.389,63.2485,0.017209
12.452,63.2360,0.017209
12.515,63.2233,0.017172
12.577,63.2109,0.017172
12.639,63.1984,0.017172
12.702,63.1862,0.017172
12.763,63.1738,0.017134
12.825,63.1614,0.017134
12.887,63.1490,0.017134
12.949,63.1366,0.017134
13.011,63.1242,0.017153
13.073,63.1118,0.017153
13.134,63.0997,0.017153
13.197,63.0871,0.017153
13.259,63.0745,0.017191
13.323,63.0618,0.017191
13.385,63.0494,0.017191
13.450,63.0364,0.017191
13.511,63.0242,0.017200
13.572,63.0120,0.017200
13.638,62.9988,0.017200
13.697,62.9869,0.017200
13.760,62.9743,0.017191
13.823,62.9620,0.017191
13.886,62.9492,0.017191
13.946,62.9373,0.017191
14.009,62.9245,0.017153
14.072,62.9121,0.017153
14.133,62.8999,0.017153
14.197,62.8871,0.017153
14.259,62.8747,0.017172
14.321,62.8623,0.017172
14.384,62.8496,0.017172
14.447,62.8370,0.017172
14.506,62.8252,0.017106
14.568,62.8127,0.017106
14.631,62.8001,0.017106
14.695,62.7875,0.017106
14.759,62.7746,0.017059
14.820,62.7624,0.017059
14.881,62.7502,0.017059
14.944,62.7376,0.017059
15.005,62.7252,0.017059
15.068,62.7126,0.017059
15.131,62.7003,0.017059
15.194,62.6876,0.017059
15.256,62.6752,0.017049
15.317,62.6630,0.017049
15.381,62.6503,0.017049
15.443,62.6378,0.017049
15.505,62.6254,0.017021
15.567,62.6130,0.017021
15.629,62.6007,0.017021
15.691,62.5882,0.017021
15.753,62.5758,0.016974
15.814,62.5635,0.016974
15.878,62.5508,0.016974
15.939,62.5386,0.016974
16.003,62.5259,0.016993
16.065,62.5134,0.016993
16.126,62.5011,0.016993
16.189,62.4886,0.016993
16.250,62.4764,0.016965
16.313,62.4638,0.016965
16.375,62.4515,0.016965
16.437,62.4390,0.016965
16.500,62.4265,0.016908
16.563,62.4139,0.016908
16.625,62.4014,0.016908
16.687,62.3890,0.016908
16.749,62.3767,0.016871
16.813,62.3638,0.016871
16.876,62.3510,0.016871
16.938,62.3386,0.016871
17.000,62.3266,0.016871
17.062,62.3140,0.016899
17.124,62.3017,0.016899
17.185,62.2894,0.016899
17.247,62.2770,0.016889
17.310,62.2645,0.016889
17.373,62.2518,0.016889
17.434,62.2398,0.016889
17.495,62.2274,0.016823
17.557,62.2150,0.016823
17.618,62.2028,0.016823
17.681,62.1902,0.016823
17.744,62.1778,0.016786
17.805,62.1655,0.016786
17.868,62.1530,0.016786
17.930,62.1405,0.016786
17.990,62.1284,0.016814
18.053,62.1159,0.016814
18.114,62.1036,0.016814
18.178,62.0910,0.016814
18.239,62.0786,0.016814
18.303,62.0659,0.016814
18.365,62.0535,0.016814
18.427,62.0410,0.016814
18.489,62.0287,0.016758
18.552,62.0161,0.016758
18.613,62.0038,0.016758
18.675,61.9916,0.016758
18.737,61.9790,0.016758
18.798,61.9668,0.016758
18.860,61.9544,0.016758
18.923,61.9419,0.016758
18.986,61.9292,0.016786
19.048,61.9167,0.016786
19.109,61.9046,0.016786
19.172,61.8920,0.016786
19.234,61.8795,0.016786
19.297,61.8670,0.016710
19.360,61.8546,0.016710
19.421,61.8423,0.016710
19.483,61.8299,0.016710
19.547,61.8171,0.016673
19.609,61.8046,0.016673
19.670,61.7924,0.016673
19.733,61.7798,0.016673
19.795,61.7676,0.016673
19.857,61.7550,0.016673
19.920,61.7426,0.016673
19.981,61.7302,0.016654
20.044,61.7177,0.016654
20.106,61.7054,0.016654
20.169,61.6926,0.016654
20.229,61.6807,0.016654
20.292,61.6680,0.016598
20.354,61.6556,0.016598
20.418,61.6430,0.016598
20.479,61.6307,0.016598
20.541,61.6183,0.016579
20.602,61.6062,0.016579
20.665,61.5935,0.016579
20.727,61.5810,0.016579
20.790,61.5685,0.016607
20.852,61.5561,0.016607
20.914,61.5437,0.016607
20.976,61.5311,0.016607
21.039,61.5187,0.016494
21.101,61.5063,0.016494
21.163,61.4938,0.016494
21.225,61.4815,0.016494
21.288,61.4687,0.016428
21.351,61.4563,0.016428
21.413,61.4439,0.016428
21.476,61.4313,0.016428
21.538,61.4189,0.016447
21.601,61.4062,0.016447
21.664,61.3938,0.016447
21.726,61.3813,0.016475
21.788,61.3689,0.016475
21.850,61.3565,0.016475
21.913,61.3439,0.016475
21.974,61.3316,0.016475
22.037,61.3190,0.016475
22.099,61.3066,0.016475
22.161,61.2944,0.016475
22.223,61.2817,0.016419
22.286,61.2694,0.016419
22.348,61.2569,0.016419
22.409,61.2446,0.016419
22.472,61.2321,0.016419
22.537,61.2188,0.016409
22.598,61.2071,0.016409
22.660,61.1944,0.016409
22.723,61.1819,0.016409
22.786,61.1694,0.016428
22.848,61.1571,0.016428
22.911,61.1443,0.016428
22.973,61.1319,0.016428
23.035,61.1195,0.016409
23.096,61.1073,0.016409
23.158,61.0948,0.016409
23.222,61.0819,0.016409
23.284,61.0698,0.016362
23.347,61.0572,0.016362
23.409,61.0447,0.016362
23.469,61.0327,0.016362
23.531,61.0203,0.016343
23.593,61.0079,0.016343
23.655,60.9956,0.016343
23.716,60.9832,0.016343
23.780,60.9705,0.016353
23.842,60.9580,0.016353
23.905,60.9455,0.016353
23.966,60.9331,0.016353
24.029,60.9207,0.016334
24.092,60.9082,0.016334
24.153,60.8958,0.016334
24.216,60.8834,0.016334
24.278,60.8710,0.016287
24.341,60.8583,0.016287
24.402,60.8471,0.016287
24.465,60.8388,0.016287
24.529,60.8332,0.016193
24.591,60.8309,0.016193
24.653,60.8308,0.016193
24.715,60.8308,0.016108
24.777,60.8308,0.016108
24.840,60.8308,0.016108
24.902,60.8308,0.016108
24.965,60.8308,0.016108
25.027,60.8308,0.016127
25.090,60.8308,0.016127
25.151,60.8319,0.016127
25.215,60.8360,0.016117
25.277,60.8430,0.016117
25.341,60.8533,0.016117
25.401,60.8650,0.016117
25.466,60.8781,0.016117
25.527,60.8903,0.016023
25.588,60.9023,0.016023
25.649,60.9147,0.016023
25.712,60.9271,0.016023
25.776,60.9400,0.015948
25.836,60.9519,0.015948
25.898,60.9643,0.015948
25.960,60.9769,0.015948
26.021,60.9891,0.015976
26.084,61.0015,0.015976
26.145,61.0138,0.015976
26.208,61.0266,0.015976
26.273,61.0394,0.016023
26.334,61.0518,0.016023
26.397,61.0643,0.016023
26.458,61.0763,0.016023
26.520,61.0887,0.015967
26.580,61.1009,0.015967
26.641,61.1130,0.015967
26.705,61.1257,0.015882
26.767,61.1382,0.015882
26.829,61.1505,0.015882
26.891,61.1629,0.015882
26.954,61.1756,0.015882
27.016,61.1881,0.015873
27.077,61.2002,0.015873
27.139,61.2128,0.015873
27.202,61.2250,0.015873
27.264,61.2376,0.015939
27.326,61.2500,0.015939
27.389,61.2626,0.015939
27.452,61.2751,0.015939
27.514,61.2877,0.015929
27.576,61.2999,0.015929
27.639,61.3126,0.015929
27.700,61.3248,0.015929
27.762,61.3370,0.015863
27.824,61.3498,0.015863
27.888,61.3625,0.015863
27.949,61.3746,0.015863
28.012,61.3874,0.015835
28.076,61.4002,0.015835
28.139,61.4127,0.015835
28.202,61.4253,0.015835
28.264,61.4379,0.015835
28.325,61.4499,0.015863
28.387,61.4623,0.015863
28.450,61.4748,0.015863
28.513,61.4873,0.015807
28.576,61.4999,0.015807
28.637,61.5122,0.015807
28.699,61.5247,0.015807
28.762,61.5373,0.015750
28.825,61.5497,0.015750
28.886,61.5620,0.015750
28.949,61.5745,0.015750
29.011,61.5869,0.015788
29.073,61.5995,0.015788
29.135,61.6119,0.015788
29.198,61.6243,0.015788
29.259,61.6367,0.015760
29.323,61.6493,0.015760
29.387,61.6621,0.015760
29.448,61.6744,0.015760
29.510,61.6869,0.015741
29.572,61.6992,0.015741
29.634,61.7117,0.015741
29.696,61.7241,0.015741
29.760,61.7370,0.015778
29.822,61.7493,0.015778
29.883,61.7617,0.015778
29.946,61.7741,0.015778
30.008,61.7864,0.015826
30.070,61.7988,0.015826
30.133,61.8114,0.015826
30.197,61.8242,0.015826
30.258,61.8366,0.015920
30.322,61.8491,0.015920
30.384,61.8615,0.015920
30.445,61.8737,0.015920
30.506,61.8861,0.015910
30.569,61.8985,0.015910
30.631,61.9109,0.015910
30.694,61.9235,0.015910
30.756,61.9361,0.015844
30.818,61.9485,0.015844
30.880,61.9607,0.015844
30.942,61.9733,0.015844
31.003,61.9857,0.015816
31.066,61.9980,0.015816
31.129,62.0105,0.015816
31.191,62.0229,0.015816
31.253,62.0354,0.015844
31.316,62.0479,0.015844
31.378,62.0602,0.015844
31.441,62.0731,0.015844
31.504,62.0855,0.015835
31.566,62.0979,0.015835
31.629,62.1106,0.015835
31.691,62.1230,0.015835
31.754,62.1355,0.015826
31.816,62.1479,0.015826
31.877,62.1602,0.015826
31.939,62.1726,0.015826
32.003,62.1852,0.015835
32.065,62.1978,0.015835
32.127,62.2103,0.015835
32.190,62.2227,0.015835
32.252,62.2351,0.015844
32.313,62.2472,0.015844
32.375,62.2598,0.015844
32.437,62.2722,0.015844
32.500,62.2848,0.015844
32.563,62.2973,0.015844
32.627,62.3104,0.015844
32.688,62.3224,0.015844
32.752,62.3350,0.015863
32.813,62.3473,0.015863
32.875,62.3599,0.015863
32.938,62.3723,0.015863
33.001,62.3849,0.015891
33.062,62.3972,0.015891
33.122,62.4092,0.015891
33.183,62.4215,0.015891
33.245,62.4338,0.015835
33.307,62.4460,0.015835
33.369,62.4587,0.015835
33.434,62.4717,0.015835
33.494,62.4838,0.015873
33.559,62.4965,0.015873
33.618,62.5086,0.015873
33.681,62.5210,0.015873
33.743,62.5334,0.015929
33.805,62.5458,0.015929
33.866,62.5580,0.015929
33.927,62.5702,0.015929
33.991,62.5828,0.015957
34.053,62.5954,0.015957
34.115,62.6078,0.015957
34.178,62.6203,0.015957
34.240,62.6327,0.015976
34.303,62.6452,0.015976
34.366,62.6580,0.015976
34.429,62.6705,0.015976
34.492,62.6832,0.015967
34.553,62.6955,0.015967
34.615,62.7077,0.015967
34.676,62.7199,0.015967
34.738,62.7323,0.015967
34.800,62.7448,0.015967
34.863,62.7575,0.015967
34.926,62.7700,0.015967
34.987,62.7823,0.015967
35.050,62.7948,0.015967
35.113,62.8075,0.015967
35.174,62.8195,0.015967
35.236,62.8319,0.015967
35.298,62.8443,0.016014
35.360,62.8567,0.016014
35.422,62.8691,0.016014
35.484,62.8815,0.016042
35.547,62.8941,0.016042
35.610,62.9068,0.016042
35.673,62.9193,0.016042
35.736,62.9320,0.016061
35.800,62.9446,0.016061
35.861,62.9571,0.016061
35.923,62.9693,0.016061
35.984,62.9817,0.016136
36.047,62.9941,0.016136
36.108,63.0064,0.016136
36.171,63.0189,0.016136
36.233,63.0313,0.016136
36.295,63.0438,0.016193
36.357,63.0561,0.016193
36.419,63.0686,0.016193
36.482,63.0812,0.016193
36.544,63.0936,0.016221
36.606,63.1060,0.016221
36.668,63.1185,0.016221
36.730,63.1309,0.016221
36.793,63.1433,0.016268
36.856,63.1560,0.016268
36.919,63.1685,0.016268
36.982,63.1811,0.016268
37.044,63.1935,0.016315
37.106,63.2059,0.016315
37.169,63.2186,0.016315
37.232,63.2311,0.016343
37.294,63.2435,0.016343
37.355,63.2558,0.016343
37.417,63.2682,0.016343
37.479,63.2807,0.016409
37.541,63.2929,0.016409
37.604,63.3055,0.016409
37.667,63.3182,0.016409
37.729,63.3306,0.016447
37.790,63.3427,0.016447
37.853,63.3554,0.016447
37.916,63.3682,0.016447
37.980,63.3808,0.016447
38.041,63.3931,0.016447
38.102,63.4052,0.016447
38.165,63.4179,0.016447
38.227,63.4303,0.016494
38.290,63.4426,0.016494
38.352,63.4550,0.016494
38.413,63.4674,0.016494
38.475,63.4798,0.016494
38.537,63.4922,0.016541
38.599,63.5046,0.016541
38.661,63.5169,0.016541
38.724,63.5295,0.016541
38.787,63.5422,0.016550
38.850,63.5547,0.016550
38.913,63.5675,0.016550
38.974,63.5795,0.016550
39.037,63.5920,0.016541
39.098,63.6044,0.016541
39.160,63.6168,0.016541
39.222,63.6292,0.016541
39.285,63.6418,0.016532
39.346,63.6540,0.016532
39.409,63.6664,0.016532
39.472,63.6791,0.016541
39.536,63.6920,0.016541
39.596,63.7039,0.016541
39.659,63.7165,0.016541
39.722,63.7291,0.016532
39.784,63.7413,0.016532
39.845,63.7538,0.016532
39.907,63.7662,0.016532
39.970,63.7788,0.016532
40.031,63.7911,0.016532
40.093,63.8035,0.016532
40.155,63.8158,0.016532
40.217,63.8282,0.016532
40.279,63.8404,0.016588
40.340,63.8527,0.016588
40.403,63.8654,0.016588
40.466,63.8779,0.016588
40.528,63.8903,0.016532
40.590,63.9027,0.016532
40.651,63.9150,0.016532
40.713,63.9274,0.016485
40.774,63.9397,0.016485
40.837,63.9521,0.016485
40.899,63.9643,0.016485
40.961,63.9769,0.016466
41.024,63.9895,0.016466
41.086,64.0018,0.016466
41.148,64.0143,0.016466
41.210,64.0267,0.016466
41.273,64.0394,0.016503
41.334,64.0515,0.016503
41.396,64.0639,0.016503
41.458,64.0765,0.016503
41.521,64.0889,0.016503
41.583,64.1013,0.016503
41.646,64.1138,0.016503
41.709,64.1263,0.016503
41.771,64.1390,0.016447
41.833,64.1514,0.016447
41.896,64.1639,0.016447
41.959,64.1764,0.016447
42.020,64.1887,0.016428
42.081,64.2010,0.016428
42.143,64.2131,0.016428
42.204,64.2255,0.016428
42.267,64.2382,0.016381
42.329,64.2506,0.016381
42.391,64.2629,0.016381
42.454,64.2754,0.016381
42.516,64.2879,0.016390
42.577,64.3003,0.016390
42.638,64.3122,0.016390
42.701,64.3249,0.016390
42.763,64.3374,0.016343
42.827,64.3502,0.016343
42.887,64.3621,0.016343
42.949,64.3745,0.016343
43.012,64.3871,0.016259
43.074,64.3994,0.016259
43.138,64.4124,0.016259
43.199,64.4246,0.016259
43.260,64.4366,0.016296
43.322,64.4490,0.016296
43.385,64.4617,0.016296
43.447,64.4742,0.016296
43.510,64.4866,0.016296
43.571,64.4989,0.016296
43.634,64.5114,0.016296
43.696,64.5239,0.016296
43.758,64.5363,0.016249
43.820,64.5487,0.016249
43.882,64.5611,0.016249
43.944,64.5735,0.016249
44.006,64.5861,0.016193
44.068,64.5985,0.016193
44.132,64.6112,0.016193
44.194,64.6235,0.016193
44.258,64.6366,0.016202
44.321,64.6491,0.016202
44.382,64.6611,0.016202
44.444,64.6735,0.016202
44.506,64.6859,0.016108
44.567,64.6981,0.016108
44.630,64.7107,0.016108
44.692,64.7231,0.016108
44.755,64.7356,0.016108
44.817,64.7482,0.016061
44.879,64.7606,0.016061
44.941,64.7730,0.016061
45.003,64.7854,0.016070
45.065,64.7978,0.016070
45.128,64.8099,0.016070
45.191,64.8197,0.016070
45.254,64.8263,0.016014
45.315,64.8299,0.016014
45.379,64.8308,0.016014
45.441,64.8308,0.016014
45.502,64.8308,0.016099
45.566,64.8308,0.016099
45.628,64.8308,0.016099
45.691,64.8308,0.016099
45.752,64.8308,0.016221
45.815,64.8308,0.016221
45.877,64.8308,0.016221
45.939,64.8308,0.016221
46.002,64.8308,0.016277
46.065,64.8308,0.016277
46.125,64.8308,0.016277
46.189,64.8308,0.016277
46.251,64.8308,0.016334
46.313,64.8308,0.016334
46.376,64.8308,0.016334
46.440,64.8308,0.016334
46.504,64.8308,0.016362
46.568,64.8308,0.016362
46.630,64.8308,0.016362
46.694,64.8308,0.016362
46.756,64.8308,0.016334
46.819,64.8308,0.016334
46.883,64.8308,0.016334
46.945,64.8308,0.016334
47.008,64.8308,0.016334
47.071,64.8308,0.016334
47.133,64.8308,0.016334
47.195,64.8308,0.016334
47.258,64.8308,0.016372
47.321,64.8308,0.016372
47.384,64.8308,0.016372
47.447,64.8308,0.016372
47.507,64.8308,0.016419
47.568,64.8308,0.016419
47.631,64.8308,0.016419
47.693,64.8308,0.016419
47.755,64.8308,0.016400
47.819,64.8308,0.016400
47.880,64.8308,0.016400
47.943,64.8308,0.016400
48.005,64.8308,0.016353
48.067,64.8308,0.016353
48.129,64.8308,0.016353
48.192,64.8308,0.016353
48.253,64.8308,0.016353
48.315,64.8308,0.016353
48.378,64.8308,0.016353
48.440,64.8308,0.016353
48.502,64.8308,0.016353
48.564,64.8308,0.016353
48.629,64.8308,0.016353
48.689,64.8308,0.016353
48.752,64.8308,0.016409
48.814,64.8308,0.016409
48.876,64.8308,0.016409
48.939,64.8308,0.016409
49.003,64.8308,0.016447
49.062,64.8308,0.016447
49.130,64.8308,0.016447
49.186,64.8308,0.016447
49.247,64.8308,0.016390
49.313,64.8308,0.016390
49.374,64.8308,0.016390
49.440,64.8308,0.016390
49.499,64.8308,0.016334
49.563,64.8308,0.016334
49.627,64.8308,0.016334
49.687,64.8308,0.016334
49.748,64.8308,0.016343
49.811,64.8308,0.016343
49.873,64.8308,0.016343
49.935,64.8308,0.016343
49.999,64.8306,0.016390
50.061,64.8285,0.016390
50.124,64.8235,0.016390
50.184,64.8156,0.016390
50.247,64.8047,0.016466
50.308,64.7927,0.016466
50.370,64.7802,0.016466
50.433,64.7676,0.016466
50.495,64.7550,0.016588
50.557,64.7428,0.016588
50.619,64.7302,0.016588
50.681,64.7179,0.016588
50.744,64.7054,0.016588
50.806,64.6929,0.016729
50.868,64.6805,0.016729
50.930,64.6681,0.016729
50.996,64.6549,0.016889
51.056,64.6430,0.016889
51.117,64.6307,0.016889
51.180,64.6182,0.016889
51.243,64.6054,0.016936
51.305,64.5931,0.016936
51.368,64.5805,0.016936
51.430,64.5681,0.016936
51.493,64.5557,0.016936
51.556,64.5429,0.016899
51.619,64.5304,0.016899
51.680,64.5181,0.016899
51.743,64.5055,0.016889
51.806,64.4929,0.016889
51.868,64.4807,0.016889
51.929,64.4684,0.016889
51.991,64.4558,0.016936
52.054,64.4432,0.016936
52.115,64.4310,0.016936
52.178,64.4185,0.016936
52.240,64.4061,0.016983
52.302,64.3936,0.016983
52.365,64.3812,0.016983
52.427,64.3688,0.016983
52.489,64.3564,0.016974
52.551,64.3441,0.016974
52.613,64.3317,0.016974
52.675,64.3192,0.016974
52.738,64.3065,0.016993
52.800,64.2941,0.016993
52.863,64.2816,0.016993
52.926,64.2689,0.016993
52.989,64.2564,0.017078
53.052,64.2438,0.017078
53.114,64.2314,0.017078
53.175,64.2191,0.017078
53.238,64.2064,0.017078
53.301,64.1940,0.017144
53.362,64.1816,0.017144
53.425,64.1692,0.017144
53.487,64.1568,0.017125
53.549,64.1444,0.017125
53.611,64.1319,0.017125
53.675,64.1191,0.017125
53.737,64.1067,0.017106
53.800,64.0943,0.017106
53.862,64.0819,0.017106
53.924,64.0695,0.017106
53.986,64.0571,0.017106
54.048,64.0446,0.017134
54.110,64.0321,0.017134
54.173,64.0195,0.017134
54.236,64.0070,0.017115
54.299,63.9944,0.017115
54.362,63.9818,0.017115
54.424,63.9693,0.017115
54.487,63.9568,0.017115
54.549,63.9443,0.017115
54.610,63.9322,0.017115
54.673,63.9197,0.017115
54.735,63.9072,0.017144
54.797,63.8948,0.017144
54.860,63.8822,0.017144
54.920,63.8701,0.017144
54.982,63.8576,0.017191
55.045,63.8452,0.017191
55.108,63.8328,0.017191
55.174,63.8194,0.017191
55.233,63.8075,0.017172
55.295,63.7953,0.017172
55.358,63.7826,0.017172
55.422,63.7696,0.017172
55.483,63.7575,0.017144
55.547,63.7448,0.017144
55.607,63.7328,0.017144
55.669,63.7203,0.017144
55.731,63.7080,0.017144
55.794,63.6953,0.017172
55.855,63.6832,0.017172
55.918,63.6704,0.017172
55.982,63.6576,0.017172
56.043,63.6455,0.017172
56.107,63.6328,0.017172
56.168,63.6206,0.017172
56.231,63.6081,0.017172
56.291,63.5959,0.017191
56.354,63.5835,0.017191
56.415,63.5712,0.017191
56.476,63.5590,0.017191
56.538,63.5465,0.017219
56.601,63.5340,0.017219
56.664,63.5213,0.017219
56.725,63.5093,0.017219
56.786,63.4969,0.017247
56.848,63.4846,0.017247
56.910,63.4722,0.017247
56.972,63.4597,0.017247
57.035,63.4473,0.017181
57.096,63.4350,0.017181
57.157,63.4229,0.017181
57.219,63.4103,0.017181
57.282,63.3977,0.017144
57.345,63.3852,0.017144
57.407,63.3726,0.017144
57.470,63.3601,0.017144
57.533,63.3476,0.017181
57.596,63.3349,0.017181
57.659,63.3223,0.017181
57.723,63.3095,0.017181
57.786,63.2970,0.017144
57.848,63.2846,0.017144
57.910,63.2722,0.017144
57.972,63.2599,0.017134
58.033,63.2476,0.017134
58.095,63.2352,0.017134
58.157,63.2228,0.017134
58.220,63.2103,0.017115
58.282,63.1979,0.017115
58.343,63.1856,0.017115
58.405,63.1732,0.017115
58.467,63.1608,0.017115
58.529,63.1485,0.017078
58.590,63.1361,0.017078
58.653,63.1236,0.017078
58.714,63.1116,0.017078
58.777,63.0989,0.017144
58.840,63.0861,0.017144
58.901,63.0739,0.017144
58.963,63.0616,0.017144
59.025,63.0493,0.017144
59.087,63.0366,0.017144
59.150,63.0242,0.017144
59.213,63.0116,0.017144
59.275,62.9991,0.017106
59.338,62.9867,0.017106
59.400,62.9741,0.017106
59.462,62.9619,0.017106
59.522,62.9500,0.017125
59.584,62.9373,0.017125
59.647,62.9249,0.017125
59.708,62.9126,0.017125
59.771,62.9000,0.017106
59.833,62.8877,0.017106
59.898,62.8747,0.017106
59.959,62.8625,0.017106
60.020,62.8502,0.017059
60.083,62.8375,0.017059
60.145,62.8253,0.017059
60.207,62.8128,0.017059
60.269,62.8005,0.017031
60.332,62.7879,0.017031
60.393,62.7757,0.017031
60.455,62.7633,0.017031
60.517,62.7508,0.017040
60.579,62.7385,0.017040
60.641,62.7261,0.017040
60.703,62.7136,0.017040
60.765,62.7013,0.017049
60.828,62.6885,0.017049
60.891,62.6761,0.017049
60.954,62.6636,0.017049
61.016,62.6512,0.017087
61.078,62.6387,0.017087
61.140,62.6263,0.017087
61.202,62.6139,0.017087
61.263,62.6016,0.017049
61.326,62.5890,0.017049
61.388,62.5766,0.017049
61.451,62.5639,0.017049
61.514,62.5515,0.016993
61.576,62.5391,0.016993
61.638,62.5268,0.016993
61.699,62.5144,0.016993
61.761,62.5020,0.017002
61.824,62.4895,0.017002
61.886,62.4771,0.017002
61.949,62.4645,0.017002
62.012,62.4519,0.016955
62.073,62.4396,0.016955
62.136,62.4271,0.016955
62.197,62.4148,0.016955
62.260,62.4023,0.016899
62.322,62.3900,0.016899
62.383,62.3777,0.016899
62.446,62.3651,0.016899
62.509,62.3524,0.016842
62.571,62.3400,0.016842
62.633,62.3276,0.016842
62.695,62.3151,0.016842
62.756,62.3032,0.016823
62.818,62.2906,0.016823
62.879,62.2784,0.016823
62.941,62.2662,0.016823
63.004,62.2536,0.016823
63.066,62.2410,0.016823
63.129,62.2285,0.016823
63.191,62.2160,0.016823
63.252,62.2040,0.016823
63.313,62.1917,0.016823
63.376,62.1790,0.016823
63.438,62.1666,0.016823
63.499,62.1543,0.016805
63.562,62.1418,0.016805
63.625,62.1293,0.016805
63.688,62.1168,0.016805
63.751,62.1041,0.016814
63.813,62.0916,0.016814
63.878,62.0786,0.016814
63.939,62.0664,0.016814
64.003,62.0536,0.016842
64.064,62.0415,0.016842
64.127,62.0288,0.016842
64.190,62.0162,0.016842
64.250,62.0042,0.016767
64.312,61.9919,0.016767
64.374,61.9795,0.016767
64.439,61.9665,0.016767
64.500,61.9542,0.016673
64.562,61.9418,0.016673
64.622,61.9296,0.016673
64.684,61.9173,0.016673
64.747,61.9048,0.016588
64.812,61.8919,0.016588
64.872,61.8799,0.016588
64.935,61.8671,0.016588
64.999,61.8543,0.016616
65.060,61.8423,0.016616
65.120,61.8303,0.016616
65.182,61.8179,0.016616
65.245,61.8051,0.016616
65.308,61.7927,0.016635
65.370,61.7803,0.016635
65.431,61.7680,0.016635
65.494,61.7554,0.016645
65.558,61.7428,0.016645
65.621,61.7302,0.016645
65.683,61.7177,0.016645
65.745,61.7051,0.016616
65.808,61.6927,0.016616
65.869,61.6805,0.016616
65.931,61.6680,0.016616
65.992,61.6558,0.016522
66.055,61.6434,0.016522
66.116,61.6312,0.016522
66.177,61.6188,0.016522
66.240,61.6062,0.016475
66.302,61.5939,0.016475
66.366,61.5811,0.016475
66.427,61.5688,0.016475
66.489,61.5564,0.016475
66.551,61.5442,0.016475
66.613,61.5316,0.016475
66.675,61.5193,0.016475
66.736,61.5069,0.016475
66.799,61.4944,0.016447
66.861,61.4820,0.016447
66.923,61.4697,0.016447
66.986,61.4571,0.016447
67.048,61.4447,0.016409
67.111,61.4319,0.016409
67.174,61.4195,0.016409
67.235,61.4074,0.016419
67.299,61.3946,0.016419
67.361,61.3821,0.016419
67.423,61.3695,0.016419
67.484,61.3574,0.016437
67.546,61.3451,0.016437
67.608,61.3327,0.016437
67.671,61.3200,0.016437
67.733,61.3075,0.016428
67.796,61.2950,0.016428
67.859,61.2823,0.016428
67.922,61.2698,0.016428
67.983,61.2575,0.016428
68.046,61.2449,0.016324
68.109,61.2325,0.016324
68.172,61.2197,0.016324
68.234,61.2076,0.016306
68.295,61.1953,0.016306
68.357,61.1830,0.016306
68.420,61.1702,0.016306
68.481,61.1577,0.016306
68.545,61.1453,0.016306
68.606,61.1331,0.016306
68.668,61.1207,0.016306
68.728,61.1087,0.016306
68.791,61.0959,0.016306
68.853,61.0838,0.016306
68.916,61.0712,0.016306
68.979,61.0585,0.016324
69.041,61.0462,0.016324
69.102,61.0339,0.016324
69.165,61.0213,0.016324
69.228,61.0087,0.016306
69.291,60.9961,0.016306
69.351,60.9841,0.016306
69.412,60.9719,0.016306
69.475,60.9593,0.016277
69.537,60.9467,0.016277
69.600,60.9343,0.016277
69.662,60.9219,0.016277
69.725,60.9094,0.016277
69.789,60.8966,0.016259
69.852,60.8838,0.016259
69.912,60.8718,0.016259
69.977,60.8588,0.016259
70.037,60.8469,0.016259
70.097,60.8350,0.016259
70.159,60.8225,0.016259
70.223,60.8098,0.016259
70.285,60.7981,0.016183
70.347,60.7895,0.016183
70.409,60.7838,0.016183
70.471,60.7809,0.016070
70.535,60.7807,0.016070
70.600,60.7807,0.016070
70.662,60.7815,0.016070
70.723,60.7850,0.016042
70.786,60.7918,0.016042
70.848,60.8011,0.016042
70.910,60.8133,0.016042
70.972,60.8256,0.016004
71.034,60.8380,0.016004
71.097,60.8507,0.016004
71.157,60.8628,0.016004
71.221,60.8755,0.016004
71.282,60.8876,0.015957
71.346,60.9007,0.015957
71.406,60.9125,0.015957
71.470,60.9254,0.015957
71.532,60.9378,0.015957
71.592,60.9496,0.015957
71.655,60.9622,0.015957
71.717,60.9746,0.015957
71.781,60.9874,0.015891
71.843,60.9998,0.015891
71.904,61.0121,0.015891
71.966,61.0245,0.015891
72.030,61.0373,0.015826
72.094,61.0500,0.015826
72.153,61.0619,0.015826
72.217,61.0746,0.015826
72.277,61.0866,0.015807
72.339,61.0990,0.015807
72.400,61.1114,0.015807
72.463,61.1238,0.015807
72.526,61.1365,0.015797
72.587,61.1486,0.015797
72.652,61.1615,0.015797
72.712,61.1737,0.015797
72.773,61.1858,0.015760
72.835,61.1982,0.015760
72.900,61.2113,0.015760
72.960,61.2233,0.015760
73.024,61.2361,0.015713
73.083,61.2479,0.015713
73.147,61.2605,0.015713
73.207,61.2728,0.015713
73.272,61.2857,0.015760
73.332,61.2976,0.015760
73.395,61.3101,0.015760
73.457,61.3226,0.015760
73.520,61.3352,0.015778
73.583,61.3477,0.015778
73.645,61.3602,0.015778
73.708,61.3727,0.015778
73.771,61.3853,0.015722
73.832,61.3976,0.015722
73.893,61.4098,0.015722
73.957,61.4226,0.015722
74.017,61.4346,0.015760
74.080,61.4473,0.015760
74.143,61.4598,0.015760
74.206,61.4723,0.015760
74.268,61.4849,0.015750
74.329,61.4970,0.015750
74.392,61.5097,0.015750
74.454,61.5221,0.015750
74.517,61.5347,0.015750
74.579,61.5471,0.015750
74.643,61.5598,0.015750
74.705,61.5723,0.015750
74.767,61.5848,0.015741
74.830,61.5974,0.015741
74.892,61.6100,0.015741
74.955,61.6222,0.015741
75.015,61.6343,0.015731
75.077,61.6467,0.015731
75.140,61.6591,0.015731
75.201,61.6714,0.015731
75.263,61.6839,0.015750
75.326,61.6966,0.015750
75.389,61.7091,0.015750
75.452,61.7215,0.015750
75.515,61.7342,0.015713
75.578,61.7467,0.015713
75.640,61.7592,0.015713
75.702,61.7716,0.015713
75.765,61.7841,0.015741
75.826,61.7964,0.015741
75.889,61.8091,0.015741
75.950,61.8211,0.015741
76.012,61.8335,0.015741
76.074,61.8459,0.015788
76.135,61.8582,0.015788
76.197,61.8706,0.015788
76.259,61.8831,0.015750
76.323,61.8958,0.015750
76.385,61.9083,0.015750
76.448,61.9208,0.015750
76.510,61.9333,0.015722
76.571,61.9454,0.015722
76.633,61.9576,0.015722
76.695,61.9702,0.015722
76.757,61.9826,0.015778
76.819,61.9950,0.015778
76.882,62.0076,0.015778
76.945,62.0200,0.015778
77.007,62.0326,0.015873
77.069,62.0450,0.015873
77.132,62.0577,0.015873
77.193,62.0698,0.015873
77.256,62.0823,0.015816
77.319,62.0948,0.015816
77.381,62.1073,0.015816
77.444,62.1200,0.015816
77.508,62.1328,0.015750
77.570,62.1453,0.015750
77.633,62.1578,0.015750
77.694,62.1698,0.015750
77.756,62.1823,0.015788
77.818,62.1948,0.015788
77.880,62.2073,0.015788
77.944,62.2200,0.015788
78.006,62.2326,0.015835
78.068,62.2449,0.015835
78.130,62.2573,0.015835
78.192,62.2696,0.015835
78.255,62.2822,0.015863
78.316,62.2944,0.015863
78.378,62.3069,0.015863
78.442,62.3195,0.015863
78.504,62.3319,0.015844
78.566,62.3443,0.015844
78.628,62.3568,0.015844
78.690,62.3692,0.015844
78.753,62.3818,0.015844
78.816,62.3945,0.015844
78.878,62.4070,0.015844
78.940,62.4194,0.015844
79.003,62.4319,0.015816
79.066,62.4444,0.015816
79.127,62.4567,0.015816
79.190,62.4694,0.015816
79.253,62.4816,0.015816
79.314,62.4939,0.015816
79.377,62.5066,0.015816
79.441,62.5192,0.015816
79.503,62.5320,0.015826
79.566,62.5444,0.015826
79.627,62.5567,0.015826
79.689,62.5692,0.015826
79.753,62.5817,0.015891
79.815,62.5943,0.015891
79.877,62.6068,0.015891
79.940,62.6192,0.015891
80.002,62.6315,0.015901
80.063,62.6439,0.015901
80.126,62.6564,0.015901
80.189,62.6688,0.015901
80.251,62.6812,0.015901
80.313,62.6937,0.015873
80.375,62.7061,0.015873
80.437,62.7187,0.015873
80.500,62.7313,0.015910
80.563,62.7437,0.015910
80.624,62.7560,0.015910
80.686,62.7684,0.015910
80.747,62.7807,0.015901
80.809,62.7929,0.015901
80.871,62.8053,0.015901
80.933,62.8177,0.015901
80.994,62.8300,0.015910
81.057,62.8426,0.015910
81.120,62.8553,0.015910
81.181,62.8674,0.015910
81.243,62.8799,0.015920
81.308,62.8928,0.015920
81.367,62.9044,0.015920
81.429,62.9168,0.015920
81.492,62.9295,0.015948
81.553,62.9418,0.015948
81.616,62.9544,0.015948
81.677,62.9666,0.015948
81.740,62.9790,0.016023
81.801,62.9913,0.016023
81.862,63.0037,0.016023
81.926,63.0163,0.016023
81.987,63.0285,0.016023
82.048,63.0409,0.016023
82.111,63.0535,0.016023
82.173,63.0658,0.016023
82.234,63.0781,0.016023
82.296,63.0905,0.016023
82.358,63.1026,0.016023
82.419,63.1150,0.016023
82.481,63.1274,0.016023
82.544,63.1401,0.016099
82.606,63.1524,0.016099
82.670,63.1651,0.016099
82.733,63.1777,0.016099
82.795,63.1901,0.016136
82.857,63.2025,0.016136
82.918,63.2147,0.016136
82.981,63.2271,0.016221
83.043,63.2397,0.016221
83.104,63.2518,0.016221
83.166,63.2645,0.016221
83.229,63.2770,0.016221
83.291,63.2895,0.016306
83.354,63.3021,0.016306
83.417,63.3145,0.016306
83.479,63.3269,0.016306
83.542,63.3395,0.016343
83.603,63.3518,0.016343
83.666,63.3642,0.016343
83.728,63.3768,0.016343
83.789,63.3890,0.016324
83.851,63.4014,0.016324
83.913,63.4137,0.016324
83.975,63.4263,0.016372
84.039,63.4389,0.016372
84.100,63.4511,0.016372
84.162,63.4637,0.016372
84.227,63.4764,0.016372
84.288,63.4888,0.016419
84.351,63.5012,0.016419
84.415,63.5141,0.016419
84.478,63.5267,0.016419
84.539,63.5389,0.016447
84.602,63.5516,0.016447
84.664,63.5640,0.016447
84.726,63.5765,0.016513
84.789,63.5890,0.016513
84.851,63.6015,0.016513
84.912,63.6135,0.016513
84.974,63.6259,0.016579
85.036,63.6383,0.016579
85.098,63.6508,0.016579
85.160,63.6631,0.016579
85.223,63.6756,0.016579
85.284,63.6879,0.016579
85.346,63.7004,0.016579
85.409,63.7129,0.016579
85.471,63.7254,0.016579
85.533,63.7378,0.016550
85.596,63.7504,0.016550
85.659,63.7629,0.016550
85.721,63.7753,0.016550
85.783,63.7877,0.016522
85.845,63.8001,0.016522
85.908,63.8127,0.016522
85.968,63.8249,0.016522
86.029,63.8370,0.016513
86.092,63.8495,0.016513
86.156,63.8623,0.016513
86.217,63.8747,0.016513
86.279,63.8871,0.016522
86.343,63.8997,0.016522
86.406,63.9124,0.016522
86.468,63.9247,0.016522
86.530,63.9372,0.016522
86.590,63.9491,0.016522
86.652,63.9615,0.016522
86.717,63.9746,0.016522
86.777,63.9865,0.016485
86.840,63.9992,0.016485
86.901,64.0113,0.016485
86.965,64.0241,0.016485
87.029,64.0370,0.016503
87.089,64.0489,0.016503
87.150,64.0612,0.016503
87.212,64.0735,0.016503
87.274,64.0859,0.016541
87.336,64.0982,0.016541
87.397,64.1106,0.016541
87.460,64.1231,0.016541
87.523,64.1357,0.016541
87.584,64.1480,0.016541
87.646,64.1604,0.016541
87.708,64.1727,0.016541
87.770,64.1851,0.016513
87.836,64.1984,0.016513
87.896,64.2104,0.016513
87.956,64.2223,0.016513
88.019,64.2351,0.016437
88.081,64.2474,0.016437
88.143,64.2599,0.016437
88.206,64.2723,0.016437
88.268,64.2848,0.016390
88.330,64.2972,0.016390
88.393,64.3097,0.016390
88.455,64.3220,0.016390
88.516,64.3344,0.016334
88.578,64.3466,0.016334
88.640,64.3591,0.016334
88.701,64.3714,0.016334
88.764,64.3839,0.016315
88.826,64.3963,0.016315
88.888,64.4087,0.016315
88.951,64.4212,0.016315
89.013,64.4338,0.016268
89.076,64.4462,0.016268
89.138,64.4586,0.016268
89.199,64.4710,0.016268
89.261,64.4833,0.016221
89.322,64.4955,0.016221
89.385,64.5081,0.016221
89.447,64.5205,0.016221
89.510,64.5331,0.016202
89.572,64.5454,0.016202
89.633,64.5578,0.016202
89.696,64.5704,0.016202
89.759,64.5830,0.016155
89.821,64.5954,0.016155
89.883,64.6077,0.016155
89.947,64.6204,0.016155
90.009,64.6328,0.016127
90.072,64.6456,0.016127
90.133,64.6578,0.016127
90.196,64.6703,0.016127
90.258,64.6827,0.016117
90.321,64.6952,0.016117
90.382,64.7077,0.016117
90.444,64.7198,0.016117
90.507,64.7324,0.016108
90.568,64.7447,0.016108
90.631,64.7571,0.016108
90.692,64.7674,0.016108
90.754,64.7747,0.016080
90.816,64.7791,0.016080
90.877,64.7807,0.016080
90.940,64.7807,0.016080
91.003,64.7807,0.016164
91.064,64.7807,0.016164
91.126,64.7807,0.016164
91.188,64.7807,0.016164
91.249,64.7807,0.016230
91.314,64.7807,0.016230
91.377,64.7807,0.016230
91.437,64.7807,0.016230
91.499,64.7807,0.016259
91.563,64.7807,0.016259
91.623,64.7807,0.016259
91.686,64.7807,0.016259
91.750,64.7807,0.016334
91.810,64.7807,0.016334
91.873,64.7807,0.016334
91.935,64.7807,0.016334
91.997,64.7807,0.016334
92.060,64.7807,0.016353
92.123,64.7807,0.016353
92.186,64.7807,0.016353
92.248,64.7807,0.016362
92.309,64.7807,0.016362
92.372,64.7807,0.016362
92.435,64.7807,0.016362
92.497,64.7807,0.016362
92.560,64.7807,0.016400
92.622,64.7807,0.016400
92.685,64.7807,0.016400
92.747,64.7807,0.016400
92.811,64.7807,0.016456
92.873,64.7807,0.016456
92.934,64.7807,0.016456
92.995,64.7807,0.016485
93.059,64.7807,0.016485
93.122,64.7807,0.016485
93.184,64.7807,0.016485
93.247,64.7807,0.016428
93.310,64.7807,0.016428
93.374,64.7807,0.016428
93.437,64.7807,0.016428
93.499,64.7807,0.016353
93.562,64.7807,0.016353
93.625,64.7807,0.016353
93.687,64.7807,0.016353
93.750,64.7807,0.016353
93.812,64.7807,0.016353
93.875,64.7807,0.016353
93.938,64.7807,0.016353
94.002,64.7807,0.016353
94.066,64.7807,0.016409
94.127,64.7807,0.016409
94.190,64.7807,0.016409
94.253,64.7807,0.016409
94.315,64.7807,0.016409
94.378,64.7807,0.016409
94.440,64.7807,0.016409
94.502,64.7807,0.016390
94.565,64.7807,0.016390
94.628,64.7807,0.016390
94.689,64.7807,0.016390
94.753,64.7807,0.016390
94.815,64.7807,0.016409
94.876,64.7807,0.016409
94.939,64.7807,0.016409
95.001,64.7807,0.016419
95.063,64.7807,0.016419
95.125,64.7807,0.016419
95.189,64.7807,0.016419
95.249,64.7807,0.016437
95.311,64.7807,0.016437
95.374,64.7807,0.016437
95.437,64.7807,0.016437
95.498,64.7807,0.016494
95.562,64.7807,0.016494
95.624,64.7797,0.016494
95.686,64.7758,0.016494
95.747,64.7691,0.016494
95.809,64.7596,0.016494
95.870,64.7476,0.016494
95.932,64.7353,0.016494
95.992,64.7231,0.016635
96.054,64.7107,0.016635
96.116,64.6983,0.016635
96.178,64.6858,0.016635
96.241,64.6733,0.016635
96.303,64.6610,0.016805
96.365,64.6486,0.016805
96.428,64.6361,0.016805
96.491,64.6234,0.016852
96.554,64.6109,0.016852
96.616,64.5985,0.016852
96.678,64.5859,0.016852
96.739,64.5738,0.016908
96.801,64.5615,0.016908
96.863,64.5489,0.016908
96.925,64.5365,0.016908
96.986,64.5243,0.016908
97.049,64.5117,0.016908
97.112,64.4990,0.016908
97.176,64.4864,0.016908
97.237,64.4742,0.016936
97.300,64.4617,0.016936
97.362,64.4492,0.016936
97.424,64.4369,0.016936
97.486,64.4243,0.017031
97.549,64.4116,0.017031
97.611,64.3992,0.017031
97.674,64.3868,0.017031
97.735,64.3745,0.017031
97.798,64.3618,0.017031
97.861,64.3493,0.017031
97.924,64.3368,0.017031
97.986,64.3244,0.017021
98.048,64.3119,0.017021
98.110,64.2996,0.017021
98.173,64.2869,0.017021
98.235,64.2745,0.017021
98.296,64.2624,0.017040
98.358,64.2501,0.017040
98.420,64.2376,0.017040
98.483,64.2250,0.017049
98.545,64.2125,0.017049
98.608,64.2001,0.017049
98.670,64.1876,0.017049
98.733,64.1751,0.017078
98.794,64.1627,0.017078
98.856,64.1504,0.017078
98.919,64.1379,0.017078
98.982,64.1253,0.017134
99.044,64.1129,0.017134
99.105,64.1006,0.017134
99.168,64.0880,0.017134
99.229,64.0758,0.017162
99.290,64.0634,0.017162
99.354,64.0509,0.017162
99.415,64.0386,0.017162
99.477,64.0262,0.017153
99.538,64.0140,0.017153
99.600,64.0016,0.017153
99.661,63.9894,0.017153
99.723,63.9771,0.017144
99.786,63.9642,0.017144
99.849,63.9518,0.017144
99.911,63.9395,0.017144
99.973,63.9270,0.017144
100.035,63.9147,0.017172
100.097,63.9022,0.017172
100.160,63.8896,0.017172
100.222,63.8773,0.017209
100.284,63.8646,0.017209
100.345,63.8526,0.017209
100.408,63.8398,0.017209
100.470,63.8275,0.017209
100.533,63.8150,0.017209
100.596,63.8025,0.017209
100.658,63.7900,0.017209
100.723,63.7771,0.017209
100.782,63.7652,0.017115
100.844,63.7528,0.017115
100.907,63.7402,0.017115
100.967,63.7281,0.017115
101.030,63.7156,0.017144
101.092,63.7034,0.017144
101.154,63.6906,0.017144
101.216,63.6783,0.017144
101.277,63.6662,0.017257
101.342,63.6533,0.017257
101.402,63.6413,0.017257
101.464,63.6289,0.017257
101.526,63.6163,0.017238
101.589,63.6039,0.017238
101.651,63.5912,0.017238
101.713,63.5789,0.017238
101.776,63.5664,0.017181
101.839,63.5538,0.017181
101.900,63.5415,0.017181
101.964,63.5288,0.017181
102.027,63.5161,0.017162
102.090,63.5035,0.017162
102.151,63.4913,0.017162
102.214,63.4787,0.017162
102.276,63.4664,0.017181
102.339,63.4537,0.017181
102.401,63.4413,0.017181
102.462,63.4291,0.017181
102.524,63.4167,0.017191
102.586,63.4044,0.017191
102.648,63.3919,0.017191
102.709,63.3798,0.017191
102.775,63.3666,0.017191
102.834,63.3546,0.017191
102.896,63.3424,0.017191
102.960,63.3296,0.017191
103.021,63.3173,0.017153
103.084,63.3049,0.017153
103.146,63.2925,0.017153
103.210,63.2796,0.017153
103.268,63.2678,0.017153
103.332,63.2553,0.017115
103.394,63.2429,0.017115
103.456,63.2304,0.017115
103.518,63.2180,0.017115
103.582,63.2052,0.017115
103.643,63.1929,0.017115
103.705,63.1806,0.017115
103.768,63.1681,0.017106
103.830,63.1556,0.017106
103.894,63.1429,0.017106
103.955,63.1305,0.017106
104.017,63.1181,0.017049
104.080,63.1056,0.017049
104.142,63.0931,0.017049
104.204,63.0808,0.017049
104.267,63.0682,0.017021
104.330,63.0557,0.017021
104.389,63.0437,0.017021
104.451,63.0314,0.017021
104.514,63.0187,0.017059
104.576,63.0064,0.017059
104.639,62.9940,0.017059
104.701,62.9815,0.017059
104.764,62.9688,0.017059
104.826,62.9565,0.017059
104.889,62.9439,0.017059
104.950,62.9316,0.017059
105.012,62.9193,0.017012
105.073,62.9072,0.017012
105.135,62.8946,0.017012
105.197,62.8822,0.017012
105.260,62.8697,0.017012
105.323,62.8571,0.017012
105.385,62.8447,0.017012
105.448,62.8320,0.017012
105.511,62.8195,0.017012
105.573,62.8071,0.017012
105.635,62.7946,0.017012
105.698,62.7820,0.017012
105.762,62.7694,0.016974
105.823,62.7570,0.016974
105.886,62.7444,0.016974
105.948,62.7320,0.016974
106.009,62.7198,0.016993
106.072,62.7072,0.016993
106.133,62.6950,0.016993
106.196,62.6823,0.016993
106.259,62.6697,0.016974
106.321,62.6574,0.016974
106.384,62.6449,0.016974
106.446,62.6325,0.016974
106.508,62.6199,0.016955
106.570,62.6077,0.016955
106.632,62.5952,0.016955
106.694,62.5828,0.016955
106.757,62.5702,0.016889
106.817,62.5582,0.016889
106.879,62.5459,0.016889
106.943,62.5331,0.016889
107.007,62.5202,0.016889
107.070,62.5076,0.016889
107.130,62.4955,0.016889
107.194,62.4828,0.016889
107.256,62.4702,0.016955
107.319,62.4578,0.016955
107.381,62.4454,0.016955
107.443,62.4330,0.016955
107.506,62.4205,0.016889
107.568,62.4081,0.016889
107.631,62.3956,0.016889
107.693,62.3832,0.016889
107.753,62.3711,0.016833
107.815,62.3586,0.016833
107.878,62.3461,0.016833
107.942,62.3334,0.016833
108.004,62.3207,0.016814
108.066,62.3084,0.016814
108.129,62.2960,0.016814
108.189,62.2838,0.016814
108.252,62.2712,0.016814
108.315,62.2586,0.016814
108.376,62.2465,0.016814
108.437,62.2342,0.016814
108.499,62.2219,0.016786
108.561,62.2093,0.016786
108.624,62.1969,0.016786
108.687,62.1844,0.016786
108.750,62.1717,0.016758
108.812,62.1593,0.016758
108.875,62.1468,0.016758
108.937,62.1344,0.016758
108.998,62.1220,0.016758
109.060,62.1097,0.016758
109.123,62.0970,0.016758
109.184,62.0849,0.016758
109.246,62.0724,0.016720
109.308,62.0601,0.016720
109.370,62.0476,0.016720
109.433,62.0352,0.016720
109.495,62.0226,0.016739
109.557,62.0102,0.016739
109.619,61.9978,0.016739
109.681,61.9855,0.016739
109.744,61.9729,0.016739
109.807,61.9601,0.016739
109.869,61.9478,0.016739
109.930,61.9356,0.016739
109.993,61.9232,0.016739
110.055,61.9106,0.016701
110.117,61.8982,0.016701
110.180,61.8856,0.016701
110.242,61.8733,0.016701
110.304,61.8608,0.016673
110.367,61.8483,0.016673
110.429,61.8359,0.016673
110.493,61.8231,0.016673
110.554,61.8109,0.016635
110.617,61.7983,0.016635
110.680,61.7857,0.016635
110.742,61.7732,0.016635
110.805,61.7607,0.016607
110.865,61.7487,0.016607
110.927,61.7363,0.016607
110.989,61.7239,0.016579
111.052,61.7113,0.016579
111.113,61.6989,0.016579
111.175,61.6867,0.016579
111.237,61.6743,0.016560
111.299,61.6618,0.016560
111.362,61.6493,0.016560
111.423,61.6370,0.016560
111.485,61.6246,0.016522
111.547,61.6122,0.016522
111.610,61.5997,0.016522
111.672,61.5873,0.016522
111.735,61.5748,0.016485
111.796,61.5624,0.016485
111.858,61.5501,0.016485
111.921,61.5376,0.016485
111.981,61.5254,0.016475
112.044,61.5129,0.016475
112.106,61.5005,0.016475
112.168,61.4880,0.016475
112.231,61.4754,0.016419
112.293,61.4630,0.016419
112.355,61.4506,0.016419
112.417,61.4382,0.016419
112.480,61.4257,0.016381
112.541,61.4134,0.016381
112.602,61.4013,0.016381
112.666,61.3886,0.016381
112.729,61.3760,0.016372
112.792,61.3633,0.016372
112.854,61.3509,0.016372
112.917,61.3384,0.016372
112.978,61.3261,0.016362
113.040,61.3136,0.016362
113.102,61.3012,0.016362
113.164,61.2888,0.016362
113.226,61.2763,0.016353
113.289,61.2636,0.016353
113.352,61.2512,0.016353
113.413,61.2389,0.016353
113.475,61.2268,0.016334
113.536,61.2145,0.016334
113.599,61.2020,0.016334
113.661,61.1894,0.016334
113.724,61.1768,0.016334
113.786,61.1645,0.016315
113.849,61.1520,0.016315
113.912,61.1393,0.016315
113.974,61.1268,0.016306
114.036,61.1143,0.016306
114.099,61.1018,0.016306
114.162,61.0894,0.016306
114.224,61.0768,0.016249
114.287,61.0643,0.016249
114.350,61.0517,0.016249
114.413,61.0389,0.016249
114.473,61.0270,0.016249
114.535,61.0146,0.016221
114.597,61.0022,0.016221
114.659,60.9896,0.016221
114.721,60.9775,0.016240
114.784,60.9650,0.016240
114.846,60.9526,0.016240
114.907,60.9403,0.016240
114.969,60.9279,0.016240
115.031,60.9156,0.016221
115.094,60.9029,0.016221
115.156,60.8904,0.016221
115.218,60.8781,0.016221
115.281,60.8656,0.016221
115.344,60.8528,0.016221
115.405,60.8406,0.016221
115.467,60.8283,0.016221
115.530,60.8158,0.016193
115.592,60.8034,0.016193
115.655,60.7908,0.016193
115.717,60.7783,0.016089
115.778,60.7659,0.016089
115.839,60.7539,0.016089
115.901,60.7437,0.016089
115.964,60.7365,0.016089
116.026,60.7320,0.016014
116.088,60.7307,0.016014
116.151,60.7307,0.016014
116.213,60.7307,0.016014
116.275,60.7328,0.015948
116.337,60.7376,0.015948
116.400,60.7456,0.015948
116.461,60.7561,0.015948
116.524,60.7688,0.015769
116.586,60.7810,0.015769
116.648,60.7934,0.015769
116.711,60.8061,0.015769
116.773,60.8185,0.015760
116.836,60.8311,0.015760
116.897,60.8434,0.015760
116.960,60.8558,0.015760
117.023,60.8683,0.015844
117.084,60.8806,0.015844
117.145,60.8928,0.015844
117.206,60.9052,0.015844
117.268,60.9176,0.015760
117.331,60.9301,0.015760
117.394,60.9426,0.015760
117.457,60.9552,0.015760
117.519,60.9677,0.015741
117.582,60.9803,0.015741
117.644,60.9927,0.015741
117.706,61.0050,0.015741
117.768,61.0174,0.015741
117.830,61.0298,0.015769
117.892,61.0421,0.015769
117.955,61.0548,0.015769
118.017,61.0673,0.015722
118.079,61.0796,0.015722
118.141,61.0921,0.015722
118.202,61.1042,0.015722
118.265,61.1168,0.015713
118.327,61.1293,0.015713
118.390,61.1418,0.015713
118.452,61.1542,0.015713
118.512,61.1665,0.015713
118.574,61.1788,0.015713
118.638,61.1916,0.015713
118.700,61.2038,0.015713
118.762,61.2164,0.015665
118.824,61.2286,0.015665
118.885,61.2409,0.015665
118.948,61.2534,0.015665
119.009,61.2657,0.015647
119.072,61.2781,0.015647
119.133,61.2903,0.015647
119.194,61.3027,0.015647
119.257,61.3152,0.015600
119.320,61.3279,0.015600
119.382,61.3401,0.015600
119.444,61.3528,0.015600
119.506,61.3651,0.015581
119.568,61.3776,0.015581
119.631,61.3901,0.015581
119.694,61.4025,0.015581
119.756,61.4152,0.015609
119.818,61.4276,0.015609
119.881,61.4400,0.015609
119.942,61.4524,0.015609
120.004,61.4647,0.015600
120.065,61.4769,0.015600
120.128,61.4893,0.015600
120.191,61.5020,0.015600
120.252,61.5143,0.015543
120.315,61.5268,0.015543
120.378,61.5396,0.015543
120.440,61.5517,0.015543
120.502,61.5642,0.015543
120.564,61.5766,0.015543
120.627,61.5893,0.015543
120.690,61.6019,0.015543
120.751,61.6140,0.015581
120.812,61.6263,0.015581
120.875,61.6389,0.015581
120.938,61.6514,0.015581
121.001,61.6641,0.015609
121.063,61.6766,0.015609
121.124,61.6886,0.015609
121.187,61.7012,0.015609
121.250,61.7137,0.015618
121.312,61.7262,0.015618
121.375,61.7386,0.015618
121.437,61.7511,0.015618
121.499,61.7635,0.015600
121.563,61.7764,0.015600
121.625,61.7887,0.015600
121.686,61.8011,0.015600
121.748,61.8134,0.015609
121.811,61.8262,0.015609
121.873,61.8385,0.015609
121.935,61.8509,0.015609
121.998,61.8635,0.015647
122.061,61.8759,0.015647
122.124,61.8886,0.015647
122.185,61.9010,0.015647
122.248,61.9134,0.015647
122.309,61.9256,0.015647
122.370,61.9379,0.015647
122.434,61.9505,0.015647
122.495,61.9629,0.015647
122.558,61.9755,0.015675
122.621,61.9882,0.015675
122.683,62.0006,0.015675
122.745,62.0130,0.015647
122.808,62.0256,0.015647
122.871,62.0381,0.015647
122.934,62.0507,0.015647
122.997,62.0632,0.015637
123.059,62.0755,0.015637
123.120,62.0877,0.015637
123.183,62.1005,0.015637
123.246,62.1130,0.015694
123.308,62.1254,0.015694
123.369,62.1376,0.015694
123.431,62.1500,0.015694
123.493,62.1624,0.015731
123.555,62.1749,0.015731
123.618,62.1875,0.015731
123.681,62.1999,0.015731
123.742,62.2123,0.015694
123.805,62.2247,0.015694
123.867,62.2372,0.015694
123.928,62.2495,0.015694
123.990,62.2619,0.015684
124.052,62.2742,0.015684
124.114,62.2867,0.015684
124.176,62.2991,0.015684
124.240,62.3119,0.015684
124.303,62.3243,0.015731
124.366,62.3369,0.015731
124.427,62.3492,0.015731
124.490,62.3618,0.015731
124.552,62.3742,0.015722
124.613,62.3865,0.015722
124.675,62.3988,0.015722
124.736,62.4111,0.015722
124.798,62.4235,0.015797
124.859,62.4358,0.015797
124.921,62.4482,0.015797
124.982,62.4604,0.015797
125.045,62.4728,0.015844
125.108,62.4855,0.015844
125.171,62.4979,0.015844
125.235,62.5107,0.015844
125.297,62.5232,0.015816
125.359,62.5357,0.015816
125.422,62.5482,0.015816
125.483,62.5605,0.015816
125.546,62.5729,0.015826
125.609,62.5856,0.015826
125.670,62.5980,0.015826
125.732,62.6103,0.015826
125.796,62.6229,0.015816
125.859,62.6357,0.015816
125.920,62.6477,0.015816
125.983,62.6604,0.015816
126.045,62.6729,0.015844
126.106,62.6850,0.015844
126.168,62.6974,0.015844
126.228,62.7095,0.015844
126.291,62.7220,0.015882
126.353,62.7343,0.015882
126.415,62.7468,0.015882
126.478,62.7593,0.015882
126.540,62.7719,0.015891
126.601,62.7840,0.015891
126.663,62.7964,0.015891
126.725,62.8087,0.015891
126.787,62.8211,0.015929
126.849,62.8336,0.015929
126.911,62.8460,0.015929
126.972,62.8582,0.015901
127.034,62.8706,0.015901
127.096,62.8830,0.015901
127.159,62.8955,0.015901
127.221,62.9080,0.015920
127.283,62.9206,0.015920
127.345,62.9330,0.015920
127.410,62.9457,0.015920
127.472,62.9581,0.015920
127.535,62.9710,0.016004
127.597,62.9833,0.016004
127.657,62.9952,0.016004
127.720,63.0079,0.016004
127.782,63.0203,0.016033
127.844,63.0326,0.016033
127.905,63.0448,0.016033
127.967,63.0572,0.016033
128.030,63.0698,0.015995
128.093,63.0823,0.015995
128.155,63.0948,0.015995
128.218,63.1073,0.015995
128.279,63.1197,0.016042
128.341,63.1319,0.016042
128.404,63.1445,0.016042
128.466,63.1570,0.016042
128.528,63.1694,0.016146
128.589,63.1814,0.016146
128.651,63.1938,0.016146
128.713,63.2064,0.016212
128.776,63.2190,0.016212
128.839,63.2315,0.016212
128.901,63.2440,0.016212
128.964,63.2565,0.016240
129.028,63.2693,0.016240
129.091,63.2820,0.016240
129.152,63.2942,0.016240
129.215,63.3068,0.016240
129.278,63.3194,0.016287
129.340,63.3318,0.016287
129.402,63.3441,0.016287
129.465,63.3568,0.016343
129.527,63.3693,0.016343
129.590,63.3817,0.016343
129.652,63.3941,0.016343
129.714,63.4066,0.016343
129.777,63.4190,0.016334
129.840,63.4318,0.016334
129.904,63.4446,0.016334
129.963,63.4565,0.016334
130.026,63.4691,0.016353
130.089,63.4816,0.016353
130.152,63.4940,0.016353
130.213,63.5066,0.016353
130.276,63.5190,0.016428
130.339,63.5315,0.016428
130.401,63.5440,0.016428
130.462,63.5562,0.016428
130.524,63.5686,0.016522
130.585,63.5809,0.016522
130.647,63.5931,0.016522
130.710,63.6059,0.016522
130.773,63.6184,0.016532
130.836,63.6308,0.016532
130.896,63.6430,0.016532
130.959,63.6554,0.016532
131.021,63.6681,0.016503
131.083,63.6802,0.016503
131.145,63.6926,0.016503
131.207,63.7053,0.016503
131.269,63.7175,0.016532
131.331,63.7298,0.016532
131.393,63.7423,0.016532
131.454,63.7546,0.016532
131.516,63.7669,0.016532
131.579,63.7795,0.016560
131.642,63.7921,0.016560
131.705,63.8047,0.016560
131.766,63.8169,0.016598
131.829,63.8297,0.016598
131.891,63.8419,0.016598
131.953,63.8543,0.016598
132.016,63.8669,0.016532
132.080,63.8796,0.016532
132.142,63.8923,0.016532
132.205,63.9047,0.016532
132.268,63.9173,0.016466
132.329,63.9295,0.016466
132.392,63.9420,0.016466
132.454,63.9545,0.016466
132.517,63.9671,0.016494
132.579,63.9795,0.016494
132.642,63.9920,0.016494
132.703,64.0043,0.016494
132.765,64.0169,0.016456
132.828,64.0295,0.016456
132.891,64.0419,0.016456
132.952,64.0541,0.016456
133.015,64.0669,0.016409
133.076,64.0789,0.016409
133.139,64.0917,0.016409
133.200,64.1036,0.016409
133.263,64.1163,0.016409
133.326,64.1290,0.016409
133.389,64.1416,0.016409
133.452,64.1541,0.016409
133.514,64.1665,0.016409
133.576,64.1789,0.016409
133.638,64.1913,0.016409
133.700,64.2037,0.016409
133.762,64.2161,0.016409
133.824,64.2285,0.016428
133.887,64.2412,0.016428
133.951,64.2538,0.016428
134.012,64.2663,0.016437
134.074,64.2784,0.016437
134.137,64.2913,0.016437
134.199,64.3035,0.016437
134.260,64.3157,0.016437
134.322,64.3281,0.016437
134.385,64.3408,0.016437
134.446,64.3529,0.016437
134.511,64.3661,0.016353
134.572,64.3782,0.016353
134.635,64.3906,0.016353
134.699,64.4035,0.016353
134.759,64.4158,0.016268
134.821,64.4279,0.016268
134.886,64.4410,0.016268
134.945,64.4529,0.016268
135.007,64.4653,0.016240
135.072,64.4782,0.016240
135.132,64.4902,0.016240
135.195,64.5027,0.016240
135.257,64.5153,0.016212
135.319,64.5274,0.016212
135.381,64.5399,0.016212
135.444,64.5527,0.016212
135.505,64.5647,0.016193
135.567,64.5771,0.016193
135.630,64.5898,0.016193
135.693,64.6023,0.016193
135.756,64.6148,0.016202
135.818,64.6274,0.016202
135.881,64.6399,0.016202
135.941,64.6519,0.016202
136.005,64.6646,0.016174
136.066,64.6770,0.016174
136.128,64.6893,0.016174
136.190,64.7017,0.016174
136.252,64.7132,0.016061
136.314,64.7218,0.016061
136.376,64.7276,0.016061
136.438,64.7303,0.016061
136.500,64.7307,0.016146
136.563,64.7307,0.016146
136.625,64.7307,0.016146
136.686,64.7307,0.016146
136.748,64.7307,0.016268
136.811,64.7307,0.016268
136.874,64.7307,0.016268
136.936,64.7307,0.016268
136.997,64.7307,0.016277
137.060,64.7307,0.016277
137.122,64.7307,0.016277
137.184,64.7307,0.016277
137.248,64.7307,0.016306
137.311,64.7307,0.016306
137.375,64.7307,0.016306
137.438,64.7307,0.016306
137.499,64.7307,0.016306
137.562,64.7307,0.016362
137.624,64.7307,0.016362
137.687,64.7307,0.016362
137.748,64.7307,0.016390
137.810,64.7307,0.016390
137.872,64.7307,0.016390
137.934,64.7307,0.016390
137.996,64.7307,0.016390
138.057,64.7307,0.016390
138.120,64.7307,0.016390
138.182,64.7307,0.016390
138.245,64.7307,0.016400
138.308,64.7307,0.016400
138.370,64.7307,0.016400
138.433,64.7307,0.016400
138.494,64.7307,0.016400
138.556,64.7307,0.016400
138.617,64.7307,0.016400
138.679,64.7307,0.016400
138.741,64.7307,0.016353
138.804,64.7307,0.016353
138.866,64.7307,0.016353
138.928,64.7307,0.016353
138.991,64.7307,0.016409
139.053,64.7307,0.016409
139.115,64.7307,0.016409
139.178,64.7307,0.016409
139.240,64.7307,0.016447
139.302,64.7307,0.016447
139.368,64.7307,0.016447
139.428,64.7307,0.016447
139.491,64.7307,0.016437
139.551,64.7307,0.016437
139.613,64.7307,0.016437
139.675,64.7307,0.016437
139.737,64.7307,0.016494
139.799,64.7307,0.016494
139.863,64.7307,0.016494
139.924,64.7307,0.016494
139.989,64.7307,0.016494
140.049,64.7307,0.016456
140.112,64.7307,0.016456
140.174,64.7307,0.016456
140.236,64.7307,0.016456
140.299,64.7307,0.016428
140.362,64.7307,0.016428
140.424,64.7307,0.016428
140.488,64.7307,0.016456
140.549,64.7307,0.016456
140.611,64.7307,0.016456
140.672,64.7307,0.016456
140.735,64.7307,0.016456
140.797,64.7307,0.016485
140.860,64.7307,0.016485
140.923,64.7307,0.016485
140.986,64.7307,0.016522
141.048,64.7307,0.016522
141.110,64.7298,0.016522
141.173,64.7260,0.016522
141.233,64.7195,0.016513
141.295,64.7101,0.016513
141.358,64.6978,0.016513
141.420,64.6854,0.016513
141.482,64.6731,0.016513
141.545,64.6604,0.016598
141.608,64.6477,0.016598
141.669,64.6357,0.016598
141.733,64.6228,0.016598
141.795,64.6105,0.016786
141.856,64.5982,0.016786
141.919,64.5857,0.016786
141.982,64.5732,0.016786
142.042,64.5609,0.016852
142.106,64.5484,0.016852
142.168,64.5357,0.016852
142.231,64.5232,0.016852
142.294,64.5108,0.016880
142.356,64.4983,0.016880
142.418,64.4859,0.016880
142.480,64.4735,0.016880
142.545,64.4606,0.016899
142.605,64.4484,0.016899
142.667,64.4360,0.016899
142.729,64.4235,0.016927
142.792,64.4111,0.016927
142.854,64.3985,0.016927
142.917,64.3860,0.016927
142.980,64.3736,0.016974
143.042,64.3611,0.016974
143.105,64.3486,0.016974
143.167,64.3362,0.016974
143.229,64.3238,0.016983
143.291,64.3112,0.016983
143.353,64.2990,0.016983
143.416,64.2863,0.016983
143.477,64.2740,0.016983
143.540,64.2615,0.017002
143.601,64.2492,0.017002
143.663,64.2368,0.017002
143.726,64.2243,0.017012
143.789,64.2116,0.017012
143.852,64.1991,0.017012
143.915,64.1865,0.017012
143.978,64.1739,0.017021
144.041,64.1613,0.017021
144.102,64.1491,0.017021
144.163,64.1370,0.017021
144.225,64.1243,0.017096
144.288,64.1118,0.017096
144.350,64.0993,0.017096
144.414,64.0866,0.017096
144.477,64.0740,0.017115
144.540,64.0613,0.017115
144.604,64.0487,0.017115
144.665,64.0363,0.017115
144.729,64.0238,0.017059
144.791,64.0113,0.017059
144.853,63.9989,0.017059
144.915,63.9865,0.017059
144.977,63.9740,0.017049
145.038,63.9619,0.017049
145.101,63.9493,0.017049
145.163,63.9369,0.017049
145.225,63.9245,0.017049
145.288,63.9120,0.017106
145.349,63.8997,0.017106
145.412,63.8871,0.017106
145.473,63.8748,0.017106
145.534,63.8626,0.017125
145.597,63.8502,0.017125
145.660,63.8375,0.017125
145.722,63.8252,0.017153
145.783,63.8130,0.017153
145.846,63.8004,0.017153
145.908,63.7877,0.017153
145.971,63.7753,0.017153
146.034,63.7628,0.017191
146.096,63.7504,0.017191
146.158,63.7378,0.017191
146.221,63.7252,0.017191
146.283,63.7129,0.017181
146.345,63.7005,0.017181
146.410,63.6875,0.017181
146.469,63.6757,0.017181
146.531,63.6632,0.017200
146.593,63.6509,0.017200
146.655,63.6384,0.017200
146.715,63.6265,0.017200
146.777,63.6141,0.017191
146.840,63.6015,0.017191
146.902,63.5890,0.017191
146.965,63.5765,0.017191
147.028,63.5637,0.017181
147.089,63.5516,0.017181
147.150,63.5394,0.017181
147.212,63.5270,0.017181
147.274,63.5146,0.017219
147.336,63.5025,0.017219
147.399,63.4898,0.017219
147.462,63.4772,0.017219
147.525,63.4645,0.017191
147.587,63.4521,0.017191
147.649,63.4396,0.017191
147.712,63.4272,0.017134
147.774,63.4147,0.017134
147.837,63.4020,0.017134
147.898,63.3896,0.017134
147.960,63.3773,0.017134
148.023,63.3648,0.017106
148.085,63.3523,0.017106
148.148,63.3398,0.017106
148.211,63.3274,0.017106
148.272,63.3151,0.017144
148.334,63.3027,0.017144
148.396,63.2904,0.017144
148.457,63.2780,0.017144
148.519,63.2657,0.017172
148.581,63.2534,0.017172
148.642,63.2409,0.017172
148.706,63.2284,0.017172
148.767,63.2160,0.017115
148.830,63.2036,0.017115
148.892,63.1911,0.017115
148.955,63.1787,0.017115
149.017,63.1661,0.017078
149.080,63.1535,0.017078
149.143,63.1410,0.017078
149.205,63.1284,0.017078
149.267,63.1161,0.017078
149.329,63.1036,0.017078
149.391,63.0913,0.017078
149.453,63.0788,0.017078
149.517,63.0662,0.017068
149.578,63.0540,0.017068
149.640,63.0415,0.017068
149.702,63.0292,0.017068
149.764,63.0167,0.017031
149.827,63.0040,0.017031
149.890,62.9915,0.017031
149.951,62.9792,0.017031
150.014,62.9666,0.017078
150.075,62.9545,0.017078
150.138,62.9420,0.017078
150.202,62.9291,0.017078
150.263,62.9170,0.017078
150.326,62.9043,0.017078
150.388,62.8919,0.017078
150.450,62.8795,0.017078
150.513,62.8669,0.017040
150.575,62.8545,0.017040
150.637,62.8419,0.017040
150.698,62.8298,0.017040
150.761,62.8175,0.017031
150.823,62.8047,0.017031
150.885,62.7924,0.017031
150.947,62.7799,0.017031
151.011,62.7674,0.017012
151.070,62.7556,0.017012
151.133,62.7431,0.017012
151.195,62.7304,0.017012
151.257,62.7182,0.017021
151.320,62.7055,0.017021
151.383,62.6930,0.017021
151.446,62.6805,0.017021
151.507,62.6678,0.016993
151.570,62.6555,0.016993
151.631,62.6435,0.016993
151.694,62.6308,0.016993
151.757,62.6182,0.016983
151.819,62.6058,0.016983
151.881,62.5934,0.016983
151.943,62.5809,0.016983
152.006,62.5685,0.016936
152.068,62.5559,0.016936
152.130,62.5437,0.016936
152.192,62.5311,0.016936
152.255,62.5186,0.016889
152.317,62.5061,0.016889
152.378,62.4939,0.016889
152.440,62.4815,0.016889
152.503,62.4690,0.016908
152.565,62.4563,0.016908
152.629,62.4437,0.016908
152.691,62.4313,0.016908
152.753,62.4188,0.016889
152.816,62.4062,0.016889
152.878,62.3937,0.016889
152.939,62.3816,0.016889
153.003,62.3689,0.016871
153.064,62.3569,0.016871
153.126,62.3443,0.016871
153.188,62.3319,0.016871
153.252,62.3193,0.016842
153.313,62.3069,0.016842
153.379,62.2937,0.016842
153.441,62.2813,0.016842
153.501,62.2693,0.016758
153.563,62.2569,0.016758
153.625,62.2444,0.016758
153.688,62.2320,0.016758
153.749,62.2197,0.016720
153.814,62.2068,0.016720
153.874,62.1947,0.016720
153.935,62.1825,0.016720
153.998,62.1698,0.016710
154.061,62.1574,0.016710
154.123,62.1449,0.016710
154.185,62.1325,0.016710
154.246,62.1204,0.016710
154.308,62.1078,0.016692
154.370,62.0954,0.016692
154.433,62.0830,0.016692
154.496,62.0704,0.016663
154.558,62.0580,0.016663
154.621,62.0455,0.016663
154.684,62.0329,0.016663
154.746,62.0204,0.016645
154.808,62.0081,0.016645
154.870,61.9956,0.016645
154.933,61.9829,0.016645
154.995,61.9704,0.016645
155.057,61.9581,0.016645
155.118,61.9459,0.016645
155.180,61.9336,0.016645
155.243,61.9211,0.016598
155.306,61.9084,0.016598
155.368,61.8959,0.016598
155.431,61.8835,0.016598
155.492,61.8712,0.016588
155.554,61.8587,0.016588
155.617,61.8460,0.016588
155.681,61.8332,0.016588
155.743,61.8210,0.016588
155.805,61.8087,0.016588
155.865,61.7964,0.016588
155.929,61.7838,0.016588
155.991,61.7715,0.016588
156.053,61.7588,0.016494
156.115,61.7464,0.016494
156.177,61.7343,0.016494
156.239,61.7218,0.016494
156.301,61.7092,0.016494
156.363,61.6971,0.016494
156.424,61.6845,0.016494
156.487,61.6723,0.016494
156.550,61.6595,0.016513
156.614,61.6468,0.016513
156.676,61.6344,0.016513
156.739,61.6218,0.016513
156.802,61.6093,0.016428
156.864,61.5967,0.016428
156.927,61.5841,0.016428
156.989,61.5717,0.016428
157.050,61.5595,0.016419
157.113,61.5470,0.016419
157.174,61.5346,0.016419
157.236,61.5223,0.016419
157.299,61.5098,0.016428
157.361,61.4975,0.016428
157.425,61.4846,0.016428
157.486,61.4725,0.016428
157.547,61.4602,0.016372
157.608,61.4480,0.016372
157.671,61.4353,0.016372
157.734,61.4227,0.016353
157.795,61.4105,0.016353
157.858,61.3981,0.016353
157.920,61.3856,0.016353
157.982,61.3731,0.016362
158.045,61.3603,0.016362
158.108,61.3481,0.016362
158.169,61.3358,0.016362
158.231,61.3234,0.016324
158.294,61.3107,0.016324
158.356,61.2985,0.016324
158.417,61.2862,0.016324
158.479,61.2738,0.016334
158.541,61.2614,0.016334
158.604,61.2489,0.016334
158.666,61.2364,0.016334
158.729,61.2238,0.016381
158.790,61.2116,0.016381
158.853,61.1991,0.016381
158.914,61.1868,0.016381
158.976,61.1744,0.016334
159.038,61.1619,0.016334
159.101,61.1494,0.016334
159.165,61.1366,0.016334
159.225,61.1246,0.016334
159.289,61.1118,0.016287
159.350,61.0995,0.016287
159.413,61.0870,0.016287
159.474,61.0748,0.016287
159.537,61.0621,0.016296
159.598,61.0500,0.016296
159.660,61.0376,0.016296
159.723,61.0249,0.016277
159.785,61.0126,0.016277
159.847,61.0002,0.016277
159.910,60.9877,0.016277
159.972,60.9754,0.016277
160.035,60.9626,0.016221
160.096,60.9503,0.016221
160.159,60.9376,0.016221
160.224,60.9249,0.016221
160.285,60.9126,0.016221
160.347,60.9002,0.016221
160.410,60.8877,0.016221
160.472,60.8752,0.016174
160.533,60.8629,0.016174
160.596,60.8505,0.016174
160.658,60.8378,0.016174
160.720,60.8256,0.016174
160.781,60.8132,0.016108
160.845,60.8004,0.016108
160.905,60.7885,0.016108
160.970,60.7757,0.016108
161.031,60.7633,0.016033
161.094,60.7509,0.016033
161.157,60.7381,0.016033
161.219,60.7257,0.016033
161.281,60.7134,0.015986
161.343,60.7014,0.015986
161.405,60.6919,0.015986
161.467,60.6853,0.015891
161.529,60.6816,0.015891
161.591,60.6807,0.015891
161.653,60.6807,0.015891
161.713,60.6807,0.015891
161.775,60.6808,0.015816
161.838,60.6829,0.015816
161.902,60.6881,0.015816
161.964,60.6963,0.015816
162.026,60.7075,0.015750
162.089,60.7200,0.015750
162.152,60.7324,0.015750
162.214,60.7449,0.015750
162.275,60.7571,0.015703
162.337,60.7694,0.015703
162.399,60.7820,0.015703
162.462,60.7946,0.015703
162.523,60.8067,0.015750
162.587,60.8194,0.015750
162.648,60.8319,0.015750
162.712,60.8444,0.015750
162.773,60.8567,0.015731
162.836,60.8692,0.015731
162.897,60.8816,0.015731
162.960,60.8940,0.015731
163.022,60.9065,0.015684
163.084,60.9189,0.015684
163.147,60.9316,0.015684
163.206,60.9434,0.015684
163.267,60.9554,0.015628
163.329,60.9679,0.015628
163.393,60.9805,0.015628
163.455,60.9930,0.015628
163.518,61.0056,0.015609
163.580,61.0180,0.015609
163.641,61.0302,0.015609
163.703,61.0427,0.015609
163.767,61.0555,0.015618
163.828,61.0678,0.015618
163.892,61.0804,0.015618
163.954,61.0928,0.015618
164.016,61.1052,0.015600
164.077,61.1175,0.015600
164.139,61.1299,0.015600
164.201,61.1422,0.015600
164.264,61.1548,0.015581
164.325,61.1671,0.015581
164.387,61.1796,0.015581
164.450,61.1919,0.015581
164.513,61.2047,0.015581
164.576,61.2172,0.015581
164.638,61.2296,0.015581
164.700,61.2419,0.015581
164.762,61.2544,0.015581
164.824,61.2668,0.015581
164.887,61.2795,0.015581
164.950,61.2921,0.015581
165.012,61.3044,0.015534
165.074,61.3168,0.015534
165.139,61.3298,0.015534
165.199,61.3419,0.015534
165.261,61.3543,0.015515
165.324,61.3668,0.015515
165.386,61.3793,0.015515
165.448,61.3916,0.015515
165.510,61.4041,0.015505
165.574,61.4168,0.015505
165.634,61.4288,0.015505
165.696,61.4413,0.015505
165.761,61.4544,0.015496
165.821,61.4663,0.015496
165.884,61.4787,0.015496
165.944,61.4908,0.015496
166.006,61.5032,0.015468
166.068,61.5157,0.015468
166.130,61.5282,0.015468
166.192,61.5406,0.015468
166.255,61.5532,0.015468
166.318,61.5655,0.015468
166.380,61.5783,0.015468
166.441,61.5903,0.015468
166.503,61.6028,0.015440
166.566,61.6153,0.015440
166.629,61.6279,0.015440
166.692,61.6404,0.015440
166.754,61.6529,0.015524
166.817,61.6654,0.015524
166.879,61.6781,0.015524
166.941,61.6901,0.015524
167.004,61.7029,0.015524
167.066,61.7153,0.015505
167.127,61.7275,0.015505
167.189,61.7400,0.015505
167.252,61.7524,0.015402
167.314,61.7649,0.015402
167.376,61.7774,0.015402
167.439,61.7900,0.015402
167.501,61.8022,0.015487
167.561,61.8143,0.015487
167.623,61.8266,0.015487
167.684,61.8388,0.015487
167.747,61.8515,0.015496
167.808,61.8636,0.015496
167.870,61.8763,0.015496
167.934,61.8888,0.015496
167.996,61.9012,0.015449
168.059,61.9137,0.015449
168.122,61.9264,0.015449
168.183,61.9387,0.015449
168.246,61.9512,0.015430
168.308,61.9635,0.015430
168.370,61.9760,0.015430
168.433,61.9885,0.015430
168.494,62.0009,0.015449
168.556,62.0132,0.015449
168.618,62.0257,0.015449
168.680,62.0380,0.015449
168.743,62.0508,0.015449
168.806,62.0632,0.015458
168.868,62.0756,0.015458
168.929,62.0877,0.015458
168.992,62.1003,0.015477
169.054,62.1127,0.015477
169.116,62.1252,0.015477
169.179,62.1379,0.015477
169.241,62.1503,0.015440
169.304,62.1627,0.015440
169.366,62.1752,0.015440
169.427,62.1875,0.015440
169.490,62.2000,0.015440
169.553,62.2125,0.015440
169.615,62.2250,0.015440
169.678,62.2376,0.015440
169.740,62.2498,0.015505
169.801,62.2621,0.015505
169.862,62.2746,0.015505
169.925,62.2871,0.015505
169.988,62.2997,0.015421
170.050,62.3121,0.015421
170.113,62.3246,0.015421
170.177,62.3374,0.015421
170.238,62.3498,0.015355
170.299,62.3618,0.015355
170.361,62.3741,0.015355
170.423,62.3866,0.015355
170.485,62.3992,0.015402
170.548,62.4114,0.015402
170.611,62.4242,0.015402
170.672,62.4364,0.015402
170.734,62.4488,0.015402
170.799,62.4618,0.015487
170.859,62.4740,0.015487
170.920,62.4860,0.015487
170.984,62.4988,0.015487
171.047,62.5114,0.015515
171.110,62.5239,0.015515
171.170,62.5361,0.015515
171.235,62.5490,0.015477
171.297,62.5614,0.015477
171.359,62.5737,0.015477
171.421,62.5863,0.015477
171.482,62.5983,0.015440
171.545,62.6110,0.015440
171.606,62.6232,0.015440
171.670,62.6361,0.015440
171.730,62.6480,0.015440
171.792,62.6604,0.015411
171.854,62.6726,0.015411
171.916,62.6852,0.015411
171.977,62.6976,0.015411
172.042,62.7103,0.015468
172.102,62.7224,0.015468
172.164,62.7349,0.015468
172.226,62.7474,0.015468
172.289,62.7598,0.015505
172.349,62.7719,0.015505
172.412,62.7845,0.015505
172.476,62.7972,0.015505
172.537,62.8094,0.015477
172.601,62.8221,0.015477
172.661,62.8342,0.015477
172.723,62.8468,0.015477
172.786,62.8592,0.015458
172.848,62.8718,0.015458
172.912,62.8845,0.015458
172.973,62.8966,0.015458
173.035,62.9090,0.015458
173.095,62.9211,0.015458
173.158,62.9336,0.015458
173.220,62.9461,0.015458
173.282,62.9584,0.015458
173.344,62.9709,0.015458
173.406,62.9831,0.015458
173.468,62.9957,0.015458
173.529,63.0079,0.015430
173.591,63.0202,0.015430
173.654,63.0327,0.015430
173.716,63.0452,0.015430
173.780,63.0580,0.015411
173.840,63.0700,0.015411
173.904,63.0827,0.015411
173.968,63.0954,0.015411
174.028,63.1077,0.015402
174.089,63.1199,0.015402
174.151,63.1321,0.015402
174.213,63.1445,0.015402
174.275,63.1570,0.015421
174.336,63.1691,0.015421
174.399,63.1816,0.015421
174.461,63.1943,0.015421
174.525,63.2071,0.015468
174.587,63.2193,0.015468
174.648,63.2316,0.015468
174.710,63.2440,0.015449
174.772,63.2564,0.015449
174.834,63.2687,0.015449
174.897,63.2812,0.015449
174.960,63.2939,0.015449
175.021,63.3062,0.015430
175.084,63.3189,0.015430
175.148,63.3316,0.015430
175.211,63.3442,0.015430
175.273,63.3566,0.015430
175.336,63.3690,0.015430
175.398,63.3816,0.015430
175.460,63.3940,0.015449
175.522,63.4064,0.015449
175.584,63.4188,0.015449
175.646,63.4312,0.015449
175.708,63.4437,0.015449
175.769,63.4558,0.015477
175.832,63.4682,0.015477
175.896,63.4811,0.015477
175.958,63.4937,0.015477
176.021,63.5061,0.015449
176.083,63.5186,0.015449
176.146,63.5311,0.015449
176.208,63.5435,0.015449
176.269,63.5557,0.015487
176.331,63.5681,0.015487
176.393,63.5806,0.015487
176.456,63.5931,0.015487
176.519,63.6058,0.015600
176.582,63.6183,0.015600
176.644,63.6307,0.015600
176.706,63.6430,0.015600
176.769,63.6556,0.015778
176.830,63.6681,0.015778
176.892,63.6803,0.015778
176.955,63.6929,0.015778
177.017,63.7054,0.015939
177.079,63.7178,0.015939
177.141,63.7302,0.015939
177.204,63.7427,0.015939
177.266,63.7551,0.016014
177.326,63.7671,0.016014
177.388,63.7795,0.016014
177.452,63.7923,0.016014
177.513,63.8046,0.016089
177.575,63.8171,0.016089
177.639,63.8297,0.016089
177.698,63.8416,0.016089
177.761,63.8541,0.016183
177.821,63.8662,0.016183
177.884,63.8788,0.016183
177.946,63.8912,0.016183
178.009,63.9037,0.016268
178.071,63.9161,0.016268
178.133,63.9287,0.016268
178.195,63.9409,0.016268
178.257,63.9534,0.016400
178.320,63.9660,0.016400
178.382,63.9784,0.016400
178.444,63.9908,0.016400
178.507,64.0035,0.016522
178.569,64.0157,0.016522
178.631,64.0282,0.016522
178.694,64.0407,0.016522
178.757,64.0533,0.016522
178.817,64.0655,0.016494
178.880,64.0781,0.016494
178.942,64.0902,0.016494
179.009,64.1036,0.016494
179.067,64.1153,0.016456
179.130,64.1279,0.016456
179.191,64.1401,0.016456
179.253,64.1525,0.016447
179.316,64.1651,0.016447
179.380,64.1779,0.016447
179.441,64.1901,0.016447
179.502,64.2023,0.016428
179.564,64.2149,0.016428
179.626,64.2273,0.016428
179.688,64.2397,0.016428
179.751,64.2522,0.016400
179.814,64.2649,0.016400
179.877,64.2774,0.016400
179.940,64.2902,0.016400
180.003,64.3026,0.016400
180.065,64.3150,0.016400
180.127,64.3274,0.016400
180.189,64.3398,0.016400
180.251,64.3522,0.016400
180.314,64.3647,0.016400
180.377,64.3773,0.016400
180.440,64.3901,0.016400
180.503,64.4026,0.016306
180.566,64.4152,0.016306
180.628,64.4277,0.016306
180.690,64.4400,0.016306
180.753,64.4526,0.016240
180.813,64.4645,0.016240
180.875,64.4769,0.016240
180.937,64.4893,0.016240
181.000,64.5019,0.016202
181.061,64.5141,0.016202
181.123,64.5265,0.016202
181.186,64.5389,0.016202
181.248,64.5515,0.016146
181.311,64.5640,0.016146
181.373,64.5764,0.016146
181.434,64.5888,0.016146
181.497,64.6012,0.016117
181.560,64.6140,0.016117
181.622,64.6265,0.016117
181.683,64.6387,0.016117
181.745,64.6511,0.016117
181.807,64.6625,0.016099
181.869,64.6713,0.016099
181.932,64.6774,0.016099
181.994,64.6803,0.016127
182.056,64.6807,0.016127
182.119,64.6807,0.016127
182.182,64.6807,0.016127
182.245,64.6807,0.016259
182.307,64.6807,0.016259
182.368,64.6807,0.016259
182.430,64.6807,0.016259
182.492,64.6807,0.016353
182.555,64.6807,0.016353
182.618,64.6807,0.016353
182.681,64.6807,0.016353
182.743,64.6807,0.016353
182.805,64.6807,0.016343
182.869,64.6807,0.016343
182.930,64.6807,0.016343
182.992,64.6807,0.016353
183.053,64.6807,0.016353
183.113,64.6807,0.016353
183.177,64.6807,0.016353
183.239,64.6807,0.016353
183.302,64.6807,0.016400
183.364,64.6807,0.016400
183.427,64.6807,0.016400
183.490,64.6807,0.016381
183.553,64.6807,0.016381
183.616,64.6807,0.016381
183.679,64.6807,0.016381
183.742,64.6807,0.016409
183.804,64.6807,0.016409
183.866,64.6807,0.016409
183.929,64.6807,0.016409
183.991,64.6807,0.016409
184.053,64.6807,0.016409
184.115,64.6807,0.016409
184.176,64.6807,0.016409
184.239,64.6807,0.016409
184.301,64.6807,0.016409
184.363,64.6807,0.016409
184.425,64.6807,0.016409
184.489,64.6807,0.016447
184.551,64.6807,0.016447
184.613,64.6807,0.016447
184.676,64.6807,0.016447
184.738,64.6807,0.016419
184.801,64.6807,0.016419
184.864,64.6807,0.016419
184.925,64.6807,0.016419
184.988,64.6807,0.016428
185.051,64.6807,0.016428
185.112,64.6807,0.016428
185.175,64.6807,0.016428
185.237,64.6807,0.016485
185.299,64.6807,0.016485
185.363,64.6807,0.016485
185.424,64.6807,0.016485
185.488,64.6807,0.016485
185.549,64.6807,0.016485
185.611,64.6807,0.016485
185.673,64.6807,0.016485
185.738,64.6807,0.016390
185.797,64.6807,0.016390
185.860,64.6807,0.016390
185.923,64.6807,0.016390
185.983,64.6807,0.016390
186.045,64.6807,0.016362
186.107,64.6807,0.016362
186.169,64.6807,0.016362
186.230,64.6807,0.016447
186.294,64.6800,0.016447
186.355,64.6765,0.016447
186.418,64.6699,0.016447
186.481,64.6605,0.016607
186.542,64.6486,0.016607
186.606,64.6359,0.016607
186.666,64.6238,0.016607
186.728,64.6112,0.016682
186.789,64.5992,0.016682
186.851,64.5869,0.016682
186.913,64.5744,0.016682
186.976,64.5619,0.016701
187.038,64.5494,0.016701
187.100,64.5371,0.016701
187.162,64.5246,0.016701
187.224,64.5123,0.016814
187.287,64.4996,0.016814
187.349,64.4872,0.016814
187.412,64.4747,0.016814
187.475,64.4620,0.016880
187.538,64.4494,0.016880
187.600,64.4371,0.016880
187.662,64.4245,0.016880
187.725,64.4122,0.016946
187.788,64.3995,0.016946
187.849,64.3874,0.016946
187.911,64.3749,0.016946
187.974,64.3622,0.016965
188.036,64.3498,0.016965
188.099,64.3373,0.016965
188.161,64.3249,0.016965
188.223,64.3125,0.016965
188.284,64.3002,0.016965
188.346,64.2877,0.016965
188.408,64.2753,0.016965
188.471,64.2629,0.016965
188.533,64.2503,0.016965
188.595,64.2379,0.016965
188.657,64.2254,0.016965
188.721,64.2128,0.016965
188.783,64.2005,0.017002
188.845,64.1881,0.017002
188.906,64.1758,0.017002
188.968,64.1634,0.017002
189.030,64.1511,0.017078
189.092,64.1387,0.017078
189.154,64.1262,0.017078
189.217,64.1138,0.017078
189.279,64.1013,0.017096
189.342,64.0885,0.017096
189.403,64.0763,0.017096
189.464,64.0643,0.017096
189.527,64.0517,0.017068
189.589,64.0393,0.017068
189.651,64.0270,0.017068
189.713,64.0146,0.017068
189.775,64.0020,0.017012
189.837,63.9896,0.017012
189.900,63.9771,0.017012
189.961,63.9647,0.017012
190.024,63.9522,0.017059
190.088,63.9395,0.017059
190.150,63.9271,0.017059
190.211,63.9149,0.017059
190.274,63.9023,0.017125
190.335,63.8902,0.017125
190.397,63.8775,0.017125
190.460,63.8651,0.017125
190.521,63.8528,0.017078
190.584,63.8401,0.017078
190.647,63.8277,0.017078
190.710,63.8150,0.017031
190.773,63.8025,0.017031
190.835,63.7901,0.017031
190.898,63.7773,0.017031
190.962,63.7645,0.017068
191.026,63.7516,0.017068
191.089,63.7391,0.017068
191.151,63.7267,0.017068
191.215,63.7141,0.017068
191.277,63.7015,0.017106
191.340,63.6890,0.017106
191.401,63.6769,0.017106
191.463,63.6645,0.017087
191.525,63.6521,0.017087
191.588,63.6395,0.017087
191.651,63.6269,0.017087
191.714,63.6142,0.017087
191.776,63.6018,0.017096
191.837,63.5895,0.017096
191.900,63.5771,0.017096
191.964,63.5644,0.017096
192.025,63.5521,0.017087
192.089,63.5391,0.017087
192.151,63.5267,0.017087
192.216,63.5136,0.017087
192.276,63.5017,0.017115
192.339,63.4893,0.017115
192.400,63.4771,0.017115
192.462,63.4647,0.017115
192.522,63.4526,0.017068
192.586,63.4400,0.017068
192.649,63.4274,0.017068
192.711,63.4148,0.017068
192.772,63.4025,0.017068
192.834,63.3902,0.017068
192.896,63.3778,0.017068
192.958,63.3654,0.017068
193.021,63.3529,0.017144
193.083,63.3405,0.017144
193.146,63.3280,0.017144
193.208,63.3156,0.017144
193.269,63.3033,0.017078
193.332,63.2908,0.017078
193.395,63.2782,0.017078
193.457,63.2656,0.017078
193.520,63.2532,0.017078
193.583,63.2405,0.017078
193.645,63.2281,0.017078
193.707,63.2157,0.017078
193.770,63.2031,0.017096
193.832,63.1906,0.017096
193.894,63.1784,0.017096
193.956,63.1659,0.017096
194.018,63.1535,0.017059
194.080,63.1411,0.017059
194.143,63.1283,0.017059
194.206,63.1159,0.017059
194.267,63.1036,0.017031
194.330,63.0912,0.017031
194.392,63.0787,0.017031
194.455,63.0663,0.017031
194.516,63.0539,0.016993
194.579,63.0415,0.016993
194.641,63.0290,0.016993
194.703,63.0166,0.016993
194.765,63.0039,0.017002
194.827,62.9916,0.017002
194.889,62.9793,0.017002
194.951,62.9669,0.017002
195.014,62.9543,0.016993
195.076,62.9419,0.016993
195.139,62.9292,0.016993
195.201,62.9168,0.016993
195.264,62.9043,0.016955
195.327,62.8917,0.016955
195.388,62.8794,0.016955
195.450,62.8669,0.016955
195.513,62.8545,0.016918
195.575,62.8419,0.016918
195.637,62.8297,0.016918
195.698,62.8173,0.016918
195.760,62.8050,0.016927
195.823,62.7926,0.016927
195.885,62.7799,0.016927
195.947,62.7676,0.016927
196.010,62.7550,0.016946
196.072,62.7426,0.016946
196.135,62.7302,0.016946
196.197,62.7177,0.016946
196.260,62.7051,0.016908
196.322,62.6925,0.016908
196.386,62.6800,0.016908
196.448,62.6674,0.016908
196.511,62.6549,0.016927
196.575,62.6421,0.016927
196.636,62.6299,0.016927
196.698,62.6174,0.016927
196.761,62.6049,0.016946
196.822,62.5926,0.016946
196.884,62.5802,0.016946
196.946,62.5678,0.016946
197.009,62.5554,0.016889
197.072,62.5427,0.016889
197.135,62.5299,0.016889
197.196,62.5180,0.016889
197.257,62.5057,0.016880
197.318,62.4935,0.016880
197.380,62.4811,0.016880
197.442,62.4686,0.016880
197.505,62.4561,0.016880
197.568,62.4434,0.016833
197.631,62.4310,0.016833
197.693,62.4184,0.016833
197.756,62.4059,0.016833
197.819,62.3932,0.016786
197.881,62.3811,0.016786
197.943,62.3685,0.016786
198.003,62.3564,0.016833
198.066,62.3440,0.016833
198.128,62.3316,0.016833
198.191,62.3189,0.016833
198.254,62.3064,0.016861
198.316,62.2940,0.016861
198.378,62.2816,0.016861
198.438,62.2696,0.016861
198.500,62.2572,0.016767
198.563,62.2445,0.016767
198.626,62.2320,0.016767
198.687,62.2196,0.016767
198.748,62.2076,0.016720
198.810,62.1951,0.016720
198.873,62.1826,0.016720
198.934,62.1702,0.016720
198.997,62.1577,0.016682
199.061,62.1450,0.016682
199.123,62.1326,0.016682
199.186,62.1199,0.016682
199.249,62.1075,0.016635
199.311,62.0949,0.016635
199.374,62.0824,0.016635
199.436,62.0700,0.016635
199.498,62.0574,0.016626
199.561,62.0450,0.016626
199.623,62.0326,0.016626
199.685,62.0202,0.016626
199.746,62.0079,0.016588
199.809,61.9953,0.016588
199.871,61.9829,0.016588
199.934,61.9703,0.016588
199.995,61.9580,0.016569
200.057,61.9457,0.016569
200.119,61.9331,0.016569
200.183,61.9204,0.016569
200.244,61.9083,0.016588
200.306,61.8958,0.016588
200.369,61.8832,0.016588
200.433,61.8705,0.016588
200.497,61.8576,0.016579
200.558,61.8454,0.016579
200.620,61.8331,0.016579
200.682,61.8207,0.016579
200.746,61.8079,0.016522
200.808,61.7955,0.016522
200.869,61.7831,0.016522
200.931,61.7709,0.016522
200.993,61.7583,0.016494
201.058,61.7456,0.016494
201.117,61.7335,0.016494
201.181,61.7209,0.016494
201.242,61.7087,0.016494
201.306,61.6961,0.016494
201.368,61.6834,0.016494
201.430,61.6709,0.016494
201.492,61.6587,0.016513
201.554,61.6463,0.016513
201.615,61.6342,0.016513
201.676,61.6219,0.016513
201.739,61.6091,0.016513
201.802,61.5966,0.016513
201.868,61.5835,0.016513
201.927,61.5717,0.016513
201.989,61.5592,0.016513
202.051,61.5469,0.016456
202.112,61.5347,0.016456
202.175,61.5221,0.016456
202.238,61.5094,0.016456
202.302,61.4968,0.016419
202.364,61.4842,0.016419
202.427,61.4717,0.016419
202.489,61.4592,0.016419
202.550,61.4470,0.016447
202.612,61.4348,0.016447
202.674,61.4225,0.016447
202.736,61.4100,0.016447
202.798,61.3974,0.016428
202.860,61.3853,0.016428
202.922,61.3729,0.016428
202.983,61.3605,0.016428
203.046,61.3478,0.016362
203.110,61.3352,0.016362
203.170,61.3231,0.016362
203.233,61.3106,0.016353
203.296,61.2981,0.016353
203.358,61.2857,0.016353
203.419,61.2733,0.016353
203.483,61.2606,0.016343
203.545,61.2482,0.016343
203.606,61.2361,0.016343
203.669,61.2234,0.016343
203.731,61.2108,0.016249
203.793,61.1985,0.016249
203.854,61.1862,0.016249
203.917,61.1738,0.016249
203.980,61.1613,0.016249
204.042,61.1488,0.016240
204.104,61.1360,0.016240
204.165,61.1241,0.016240
204.228,61.1116,0.016240
204.290,61.0990,0.016240
204.353,61.0865,0.016240
204.415,61.0741,0.016240
204.476,61.0618,0.016240
204.540,61.0490,0.016183
204.600,61.0371,0.016183
204.665,61.0240,0.016183
204.725,61.0122,0.016183
204.787,60.9997,0.016221
204.850,60.9872,0.016221
204.913,60.9745,0.016221
204.975,60.9621,0.016221
205.037,60.9498,0.016230
205.099,60.9372,0.016230
205.162,60.9248,0.016230
205.225,60.9121,0.016230
205.286,60.8998,0.016183
205.348,60.8874,0.016183
205.411,60.8749,0.016183
205.474,60.8624,0.016183
205.536,60.8499,0.016108
205.596,60.8380,0.016108
205.660,60.8251,0.016108
205.720,60.8132,0.016108
205.782,60.8008,0.016051
205.846,60.7880,0.016051
205.908,60.7753,0.016051
205.971,60.7631,0.016051
206.033,60.7505,0.016033
206.095,60.7381,0.016033
206.158,60.7255,0.016033
206.222,60.7128,0.015986
206.284,60.7002,0.015986
206.346,60.6880,0.015986
206.407,60.6757,0.015986
206.471,60.6630,0.015986
206.533,60.6509,0.015910
206.596,60.6415,0.015910
206.659,60.6349,0.015910
206.722,60.6315,0.015722
206.784,60.6307,0.015722
206.845,60.6307,0.015722
206.907,60.6311,0.015722
206.969,60.6339,0.015637
207.032,60.6399,0.015637
207.095,60.6487,0.015637
207.156,60.6601,0.015637
207.219,60.6726,0.015637
207.280,60.6850,0.015609
207.343,60.6974,0.015609
207.406,60.7100,0.015609
207.467,60.7222,0.015581
207.530,60.7349,0.015581
207.591,60.7472,0.015581
207.653,60.7595,0.015581
207.716,60.7721,0.015581
207.777,60.7844,0.015656
207.839,60.7967,0.015656
207.900,60.8089,0.015656
207.962,60.8212,0.015656
208.025,60.8337,0.015618
208.086,60.8461,0.015618
208.148,60.8584,0.015618
208.210,60.8710,0.015618
208.273,60.8835,0.015562
208.334,60.8958,0.015562
208.396,60.9082,0.015562
208.458,60.9206,0.015562
208.521,60.9330,0.015553
208.583,60.9455,0.015553
208.645,60.9579,0.015553
208.710,60.9708,0.015553
208.770,60.9829,0.015505
208.835,60.9960,0.015505
208.896,61.0080,0.015505
208.958,61.0204,0.015505
209.019,61.0328,0.015449
209.081,61.0451,0.015449
209.142,61.0572,0.015449
209.204,61.0696,0.015449
209.264,61.0818,0.015430
209.327,61.0943,0.015430
209.389,61.1067,0.015430
209.451,61.1192,0.015430
209.514,61.1316,0.015449
209.579,61.1448,0.015449
209.639,61.1568,0.015449
209.702,61.1695,0.015449
209.765,61.1819,0.015449
209.828,61.1944,0.015449
209.890,61.2069,0.015449
209.953,61.2193,0.015449
210.016,61.2320,0.015430
210.079,61.2448,0.015430
210.140,61.2570,0.015430
210.203,61.2696,0.015430
210.265,61.2817,0.015411
210.327,61.2941,0.015411
210.388,61.3065,0.015411
210.450,61.3190,0.015411
210.512,61.3312,0.015402
210.574,61.3437,0.015402
210.636,61.3560,0.015402
210.697,61.3684,0.015402
210.760,61.3808,0.015411
210.823,61.3935,0.015411
210.887,61.4062,0.015411
210.949,61.4186,0.015411
211.015,61.4318,0.015440
211.076,61.4439,0.015440
211.138,61.4563,0.015440
211.200,61.4687,0.015440
211.262,61.4815,0.015449
211.325,61.4940,0.015449
211.388,61.5064,0.015449
211.449,61.5188,0.015449
211.513,61.5315,0.015496
211.575,61.5439,0.015496
211.637,61.5564,0.015496
211.700,61.5688,0.015496
211.762,61.5812,0.015487
211.824,61.5935,0.015487
211.886,61.6059,0.015487
211.949,61.6186,0.015487
212.012,61.6311,0.015430
212.073,61.6435,0.015430
212.136,61.6559,0.015430
212.198,61.6685,0.015430
212.261,61.6812,0.015411
212.323,61.6934,0.015411
212.385,61.7058,0.015411
212.447,61.7183,0.015411
212.510,61.7308,0.015430
212.573,61.7433,0.015430
212.636,61.7561,0.015430
212.698,61.7684,0.015430
212.759,61.7807,0.015468
212.822,61.7932,0.015468
212.885,61.8058,0.015468
212.948,61.8185,0.015468
213.010,61.8309,0.015458
213.071,61.8430,0.015458
213.132,61.8554,0.015458
213.193,61.8676,0.015458
213.256,61.8799,0.015458
213.318,61.8924,0.015440
213.381,61.9049,0.015440
213.442,61.9173,0.015440
213.505,61.9300,0.015421
213.567,61.9424,0.015421
213.630,61.9550,0.015421
213.693,61.9676,0.015421
213.754,61.9797,0.015421
213.816,61.9921,0.015411
213.877,62.0043,0.015411
213.939,62.0167,0.015411
214.003,62.0293,0.015449
214.065,62.0420,0.015449
214.128,62.0546,0.015449
214.191,62.0673,0.015449
214.253,62.0796,0.015449
214.314,62.0916,0.015449
214.377,62.1042,0.015449
214.440,62.1169,0.015449
214.503,62.1295,0.015430
214.566,62.1419,0.015430
214.627,62.1542,0.015430
214.689,62.1666,0.015430
214.753,62.1795,0.015449
214.815,62.1919,0.015449
214.877,62.2043,0.015449
214.938,62.2165,0.015449
215.000,62.2289,0.015421
215.061,62.2410,0.015421
215.122,62.2533,0.015421
215.185,62.2658,0.015421
215.247,62.2782,0.015421
215.310,62.2906,0.015421
215.372,62.3032,0.015421
215.435,62.3158,0.015421
215.496,62.3280,0.015411
215.559,62.3405,0.015411
215.621,62.3529,0.015411
215.683,62.3654,0.015411
215.745,62.3780,0.015392
215.807,62.3902,0.015392
215.869,62.4026,0.015392
215.932,62.4150,0.015392
215.994,62.4276,0.015449
216.057,62.4402,0.015449
216.119,62.4527,0.015449
216.182,62.4653,0.015449
216.244,62.4776,0.015477
216.305,62.4898,0.015477
216.367,62.5022,0.015477
216.429,62.5146,0.015477
216.492,62.5272,0.015477
216.554,62.5397,0.015430
216.616,62.5520,0.015430
216.679,62.5645,0.015430
216.741,62.5769,0.015430
216.803,62.5894,0.015430
216.865,62.6018,0.015430
216.927,62.6142,0.015430
216.989,62.6265,0.015487
217.050,62.6388,0.015487
217.113,62.6516,0.015487
217.175,62.6640,0.015487
217.237,62.6762,0.015458
217.299,62.6888,0.015458
217.362,62.7014,0.015458
217.425,62.7139,0.015458
217.488,62.7266,0.015458
217.551,62.7391,0.015458
217.612,62.7513,0.015458
217.674,62.7637,0.015458
217.735,62.7760,0.015487
217.798,62.7884,0.015487
217.859,62.8006,0.015487
217.921,62.8130,0.015487
217.982,62.8251,0.015487
218.044,62.8376,0.015487
218.105,62.8499,0.015487
218.167,62.8623,0.015487
218.229,62.8747,0.015468
218.293,62.8873,0.015468
218.357,62.9001,0.015468
218.419,62.9125,0.015468
218.482,62.9252,0.015440
218.544,62.9377,0.015440
218.606,62.9500,0.015440
218.669,62.9625,0.015440
218.731,62.9750,0.015477
218.794,62.9877,0.015477
218.855,62.9998,0.015477
218.917,63.0122,0.015477
218.980,63.0247,0.015524
219.042,63.0374,0.015524
219.104,63.0495,0.015524
219.165,63.0618,0.015524
219.227,63.0741,0.015524
219.289,63.0865,0.015496
219.351,63.0988,0.015496
219.412,63.1112,0.015496
219.475,63.1238,0.015440
219.538,63.1364,0.015440
219.601,63.1490,0.015440
219.664,63.1617,0.015440
219.725,63.1739,0.015440
219.787,63.1861,0.015421
219.849,63.1985,0.015421
219.910,63.2109,0.015421
219.973,63.2233,0.015421
220.034,63.2357,0.015458
220.097,63.2482,0.015458
220.159,63.2605,0.015458
220.221,63.2729,0.015458
220.284,63.2854,0.015487
220.347,63.2982,0.015487
220.408,63.3105,0.015487
220.470,63.3229,0.015487
220.532,63.3353,0.015468
220.595,63.3479,0.015468
220.657,63.3603,0.015468
220.720,63.3731,0.015468
220.784,63.3858,0.015524
220.846,63.3981,0.015524
220.908,63.4103,0.015524
220.970,63.4227,0.015553
221.032,63.4351,0.015553
221.094,63.4477,0.015553
221.156,63.4599,0.015553
221.217,63.4722,0.015468
221.280,63.4847,0.015468
221.344,63.4975,0.015468
221.407,63.5100,0.015468
221.469,63.5227,0.015468
221.528,63.5345,0.015421
221.589,63.5465,0.015421
221.651,63.5590,0.015421
221.714,63.5716,0.015421
221.774,63.5837,0.015505
221.836,63.5959,0.015505
221.898,63.6085,0.015505
221.960,63.6208,0.015505
222.022,63.6332,0.015665
222.083,63.6454,0.015665
222.145,63.6578,0.015665
222.206,63.6700,0.015665
222.270,63.6829,0.015807
222.330,63.6947,0.015807
222.392,63.7072,0.015807
222.454,63.7196,0.015807
222.515,63.7318,0.015901
222.578,63.7442,0.015901
222.640,63.7567,0.015901
222.704,63.7696,0.015901
222.764,63.7817,0.016014
222.825,63.7939,0.016014
222.889,63.8065,0.016014
222.950,63.8189,0.016014
223.012,63.8311,0.016155
223.077,63.8443,0.016155
223.138,63.8563,0.016155
223.200,63.8686,0.016155
223.260,63.8810,0.016230
223.323,63.8934,0.016230
223.385,63.9058,0.016230
223.448,63.9182,0.016230
223.510,63.9307,0.016353
223.572,63.9431,0.016353
223.634,63.9557,0.016353
223.696,63.9679,0.016353
223.758,63.9805,0.016428
223.820,63.9927,0.016428
223.882,64.0051,0.016428
223.945,64.0178,0.016428
224.007,64.0303,0.016428
224.069,64.0426,0.016475
224.132,64.0553,0.016475
224.193,64.0673,0.016475
224.256,64.0799,0.016522
224.319,64.0925,0.016522
224.382,64.1052,0.016522
224.446,64.1179,0.016522
224.509,64.1305,0.016503
224.571,64.1429,0.016503
224.634,64.1555,0.016503
224.696,64.1680,0.016503
224.757,64.1801,0.016456
224.819,64.1925,0.016456
224.881,64.2049,0.016456
224.944,64.2176,0.016456
225.006,64.2300,0.016456
225.070,64.2427,0.016409
225.132,64.2551,0.016409
225.195,64.2678,0.016409
225.257,64.2802,0.016372
225.317,64.2923,0.016372
225.380,64.3048,0.016372
225.443,64.3174,0.016372
225.505,64.3298,0.016343
225.567,64.3422,0.016343
225.631,64.3550,0.016343
225.694,64.3677,0.016343
225.756,64.3798,0.016324
225.817,64.3922,0.016324
225.880,64.4046,0.016324
225.942,64.4170,0.016324
226.004,64.4296,0.016296
226.067,64.4423,0.016296
226.129,64.4545,0.016296
226.191,64.4669,0.016296
226.254,64.4794,0.016268
226.315,64.4917,0.016268
226.379,64.5045,0.016268
226.439,64.5166,0.016268
226.501,64.5290,0.016230
226.565,64.5417,0.016230
226.628,64.5543,0.016230
226.689,64.5666,0.016230
226.751,64.5789,0.016230
226.813,64.5914,0.016174
226.875,64.6037,0.016174
226.937,64.6148,0.016174
227.001,64.6232,0.016146
227.063,64.6284,0.016146
227.124,64.6306,0.016146
227.186,64.6307,0.016146
227.249,64.6307,0.016240
227.311,64.6307,0.016240
227.374,64.6307,0.016240
227.437,64.6307,0.016240
227.500,64.6307,0.016372
227.562,64.6307,0.016372
227.625,64.6307,0.016372
227.687,64.6307,0.016372
227.749,64.6307,0.016400
227.812,64.6307,0.016400
227.874,64.6307,0.016400
227.935,64.6307,0.016400
227.997,64.6307,0.016409
228.060,64.6307,0.016409
228.121,64.6307,0.016409
228.183,64.6307,0.016409
228.245,64.6307,0.016409
228.307,64.6307,0.016409
228.370,64.6307,0.016409
228.433,64.6307,0.016409
228.495,64.6307,0.016409
228.558,64.6307,0.016409
228.621,64.6307,0.016409
228.683,64.6307,0.016409
228.746,64.6307,0.016419
228.808,64.6307,0.016419
228.871,64.6307,0.016419
228.933,64.6307,0.016419
228.996,64.6307,0.016428
229.058,64.6307,0.016428
229.120,64.6307,0.016428
229.181,64.6307,0.016428
229.244,64.6307,0.016419
229.306,64.6307,0.016419
229.369,64.6307,0.016419
229.431,64.6307,0.016419
229.494,64.6307,0.016456
229.556,64.6307,0.016456
229.619,64.6307,0.016456
229.682,64.6307,0.016456
229.743,64.6307,0.016447
229.807,64.6307,0.016447
229.870,64.6307,0.016447
229.932,64.6307,0.016447
229.992,64.6307,0.016400
230.056,64.6307,0.016400
230.118,64.6307,0.016400
230.180,64.6307,0.016400
230.246,64.6307,0.016428
230.304,64.6307,0.016428
230.366,64.6307,0.016428
230.428,64.6307,0.016428
230.490,64.6307,0.016494
230.552,64.6307,0.016494
230.614,64.6307,0.016494
230.678,64.6307,0.016494
230.741,64.6307,0.016485
230.801,64.6307,0.016485
230.863,64.6307,0.016485
230.926,64.6307,0.016485
230.988,64.6307,0.016447
231.051,64.6307,0.016447
231.114,64.6307,0.016447
231.175,64.6307,0.016447
231.237,64.6307,0.016466
231.298,64.6307,0.016466
231.362,64.6307,0.016466
231.423,64.6307,0.016466
231.485,64.6307,0.016466
231.547,64.6307,0.016513
231.608,64.6307,0.016513
231.671,64.6307,0.016513
231.734,64.6307,0.016513
231.796,64.6307,0.016532
231.860,64.6307,0.016532
231.922,64.6299,0.016532
231.984,64.6260,0.016485
232.047,64.6192,0.016485
232.110,64.6095,0.016485
232.170,64.5977,0.016485
232.232,64.5853,0.016635
232.294,64.5729,0.016635
232.357,64.5604,0.016635
232.419,64.5479,0.016635
232.483,64.5351,0.016739
232.546,64.5226,0.016739
232.608,64.5102,0.016739
232.670,64.4975,0.016739
232.731,64.4855,0.016729
232.792,64.4732,0.016729
232.853,64.4612,0.016729
232.916,64.4485,0.016729
232.979,64.4359,0.016814
233.042,64.4234,0.016814
233.104,64.4110,0.016814
233.165,64.3988,0.016814
233.228,64.3859,0.016880
233.289,64.3737,0.016880
233.351,64.3613,0.016880
233.415,64.3487,0.016880
233.477,64.3362,0.016880
233.541,64.3234,0.016974
233.603,64.3111,0.016974
233.666,64.2986,0.016974
233.728,64.2859,0.016955
233.790,64.2735,0.016955
233.853,64.2610,0.016955
233.914,64.2489,0.016955
233.975,64.2366,0.016955
234.038,64.2240,0.016899
234.100,64.2116,0.016899
234.163,64.1991,0.016899
234.225,64.1866,0.016899
234.288,64.1742,0.016955
234.349,64.1618,0.016955
234.411,64.1494,0.016955
234.474,64.1370,0.017012
234.536,64.1245,0.017012
234.597,64.1123,0.017012
234.660,64.0998,0.017012
234.722,64.0874,0.017012
234.784,64.0750,0.017059
234.847,64.0624,0.017059
234.909,64.0499,0.017059
234.972,64.0374,0.017031
235.032,64.0251,0.017031
235.095,64.0126,0.017031
235.156,64.0003,0.017031
235.220,63.9877,0.017031
235.280,63.9758,0.017031
235.343,63.9631,0.017031
235.404,63.9509,0.017031
235.466,63.9384,0.017031
235.532,63.9252,0.017068
235.592,63.9134,0.017068
235.654,63.9007,0.017068
235.716,63.8883,0.017068
235.779,63.8758,0.017059
235.841,63.8636,0.017059
235.907,63.8504,0.017059
235.964,63.8388,0.017059
236.025,63.8266,0.017078
236.087,63.8143,0.017078
236.150,63.8015,0.017078
236.214,63.7890,0.017078
236.274,63.7768,0.017078
236.337,63.7644,0.017078
236.399,63.7519,0.017078
236.462,63.7394,0.017078
236.526,63.7263,0.017087
236.585,63.7146,0.017087
236.648,63.7020,0.017087
236.710,63.6896,0.017087
236.773,63.6770,0.017087
236.835,63.6647,0.017087
236.896,63.6523,0.017087
236.957,63.6403,0.017087
237.019,63.6279,0.017134
237.082,63.6151,0.017134
237.141,63.6034,0.017134
237.203,63.5910,0.017134
237.265,63.5786,0.017144
237.327,63.5661,0.017144
237.390,63.5535,0.017144
237.454,63.5409,0.017144
237.517,63.5283,0.017096
237.578,63.5161,0.017096
237.640,63.5036,0.017096
237.704,63.4909,0.017096
237.765,63.4785,0.017106
237.830,63.4658,0.017106
237.891,63.4536,0.017106
237.955,63.4407,0.017106
238.014,63.4289,0.017068
238.079,63.4160,0.017068
238.141,63.4034,0.017068
238.204,63.3910,0.017068
238.264,63.3790,0.017078
238.326,63.3666,0.017078
238.389,63.3538,0.017078
238.453,63.3411,0.017078
238.514,63.3288,0.017144
238.576,63.3163,0.017144
238.636,63.3044,0.017144
238.701,63.2915,0.017144
238.761,63.2794,0.017134
238.824,63.2668,0.017134
238.886,63.2544,0.017134
238.951,63.2414,0.017134
239.011,63.2291,0.017087
239.072,63.2174,0.017087
239.134,63.2048,0.017087
239.196,63.1924,0.017087
239.258,63.1801,0.017078
239.321,63.1675,0.017078
239.383,63.1551,0.017078
239.446,63.1424,0.017078
239.507,63.1302,0.017078
239.569,63.1178,0.017078
239.631,63.1055,0.017078
239.696,63.0926,0.017078
239.757,63.0802,0.017059
239.820,63.0677,0.017059
239.884,63.0550,0.017059
239.946,63.0425,0.017059
240.009,63.0298,0.017068
240.072,63.0173,0.017068
240.133,63.0050,0.017068
240.195,62.9926,0.017068
240.258,62.9802,0.017059
240.320,62.9678,0.017059
240.382,62.9553,0.017059
240.444,62.9429,0.017059
240.506,62.9304,0.017031
240.569,62.9178,0.017031
240.631,62.9054,0.017031
240.692,62.8934,0.017031
240.756,62.8806,0.017031
240.816,62.8686,0.017031
240.878,62.8561,0.017031
240.941,62.8435,0.017031
241.004,62.8310,0.017040
241.067,62.8184,0.017040
241.130,62.8058,0.017040
241.191,62.7934,0.017040
241.253,62.7813,0.017012
241.315,62.7689,0.017012
241.377,62.7564,0.017012
241.440,62.7437,0.017012
241.503,62.7311,0.017012
241.565,62.7187,0.016955
241.628,62.7061,0.016955
241.691,62.6936,0.016955
241.754,62.6809,0.016946
241.816,62.6685,0.016946
241.878,62.6563,0.016946
241.939,62.6440,0.016946
242.002,62.6312,0.016880
242.064,62.6188,0.016880
242.125,62.6067,0.016880
242.188,62.5943,0.016880
242.249,62.5819,0.016880
242.312,62.5693,0.016946
242.375,62.5569,0.016946
242.437,62.5445,0.016946
242.499,62.5321,0.016955
242.561,62.5196,0.016955
242.623,62.5071,0.016955
242.686,62.4945,0.016955
242.747,62.4821,0.016880
242.810,62.4697,0.016880
242.873,62.4571,0.016880
242.934,62.4449,0.016880
242.997,62.4322,0.016889
243.058,62.4201,0.016889
243.121,62.4075,0.016889
243.183,62.3952,0.016889
243.246,62.3825,0.016805
243.307,62.3703,0.016805
243.368,62.3580,0.016805
243.431,62.3456,0.016805
243.493,62.3329,0.016805
243.555,62.3207,0.016805
243.618,62.3081,0.016805
243.681,62.2955,0.016805
243.742,62.2831,0.016814
243.806,62.2704,0.016814
243.868,62.2579,0.016814
243.931,62.2456,0.016814
243.991,62.2336,0.016720
244.053,62.2211,0.016720
244.117,62.2084,0.016720
244.180,62.1959,0.016720
244.242,62.1835,0.016720
244.302,62.1713,0.016720
244.365,62.1586,0.016720
244.429,62.1459,0.016720
244.490,62.1338,0.016682
244.553,62.1212,0.016682
244.614,62.1090,0.016682
244.677,62.0963,0.016682
244.741,62.0837,0.016654
244.803,62.0711,0.016654
244.865,62.0587,0.016654
244.927,62.0463,0.016654
244.989,62.0340,0.016692
245.052,62.0214,0.016692
245.114,62.0090,0.016692
245.175,61.9968,0.016692
245.237,61.9843,0.016645
245.299,61.9720,0.016645
245.361,61.9596,0.016645
245.422,61.9474,0.016645
245.485,61.9349,0.016635
245.547,61.9223,0.016635
245.609,61.9099,0.016635
245.672,61.8972,0.016635
245.735,61.8847,0.016560
245.798,61.8719,0.016560
245.862,61.8593,0.016560
245.925,61.8468,0.016560
245.987,61.8339,0.016550
246.052,61.8213,0.016550
246.113,61.8093,0.016550
246.174,61.7972,0.016550
246.236,61.7846,0.016588
246.299,61.7720,0.016588
246.361,61.7596,0.016588
246.424,61.7471,0.016588
246.485,61.7348,0.016560
246.545,61.7227,0.016560
246.608,61.7101,0.016560
246.671,61.6976,0.016560
246.733,61.6852,0.016513
246.794,61.6729,0.016513
246.857,61.6604,0.016513
246.920,61.6478,0.016513
246.982,61.6354,0.016494
247.044,61.6229,0.016494
247.105,61.6108,0.016494
247.167,61.5982,0.016494
247.228,61.5861,0.016532
247.291,61.5734,0.016532
247.353,61.5610,0.016532
247.416,61.5485,0.016532
247.480,61.5357,0.016532
247.543,61.5229,0.016485
247.607,61.5104,0.016485
247.670,61.4979,0.016485
247.732,61.4854,0.016447
247.794,61.4731,0.016447
247.856,61.4604,0.016447
247.919,61.4480,0.016447
247.980,61.4358,0.016447
248.042,61.4234,0.016447
248.104,61.4111,0.016447
248.164,61.3988,0.016447
248.225,61.3866,0.016400
248.289,61.3741,0.016400
248.351,61.3616,0.016400
248.413,61.3491,0.016400
248.476,61.3365,0.016362
248.538,61.3241,0.016362
248.601,61.3116,0.016362
248.663,61.2992,0.016362
248.724,61.2870,0.016353
248.786,61.2745,0.016353
248.848,61.2622,0.016353
248.911,61.2496,0.016353
248.972,61.2374,0.016343
249.035,61.2248,0.016343
249.098,61.2120,0.016343
249.161,61.1996,0.016343
249.222,61.1873,0.016306
249.283,61.1753,0.016306
249.345,61.1628,0.016306
249.406,61.1506,0.016306
249.470,61.1377,0.016306
249.530,61.1258,0.016268
249.592,61.1133,0.016268
249.654,61.1010,0.016268
249.716,61.0886,0.016268
249.778,61.0763,0.016230
249.839,61.0639,0.016230
249.902,61.0513,0.016230
249.964,61.0390,0.016230
250.028,61.0262,0.016259
250.091,61.0136,0.016259
250.154,61.0009,0.016259
250.216,60.9886,0.016212
250.278,60.9762,0.016212
250.339,60.9640,0.016212
250.402,60.9514,0.016212
250.463,60.9392,0.016212
250.526,60.9268,0.016146
250.588,60.9142,0.016146
250.652,60.9015,0.016146
250.713,60.8893,0.016146
250.774,60.8769,0.016155
250.835,60.8647,0.016155
250.898,60.8521,0.016155
250.962,60.8394,0.016155
251.025,60.8268,0.016051
251.090,60.8138,0.016051
251.150,60.8019,0.016051
251.212,60.7893,0.016051
251.275,60.7767,0.015939
251.339,60.7639,0.015939
251.399,60.7520,0.015939
251.462,60.7391,0.015939
251.523,60.7272,0.015948
251.584,60.7151,0.015948
251.645,60.7028,0.015948
251.706,60.6906,0.015948
251.769,60.6780,0.015967
251.831,60.6657,0.015967
251.893,60.6532,0.015967
251.955,60.6408,0.015967
252.017,60.6282,0.015882
252.079,60.6160,0.015882
252.141,60.6037,0.015882
252.204,60.5935,0.015882
252.270,60.5859,0.015769
252.331,60.5820,0.015769
252.392,60.5807,0.015769
252.456,60.5807,0.015769
252.519,60.5809,0.015618
252.581,60.5830,0.015618
252.642,60.5881,0.015618
252.703,60.5957,0.015618
252.766,60.6068,0.015458
252.829,60.6193,0.015458
252.892,60.6318,0.015458
252.954,60.6445,0.015458
253.019,60.6575,0.015458
253.079,60.6694,0.015458
253.140,60.6818,0.015458
253.202,60.6940,0.015458
253.264,60.7064,0.015562
253.328,60.7194,0.015562
253.390,60.7317,0.015562
253.452,60.7441,0.015562
253.515,60.7566,0.015571
253.577,60.7690,0.015571
253.639,60.7814,0.015571
253.700,60.7937,0.015571
253.764,60.8063,0.015534
253.824,60.8185,0.015534
253.887,60.8310,0.015534
253.950,60.8435,0.015534
254.013,60.8562,0.015496
254.075,60.8686,0.015496
254.137,60.8810,0.015496
254.199,60.8934,0.015496
254.261,60.9057,0.015458
254.322,60.9180,0.015458
254.385,60.9306,0.015458
254.449,60.9433,0.015458
254.511,60.9558,0.015458
254.574,60.9686,0.015458
254.637,60.9810,0.015458
254.698,60.9931,0.015458
254.760,61.0054,0.015449
254.822,61.0179,0.015449
254.885,61.0304,0.015449
254.946,61.0428,0.015449
255.008,61.0551,0.015421
255.072,61.0679,0.015421
255.134,61.0803,0.015421
255.197,61.0931,0.015421
255.258,61.1051,0.015421
255.319,61.1173,0.015421
255.380,61.1297,0.015421
255.443,61.1421,0.015421
255.505,61.1545,0.015440
255.567,61.1669,0.015440
255.630,61.1796,0.015440
255.691,61.1917,0.015440
255.753,61.2041,0.015440
255.813,61.2162,0.015440
255.875,61.2286,0.015440
255.939,61.2414,0.015440
256.001,61.2538,0.015440
256.066,61.2668,0.015440
256.126,61.2787,0.015440
256.188,61.2913,0.015440
256.250,61.3037,0.015440
256.312,61.3159,0.015468
256.375,61.3286,0.015468
256.436,61.3409,0.015468
256.499,61.3534,0.015411
256.561,61.3657,0.015411
256.624,61.3785,0.015411
256.686,61.3907,0.015411
256.747,61.4030,0.015402
256.809,61.4154,0.015402
256.871,61.4278,0.015402
256.934,61.4402,0.015402
256.996,61.4529,0.015468
257.059,61.4653,0.015468
257.120,61.4775,0.015468
257.183,61.4900,0.015468
257.245,61.5026,0.015411
257.307,61.5150,0.015411
257.369,61.5273,0.015411
257.431,61.5397,0.015411
257.493,61.5521,0.015411
257.554,61.5642,0.015411
257.615,61.5765,0.015411
257.677,61.5888,0.015411
257.739,61.6016,0.015468
257.802,61.6139,0.015468
257.864,61.6264,0.015468
257.926,61.6387,0.015468
257.987,61.6511,0.015458
258.049,61.6633,0.015458
258.111,61.6757,0.015458
258.175,61.6885,0.015458
258.237,61.7009,0.015458
258.300,61.7134,0.015402
258.361,61.7258,0.015402
258.423,61.7382,0.015402
258.486,61.7508,0.015402
258.548,61.7632,0.015402
258.612,61.7760,0.015402
258.675,61.7887,0.015402
258.736,61.8008,0.015430
258.797,61.8129,0.015430
258.859,61.8253,0.015430
258.921,61.8377,0.015430
258.983,61.8502,0.015449
259.045,61.8626,0.015449
259.108,61.8752,0.015449
259.171,61.8877,0.015449
259.233,61.9001,0.015430
259.294,61.9124,0.015430
259.357,61.9249,0.015430
259.420,61.9377,0.015430
259.483,61.9502,0.015430
259.546,61.9629,0.015430
259.607,61.9751,0.015430
259.668,61.9874,0.015430
259.730,61.9996,0.015487
259.792,62.0120,0.015487
259.853,62.0241,0.015487
259.915,62.0364,0.015487
259.977,62.0488,0.015477
260.039,62.0613,0.015477
260.102,62.0739,0.015477
260.163,62.0861,0.015477
260.226,62.0988,0.015487
260.288,62.1113,0.015487
260.351,62.1238,0.015487
260.414,62.1362,0.015487
260.476,62.1488,0.015440
260.538,62.1610,0.015440
260.601,62.1738,0.015440
260.663,62.1861,0.015440
260.725,62.1986,0.015421
260.788,62.2110,0.015421
260.851,62.2237,0.015421
260.913,62.2361,0.015421
260.975,62.2485,0.015421
261.037,62.2610,0.015430
261.099,62.2733,0.015430
261.161,62.2858,0.015430
261.224,62.2982,0.015430
261.286,62.3107,0.015430
261.349,62.3234,0.015430
261.411,62.3358,0.015430
261.472,62.3479,0.015430
261.534,62.3602,0.015487
261.596,62.3728,0.015487
261.658,62.3853,0.015487
261.722,62.3981,0.015487
261.783,62.4101,0.015430
261.844,62.4224,0.015430
261.906,62.4348,0.015430
261.969,62.4473,0.015430
262.033,62.4602,0.015421
262.092,62.4720,0.015421
262.154,62.4844,0.015421
262.215,62.4968,0.015421
262.278,62.5092,0.015421
262.341,62.5218,0.015421
262.405,62.5346,0.015421
262.466,62.5469,0.015421
262.529,62.5594,0.015374
262.591,62.5718,0.015374
262.654,62.5845,0.015374
262.716,62.5967,0.015374
262.777,62.6090,0.015374
262.840,62.6215,0.015374
262.902,62.6339,0.015374
262.964,62.6463,0.015374
263.027,62.6589,0.015430
263.091,62.6718,0.015430
263.151,62.6837,0.015430
263.215,62.6965,0.015430
263.277,62.7089,0.015505
263.337,62.7210,0.015505
263.399,62.7334,0.015505
263.461,62.7457,0.015505
263.523,62.7581,0.015468
263.585,62.7705,0.015468
263.647,62.7830,0.015468
263.709,62.7952,0.015468
263.771,62.8077,0.015449
263.833,62.8202,0.015449
263.895,62.8325,0.015449
263.957,62.8449,0.015449
264.019,62.8573,0.015449
264.082,62.8700,0.015449
264.144,62.8822,0.015449
264.206,62.8946,0.015449
264.267,62.9069,0.015421
264.333,62.9201,0.015421
264.391,62.9317,0.015421
264.454,62.9443,0.015421
264.517,62.9571,0.015402
264.579,62.9694,0.015402
264.642,62.9818,0.015402
264.704,62.9942,0.015402
264.766,63.0068,0.015430
264.831,63.0197,0.015430
264.891,63.0317,0.015430
264.952,63.0440,0.015430
265.015,63.0566,0.015458
265.077,63.0689,0.015458
265.139,63.0813,0.015458
265.200,63.0936,0.015458
265.263,63.1061,0.015449
265.325,63.1185,0.015449
265.388,63.1310,0.015449
265.450,63.1434,0.015449
265.512,63.1560,0.015411
265.575,63.1685,0.015411
265.638,63.1811,0.015411
265.700,63.1935,0.015411
265.762,63.2058,0.015392
265.823,63.2182,0.015392
265.887,63.2309,0.015392
265.948,63.2434,0.015392
266.010,63.2557,0.015411
266.073,63.2682,0.015411
266.136,63.2809,0.015411
266.198,63.2933,0.015411
266.261,63.3057,0.015411
266.323,63.3181,0.015430
266.386,63.3306,0.015430
266.449,63.3432,0.015430
266.511,63.3558,0.015449
266.572,63.3680,0.015449
266.635,63.3807,0.015449
266.698,63.3933,0.015449
266.760,63.4056,0.015458
266.822,63.4180,0.015458
266.884,63.4303,0.015458
266.945,63.4426,0.015458
267.009,63.4554,0.015468
267.071,63.4679,0.015468
267.136,63.4808,0.015468
267.197,63.4931,0.015468
267.260,63.5056,0.015430
267.323,63.5181,0.015430
267.384,63.5305,0.015430
267.448,63.5430,0.015430
267.511,63.5557,0.015411
267.574,63.5683,0.015411
267.634,63.5802,0.015411
267.697,63.5929,0.015411
267.759,63.6053,0.015524
267.821,63.6176,0.015524
267.883,63.6301,0.015524
267.945,63.6424,0.015524
268.007,63.6549,0.015722
268.070,63.6674,0.015722
268.132,63.6800,0.015722
268.196,63.6926,0.015722
268.258,63.7050,0.015826
268.320,63.7175,0.015826
268.382,63.7299,0.015826
268.443,63.7421,0.015826
268.506,63.7546,0.015854
268.568,63.7671,0.015854
268.630,63.7794,0.015854
268.692,63.7920,0.015854
268.754,63.8044,0.016004
268.816,63.8168,0.016004
268.879,63.8293,0.016004
268.941,63.8418,0.016004
269.003,63.8541,0.016099
269.065,63.8665,0.016099
269.128,63.8790,0.016099
269.190,63.8914,0.016099
269.251,63.9036,0.016202
269.314,63.9162,0.016202
269.375,63.9285,0.016202
269.437,63.9408,0.016202
269.500,63.9534,0.016315
269.563,63.9661,0.016315
269.625,63.9786,0.016315
269.688,63.9913,0.016315
269.749,64.0034,0.016409
269.811,64.0158,0.016409
269.873,64.0282,0.016409
269.935,64.0405,0.016409
269.997,64.0529,0.016485
270.060,64.0655,0.016485
270.122,64.0779,0.016485
270.185,64.0906,0.016485
270.248,64.1032,0.016447
270.312,64.1160,0.016447
270.375,64.1287,0.016447
270.437,64.1413,0.016447
270.499,64.1534,0.016456
270.561,64.1656,0.016456
270.624,64.1782,0.016456
270.687,64.1909,0.016456
270.749,64.2032,0.016466
270.810,64.2155,0.016466
270.874,64.2281,0.016466
270.937,64.2410,0.016466
271.000,64.2534,0.016437
271.062,64.2660,0.016437
271.125,64.2784,0.016437
271.189,64.2913,0.016437
271.250,64.3035,0.016353
271.312,64.3158,0.016353
271.375,64.3285,0.016353
271.437,64.3409,0.016353
271.499,64.3534,0.016315
271.560,64.3654,0.016315
271.623,64.3780,0.016315
271.685,64.3906,0.016315
271.746,64.4026,0.016296
271.808,64.4153,0.016296
271.870,64.4276,0.016296
271.933,64.4402,0.016296
271.996,64.4527,0.016249
272.058,64.4650,0.016249
272.120,64.4774,0.016249
272.181,64.4896,0.016249
272.243,64.5020,0.016259
272.304,64.5143,0.016259
272.367,64.5268,0.016259
272.429,64.5393,0.016259
272.491,64.5517,0.016202
272.554,64.5635,0.016202
272.616,64.5719,0.016202
272.679,64.5776,0.016202
272.742,64.5805,0.016268
272.804,64.5807,0.016268
272.867,64.5807,0.016268
272.930,64.5807,0.016268
272.992,64.5807,0.016372
273.054,64.5807,0.016372
273.114,64.5807,0.016372
273.176,64.5807,0.016372
273.238,64.5807,0.016362
273.299,64.5807,0.016362
273.361,64.5807,0.016362
273.424,64.5807,0.016362
