Elapsed Time (s),Position (mm),Force (N)
-0.017,63.7000,-0.030211
0.006,63.7000,-0.030211
0.037,63.7000,-0.030211
0.067,63.7000,-0.027794
0.099,63.7000,-0.027794
0.130,63.7000,-0.024169
0.161,63.7000,-0.026586
0.192,63.7000,-0.027794
0.223,63.7000,-0.029003
0.255,63.7000,-0.029003
0.285,63.7000,-0.025377
0.316,63.7000,-0.024169
0.347,63.7000,-0.024169
0.378,63.7000,-0.020544
0.398,63.7000,-0.022961
0.424,63.7000,-0.025377
0.446,63.7000,-0.025377
0.470,63.7000,-0.022961
0.501,63.7000,-0.025377
0.532,63.7000,-0.027794
0.564,63.7000,-0.024169
0.594,63.7000,-0.025377
0.626,63.7000,-0.026586
0.656,63.7000,-0.024169
0.687,63.7000,-0.018127
0.718,63.7000,-0.020544
0.750,63.7000,-0.025377
0.781,63.7000,-0.026586
0.812,63.7000,-0.022961
0.843,63.7000,-0.025377
0.875,63.7000,-0.029003
0.895,63.7000,-0.022961
0.921,63.7000,-0.021752
0.952,63.7000,-0.024169
0.973,63.7000,-0.020544
1.002,63.7000,-0.020544
1.030,63.7000,-0.020544
1.060,63.7000,-0.019335
1.090,63.7000,-0.025377
1.122,63.7000,-0.027794
1.152,63.7000,-0.021752
1.185,63.7000,-0.019335
1.213,63.7000,-0.025377
1.244,63.7000,-0.025377
1.275,63.7000,-0.022961
1.306,63.7000,-0.021752
1.337,63.7000,-0.021752
1.368,63.7000,-0.019335
1.399,63.7000,-0.016918
1.432,63.7000,-0.018127
1.461,63.7000,-0.022961
1.492,63.7000,-0.025377
1.514,63.7000,-0.024169
1.538,63.7000,-0.020544
1.571,63.7000,-0.020544
1.600,63.7000,-0.022961
1.631,63.7000,-0.019335
1.662,63.7000,-0.019335
1.694,63.7000,-0.025377
1.725,63.7000,-0.022961
1.756,63.7000,-0.020544
1.787,63.7000,-0.021752
1.818,63.7000,-0.022961
1.849,63.7000,-0.018127
1.879,63.7000,-0.019335
1.910,63.7000,-0.020544
1.941,63.7000,-0.020544
1.972,63.7000,-0.016918
1.993,63.7000,-0.021752
2.017,63.7000,-0.024169
2.048,63.7000,-0.021752
2.072,63.7000,-0.021752
2.095,63.7000,-0.021752
2.128,63.7000,-0.025377
2.158,63.7000,-0.020544
2.189,63.7000,-0.020544
2.220,63.7000,-0.020544
2.251,63.7000,-0.018127
2.283,63.7000,-0.021752
2.314,63.7000,-0.024169
2.345,63.7000,-0.021752
2.376,63.7000,-0.022961
2.407,63.7000,-0.020544
2.438,63.7000,-0.016918
2.468,63.7000,-0.014501
2.500,63.7000,-0.019335
2.521,63.7000,-0.016918
2.547,63.7000,-0.016918
2.568,63.7000,-0.016918
2.592,63.7000,-0.020544
2.624,63.7000,-0.020544
2.654,63.7000,-0.019335
2.685,63.7000,-0.019335
2.716,63.7000,-0.019335
2.747,63.7000,-0.021752
2.779,63.7000,-0.016918
2.811,63.7000,-0.019335
2.844,63.7000,-0.025377
2.875,63.7000,-0.020544
2.905,63.7000,-0.018127
2.936,63.7000,-0.021752
2.966,63.7000,-0.019335
2.997,63.7000,-0.020544
3.028,63.7000,-0.021752
3.059,63.7000,-0.021752
3.090,63.7000,-0.021752
3.121,63.7000,-0.015710
3.153,63.7000,-0.018127
3.174,63.7000,-0.018127
3.199,63.7000,-0.021752
3.230,63.7000,-0.021752
3.260,63.7000,-0.019335
3.291,63.7000,-0.019335
3.323,63.7000,-0.019335
3.354,63.7000,-0.018127
3.385,63.7000,-0.018127
3.416,63.7000,-0.018127
3.448,63.7000,-0.016918
3.478,63.7000,-0.019335
3.509,63.7000,-0.018127
3.541,63.7000,-0.019335
3.572,63.7000,-0.018127
3.604,63.7000,-0.019335
3.635,63.7000,-0.021752
3.667,63.7000,-0.016918
3.698,63.7000,-0.014501
3.718,63.7000,-0.016918
3.745,63.7000,-0.021752
3.766,63.7000,-0.021752
3.791,63.7000,-0.021752
3.822,63.7000,-0.020544
3.854,63.7000,-0.019335
3.884,63.7000,-0.020544
3.916,63.7000,-0.018127
3.946,63.7000,-0.019335
3.977,63.7000,-0.018127
4.007,63.7000,-0.016918
4.039,63.7000,-0.015710
4.070,63.7000,-0.016918
4.101,63.7000,-0.022961
4.133,63.7000,-0.022961
4.165,63.7000,-0.022961
4.196,63.7000,-0.022961
4.227,63.7000,-0.021752
4.258,63.7000,-0.019335
4.290,63.7000,-0.016918
4.321,63.7000,-0.018127
4.342,63.7000,-0.019335
4.366,63.7000,-0.019335
4.397,63.7000,-0.019335
4.427,63.7000,-0.019335
4.458,63.7000,-0.016918
4.490,63.7000,-0.018127
4.524,63.7000,-0.014501
4.552,63.7000,-0.014501
4.583,63.7000,-0.016918
4.614,63.7000,-0.016918
4.645,63.7000,-0.014501
4.676,63.7000,-0.014501
4.708,63.7000,-0.018127
4.738,63.7000,-0.016918
4.769,63.7000,-0.020544
4.790,63.7000,-0.019335
4.821,63.7000,-0.022961
4.846,63.7000,-0.022961
4.878,63.7000,-0.019335
4.909,63.7000,-0.016918
4.939,63.7000,-0.019335
4.971,63.7000,-0.019335
5.002,63.7000,-0.018127
5.033,63.7000,-0.022961
5.064,63.7000,-0.021752
5.094,63.7000,-0.020544
5.126,63.7000,-0.024169
5.156,63.7000,-0.024169
5.187,63.7000,-0.018127
5.218,63.7000,-0.020544
5.249,63.7000,-0.016918
5.281,63.7000,-0.015710
5.312,63.7000,-0.019335
5.343,63.7000,-0.021752
5.364,63.7000,-0.021752
5.390,63.7000,-0.022961
5.420,63.7000,-0.022961
5.452,63.7000,-0.020544
5.483,63.7000,-0.019335
5.513,63.7000,-0.020544
5.544,63.7000,-0.014501
5.576,63.7000,-0.019335
5.607,63.7000,-0.021752
5.639,63.7000,-0.015710
5.669,63.7000,-0.014501
5.701,63.7000,-0.018127
5.733,63.7000,-0.019335
5.764,63.7000,-0.014501
5.795,63.7000,-0.019335
5.826,63.7000,-0.016918
5.858,63.7000,-0.018127
5.889,63.7000,-0.016918
5.920,63.7000,-0.019335
5.951,63.7000,-0.018127
5.983,63.7000,-0.018127
6.003,63.7000,-0.018127
6.028,63.7000,-0.016918
6.058,63.7000,-0.018127
6.089,63.7000,-0.018127
6.120,63.7000,-0.016918
6.151,63.7000,-0.019335
6.182,63.7000,-0.016918
6.212,63.7000,-0.019335
6.244,63.7000,-0.019335
6.275,63.7000,-0.016918
6.306,63.7000,-0.015710
6.337,63.7000,-0.015710
6.367,63.7000,-0.018127
6.392,63.7000,-0.018127
6.417,63.7000,-0.018127
6.444,63.7000,-0.016918
6.475,63.7000,-0.016918
6.507,63.7000,-0.021752
6.528,63.7000,-0.018127
6.552,63.7000,-0.018127
6.584,63.7000,-0.019335
6.615,63.7000,-0.015710
6.645,63.7000,-0.016918
6.677,63.7000,-0.016918
6.709,63.7000,-0.018127
6.739,63.7000,-0.016918
6.771,63.7000,-0.018127
6.801,63.7000,-0.015710
6.832,63.7000,-0.015710
6.863,63.7000,-0.019335
6.894,63.7000,-0.019335
6.925,63.7000,-0.015710
6.956,63.7000,-0.013293
6.986,63.7000,-0.021752
7.007,63.7000,-0.021752
7.033,63.7000,-0.015710
7.064,63.7000,-0.014501
7.096,63.7000,-0.018127
7.127,63.7000,-0.021752
7.159,63.7000,-0.013293
7.190,63.7000,-0.014501
7.219,63.7000,-0.015710
7.251,63.7000,-0.015710
7.282,63.7000,-0.019335
7.314,63.7000,-0.018127
7.345,63.7000,-0.016918
7.376,63.7000,-0.016918
7.409,63.7000,-0.019335
7.438,63.7000,-0.020544
7.469,63.7000,-0.020544
7.499,63.7000,-0.019335
7.524,63.7000,-0.015710
7.546,63.7000,-0.016918
7.579,63.7000,-0.018127
7.607,63.7000,-0.018127
7.629,63.7000,-0.018127
7.654,63.7000,-0.018127
7.684,63.7000,-0.020544
7.716,63.7000,-0.019335
7.747,63.7000,-0.013293
7.779,63.7000,-0.015710
7.810,63.7000,-0.014501
7.842,63.7000,-0.015710
7.873,63.7000,-0.014501
7.904,63.7000,-0.018127
7.935,63.7000,-0.021752
7.965,63.7000,-0.016918
7.997,63.7000,-0.018127
8.017,63.7000,-0.019335
8.044,63.7000,-0.019335
8.075,63.7000,-0.016918
8.106,63.7000,-0.021752
8.137,63.7000,-0.014501
8.168,63.7000,-0.020544
8.197,63.7000,-0.015710
8.229,63.7000,-0.015710
8.260,63.7000,-0.020544
8.292,63.7000,-0.021752
8.323,63.7000,-0.018127
8.344,63.7000,-0.018127
8.369,63.7000,-0.019335
8.400,63.7000,-0.016918
8.432,63.7000,-0.015710
8.462,63.7000,-0.019335
8.494,63.7000,-0.018127
8.514,63.7000,-0.020544
8.540,63.7000,-0.019335
8.561,63.7000,-0.016918
8.586,63.7000,-0.020544
8.617,63.7000,-0.020544
8.648,63.7000,-0.016918
8.680,63.7000,-0.019335
8.711,63.7000,-0.018127
8.743,63.7000,-0.018127
8.774,63.7000,-0.015710
8.805,63.7000,-0.016918
8.836,63.7000,-0.016918
8.868,63.7000,-0.015710
8.899,63.7000,-0.015710
8.930,63.7000,-0.016918
8.961,63.7000,-0.019335
8.993,63.7000,-0.014501
9.023,63.7000,-0.015710
9.054,63.7000,-0.016918
9.085,63.7000,-0.015710
9.117,63.7000,-0.015710
9.147,63.7000,-0.018127
9.180,63.7000,-0.015710
9.201,63.7000,-0.016918
9.225,63.7000,-0.016918
9.256,63.7000,-0.015710
9.287,63.7000,-0.018127
9.317,63.7000,-0.016918
9.347,63.7000,-0.018127
9.378,63.7000,-0.016918
9.411,63.7000,-0.020544
9.441,63.7000,-0.013293
9.471,63.7000,-0.014501
9.502,63.7000,-0.018127
9.535,63.7000,-0.019335
9.565,63.7000,-0.014501
9.590,63.7000,-0.013293
9.616,63.7000,-0.013293
9.642,63.7000,-0.012084
9.664,63.7000,-0.012084
9.690,63.7000,-0.014501
9.711,63.7000,-0.016918
9.736,63.7000,-0.016918
9.767,63.7000,-0.016918
9.798,63.7000,-0.018127
9.828,63.7000,-0.015710
9.859,63.7000,-0.016918
9.891,63.7000,-0.020544
9.922,63.7000,-0.014501
9.954,63.7000,-0.015710
9.985,63.7000,-0.015710
10.016,63.7000,-0.015710
10.048,63.7000,-0.013293
10.079,63.7000,-0.015710
10.110,63.7000,-0.018127
10.141,63.7000,-0.020544
10.165,63.7000,-0.019335
10.187,63.7000,-0.014501
10.218,63.7000,-0.015710
10.249,63.7000,-0.018127
10.280,63.7000,-0.016918
10.311,63.7000,-0.019335
10.341,63.7000,-0.015710
10.372,63.7000,-0.014501
10.404,63.7000,-0.016918
10.435,63.7000,-0.015710
10.467,63.7000,-0.018127
10.489,63.7000,-0.008459
10.513,63.7000,-0.010876
10.544,63.7000,-0.020544
10.564,63.7000,-0.020544
10.591,63.7000,-0.016918
10.623,63.7000,-0.021752
10.645,63.7000,-0.021752
10.669,63.7000,-0.018127
10.700,63.7000,-0.014501
10.732,63.7000,-0.018127
10.762,63.7000,-0.020544
10.792,63.7000,-0.018127
10.824,63.7000,-0.015710
10.855,63.7000,-0.014501
10.887,63.7000,-0.016918
10.918,63.7000,-0.016918
10.949,63.7000,-0.014501
10.980,63.7000,-0.016918
11.012,63.7000,-0.018127
11.043,63.7000,-0.018127
11.073,63.7000,-0.015710
11.104,63.7000,-0.019335
11.135,63.7000,-0.019335
11.156,63.7000,-0.016918
11.181,63.6513,-0.012084
11.211,63.5589,0.001208
11.232,63.4974,-0.006042
11.258,63.4164,0.000000
11.280,63.3540,0.009668
11.305,63.2769,0.020544
11.336,63.1854,0.027794
11.368,63.0897,0.035045
11.399,62.9976,0.050755
11.431,62.9010,0.056797
11.461,62.8098,0.072507
11.493,62.7141,0.082174
11.524,62.6214,0.094259
11.557,62.5239,0.102718
11.586,62.4348,0.122053
11.617,62.3427,0.134138
11.648,62.2500,0.157098
11.679,62.1555,0.165557
11.710,62.0605,0.174016
11.741,61.9698,0.192143
11.772,61.8780,0.200602
11.792,61.8177,0.207853
11.820,61.7349,0.211478
11.841,61.6707,0.211478
11.865,61.5996,0.207853
11.897,61.5004,0.204228
11.926,61.4136,0.183684
11.958,61.3188,0.159515
11.989,61.2268,0.109969
12.021,61.1316,0.042296
12.052,61.0371,0.006042
12.084,60.9411,0.002417
12.116,60.8460,-0.002417
12.146,60.7557,0.001208
12.177,60.6630,-0.001208
12.208,60.5695,-0.002417
12.239,60.4758,0.002417
12.270,60.3807,0.002417
12.300,60.2908,0.000000
12.333,60.1932,0.000000
12.363,60.1039,-0.001208
12.395,60.0079,0.001208
12.427,59.9098,0.003625
12.457,59.8233,0.003625
12.477,59.7612,0.003625
12.505,59.6796,0.003625
12.525,59.6172,0.003625
12.551,59.5417,0.002417
12.581,59.4493,0.000000
12.612,59.3586,0.000000
12.642,59.2671,0.002417
12.673,59.1744,-0.001208
12.705,59.0781,0.004834
12.736,58.9869,0.004834
12.768,58.8894,-0.001208
12.798,58.7968,-0.001208
12.829,58.7080,0.003625
12.859,58.6143,0.003625
12.890,58.5234,0.001208
12.922,58.4283,0.003625
12.953,58.3344,0.002417
12.975,58.2693,-0.001208
12.998,58.2006,0.001208
13.027,58.1116,-0.001208
13.060,58.0137,0.001208
13.089,57.9238,-0.001208
13.121,57.8308,0.000000
13.152,57.7371,0.001208
13.184,57.6501,0.000000
13.215,57.6501,-0.001208
13.246,57.6501,0.003625
13.278,57.6501,0.000000
13.308,57.6501,0.000000
13.328,57.6501,0.002417
13.353,57.6501,0.001208
13.383,57.6501,0.002417
13.404,57.6501,0.002417
13.430,57.6501,0.002417
13.462,57.6501,0.006042
13.491,57.6501,0.000000
13.522,57.6501,0.001208
13.553,57.6501,0.003625
13.584,57.6501,-0.001208
13.616,57.6501,0.001208
13.647,57.7108,-0.012084
13.678,57.8035,-0.014501
13.710,57.9022,-0.002417
13.742,57.9955,0.001208
13.775,58.0933,0.000000
13.805,58.1836,-0.002417
13.837,58.2796,-0.003625
13.868,58.3735,0.000000
13.898,58.4642,0.001208
13.930,58.5595,-0.002417
13.960,58.6489,-0.003625
13.994,58.7509,0.001208
14.022,58.8363,0.001208
14.043,58.8991,0.001208
14.068,58.9759,0.001208
14.099,59.0659,-0.001208
14.130,59.1607,-0.003625
14.161,59.2513,-0.003625
14.192,59.3473,-0.002417
14.224,59.4393,-0.003625
14.254,59.5342,-0.002417
14.285,59.6236,-0.001208
14.316,59.7172,-0.001208
14.347,59.8084,0.000000
14.377,59.9026,-0.004834
14.410,59.9992,-0.003625
14.439,60.0859,0.001208
14.460,60.1483,0.003625
14.486,60.2281,-0.003625
14.507,60.2905,-0.003625
14.532,60.3652,-0.004834
14.562,60.4555,0.000000
14.593,60.5487,-0.001208
14.624,60.6415,0.001208
14.656,60.7373,-0.001208
14.688,60.8335,-0.001208
14.719,60.9265,-0.001208
14.751,61.0228,-0.002417
14.782,61.1137,-0.002417
14.812,61.2061,-0.006042
14.843,61.2973,-0.007251
14.874,61.3906,-0.001208
14.905,61.4836,0.000000
14.936,61.5771,-0.003625
14.967,61.6705,-0.008459
14.987,61.7296,-0.004834
15.014,61.8127,-0.003625
15.035,61.8742,-0.007251
15.059,61.9474,-0.006042
15.090,62.0422,-0.002417
15.122,62.1376,-0.003625
15.153,62.2306,-0.002417
15.186,62.3277,-0.007251
15.216,62.4193,-0.006042
15.252,62.5267,-0.003625
15.278,62.6055,-0.009668
15.309,62.6971,-0.009668
15.342,62.7991,-0.006042
15.372,62.8873,-0.009668
15.404,62.9803,-0.014501
15.435,63.0736,-0.013293
15.466,63.1681,-0.014501
15.498,63.2632,-0.022961
15.528,63.3538,-0.027794
15.559,63.4477,-0.025377
15.590,63.5392,-0.031420
15.611,63.6018,-0.033837
15.637,63.6501,-0.039879
15.659,63.6501,-0.035045
15.684,63.6501,-0.026586
15.715,63.6501,-0.038670
15.746,63.6501,-0.039879
15.777,63.6501,-0.032628
15.808,63.6501,-0.031420
15.839,63.6501,-0.037462
15.870,63.6501,-0.037462
15.901,63.6501,-0.029003
15.932,63.6501,-0.029003
15.963,63.6501,-0.032628
15.993,63.6501,-0.030211
16.024,63.6501,-0.030211
16.055,63.6501,-0.026586
16.086,63.6501,-0.027794
16.106,63.6501,-0.027794
16.133,63.6501,-0.027794
16.156,63.6501,-0.024169
16.179,63.6501,-0.027794
16.211,63.6501,-0.029003
16.241,63.6501,-0.025377
16.272,63.6501,-0.027794
16.303,63.6501,-0.029003
16.336,63.6501,-0.027794
16.365,63.6501,-0.022961
16.397,63.6501,-0.021752
16.428,63.6501,-0.022961
16.458,63.6501,-0.026586
16.489,63.6501,-0.026586
16.520,63.6501,-0.025377
16.551,63.6501,-0.022961
16.576,63.6501,-0.022961
16.597,63.6501,-0.025377
16.618,63.6501,-0.025377
16.643,63.6501,-0.020544
16.673,63.6501,-0.022961
16.704,63.6501,-0.027794
16.735,63.6501,-0.026586
16.767,63.6501,-0.021752
16.797,63.6501,-0.020544
16.829,63.6501,-0.020544
16.859,63.6501,-0.021752
16.891,63.6501,-0.020544
16.922,63.6501,-0.020544
16.953,63.6501,-0.020544
16.984,63.6501,-0.026586
17.015,63.6501,-0.029003
17.045,63.6501,-0.025377
17.068,63.6501,-0.025377
17.092,63.6501,-0.015710
17.124,63.6501,-0.020544
17.155,63.6501,-0.027794
17.186,63.6501,-0.022961
17.217,63.6501,-0.024169
17.248,63.6501,-0.026586
17.279,63.6501,-0.024169
17.310,63.6501,-0.025377
17.341,63.6501,-0.019335
17.372,63.6501,-0.020544
17.404,63.6501,-0.024169
17.434,63.6501,-0.020544
17.465,63.6501,-0.021752
17.496,63.6501,-0.022961
17.527,63.6501,-0.022961
17.547,63.6501,-0.019335
17.573,63.6501,-0.019335
17.594,63.6501,-0.019335
17.620,63.6501,-0.018127
17.650,63.6501,-0.021752
17.684,63.6501,-0.019335
17.713,63.6501,-0.021752
17.735,63.6501,-0.025377
17.759,63.6501,-0.024169
17.790,63.6501,-0.024169
17.821,63.6501,-0.016918
17.852,63.6501,-0.018127
17.883,63.6501,-0.019335
17.914,63.6501,-0.019335
17.946,63.6501,-0.019335
17.977,63.6501,-0.019335
18.008,63.6501,-0.020544
18.038,63.6501,-0.018127
18.069,63.6501,-0.021752
18.100,63.6501,-0.024169
18.131,63.6501,-0.019335
18.162,63.6501,-0.020544
18.194,63.6501,-0.020544
18.214,63.6501,-0.021752
18.240,63.6501,-0.024169
18.271,63.6501,-0.020544
18.292,63.6501,-0.024169
18.317,63.6501,-0.025377
18.347,63.6501,-0.025377
18.379,63.6501,-0.020544
18.410,63.6501,-0.020544
18.441,63.6501,-0.018127
18.472,63.6501,-0.019335
18.504,63.6501,-0.021752
18.535,63.6501,-0.020544
18.566,63.6501,-0.024169
18.598,63.6501,-0.020544
18.630,63.6501,-0.021752
18.661,63.6501,-0.021752
18.682,63.6501,-0.021752
18.707,63.6501,-0.020544
18.738,63.6501,-0.020544
18.769,63.6501,-0.018127
18.801,63.6501,-0.021752
18.832,63.6501,-0.022961
18.863,63.6501,-0.021752
18.894,63.6501,-0.021752
18.925,63.6501,-0.020544
18.957,63.6501,-0.021752
18.988,63.6501,-0.016918
19.020,63.6501,-0.021752
19.050,63.6501,-0.021752
19.082,63.6501,-0.020544
19.111,63.6501,-0.020544
19.144,63.6501,-0.027794
19.174,63.6501,-0.024169
19.204,63.6501,-0.019335
19.235,63.6501,-0.015710
19.269,63.6501,-0.019335
19.299,63.6501,-0.015710
19.329,63.6501,-0.021752
19.359,63.6501,-0.021752
19.389,63.6501,-0.020544
19.421,63.6501,-0.015710
19.452,63.6501,-0.016918
19.484,63.6501,-0.020544
19.515,63.6501,-0.020544
19.547,63.6501,-0.018127
19.578,63.6501,-0.016918
19.599,63.6501,-0.015710
19.624,63.6501,-0.018127
19.656,63.6501,-0.022961
19.687,63.6501,-0.018127
19.718,63.6501,-0.021752
19.749,63.6501,-0.024169
19.781,63.6501,-0.013293
19.811,63.6501,-0.013293
19.845,63.6501,-0.019335
19.874,63.6501,-0.016918
19.905,63.6501,-0.021752
19.936,63.6501,-0.021752
19.968,63.6501,-0.016918
19.998,63.6501,-0.019335
20.030,63.6501,-0.020544
20.061,63.6501,-0.020544
20.092,63.6501,-0.018127
20.113,63.6501,-0.021752
20.138,63.6501,-0.021752
20.160,63.6501,-0.022961
20.184,63.6501,-0.024169
20.216,63.6501,-0.018127
20.247,63.6501,-0.015710
20.277,63.6501,-0.016918
20.308,63.6501,-0.019335
20.339,63.6501,-0.018127
20.370,63.6501,-0.016918
20.402,63.6501,-0.015710
20.427,63.6501,-0.015710
20.448,63.6501,-0.019335
20.479,63.6501,-0.018127
20.511,63.6501,-0.020544
20.541,63.6501,-0.021752
20.570,63.6501,-0.019335
20.601,63.6501,-0.016918
20.632,63.6501,-0.020544
20.662,63.6501,-0.013293
20.694,63.6501,-0.013293
20.714,63.6501,-0.019335
20.740,63.6501,-0.025377
20.771,63.6501,-0.022961
20.802,63.6501,-0.016918
20.832,63.6501,-0.019335
20.864,63.6501,-0.019335
20.895,63.6501,-0.019335
20.925,63.6501,-0.021752
20.957,63.6501,-0.020544
20.987,63.6501,-0.022961
21.018,63.6501,-0.021752
21.049,63.6501,-0.015710
21.080,63.6501,-0.016918
21.114,63.6501,-0.018127
21.142,63.6501,-0.021752
21.173,63.6501,-0.019335
21.195,63.6501,-0.019335
21.220,63.6501,-0.019335
21.241,63.6501,-0.020544
21.266,63.6501,-0.020544
21.298,63.6501,-0.015710
21.329,63.6501,-0.019335
21.360,63.6501,-0.020544
21.391,63.6501,-0.018127
21.422,63.6501,-0.019335
21.454,63.6501,-0.016918
21.479,63.6501,-0.016918
21.516,63.6501,-0.018127
21.547,63.6501,-0.016918
21.578,63.6501,-0.024169
21.609,63.6501,-0.026586
21.640,63.6501,-0.020544
21.670,63.6501,-0.020544
21.703,63.6501,-0.019335
21.732,63.6501,-0.019335
21.764,63.6501,-0.019335
21.795,63.6501,-0.020544
21.826,63.6501,-0.018127
21.857,63.6501,-0.015710
21.878,63.6501,-0.018127
21.909,63.6501,-0.014501
21.934,63.6501,-0.014501
21.965,63.6501,-0.020544
21.997,63.6501,-0.018127
22.020,63.6501,-0.018127
22.043,63.6501,-0.015710
22.075,63.6501,-0.018127
22.105,63.6501,-0.020544
22.136,63.6501,-0.016918
22.168,63.6501,-0.019335
22.203,63.6501,-0.018127
22.230,63.6501,-0.021752
22.261,63.6501,-0.018127
22.292,63.6501,-0.021752
22.324,63.6501,-0.020544
22.357,63.6501,-0.018127
22.387,63.6501,-0.016918
22.418,63.6501,-0.014501
22.449,63.6501,-0.020544
22.480,63.6501,-0.022961
22.511,63.6501,-0.019335
22.532,63.6501,-0.018127
22.557,63.6501,-0.019335
22.580,63.6501,-0.018127
22.602,63.6501,-0.018127
22.633,63.6501,-0.019335
22.664,63.6501,-0.016918
22.695,63.6501,-0.021752
22.726,63.6501,-0.016918
22.758,63.6501,-0.019335
22.789,63.6501,-0.018127
22.819,63.6501,-0.019335
22.851,63.6501,-0.014501
22.882,63.6501,-0.019335
22.916,63.6501,-0.019335
22.945,63.6501,-0.019335
22.977,63.6501,-0.016918
23.009,63.6501,-0.018127
23.042,63.6501,-0.019335
23.071,63.6501,-0.020544
23.091,63.6501,-0.019335
23.118,63.6501,-0.014501
23.139,63.6501,-0.015710
23.165,63.6501,-0.019335
23.195,63.6501,-0.021752
23.226,63.6501,-0.018127
23.257,63.6501,-0.015710
23.288,63.6501,-0.020544
23.319,63.6501,-0.019335
23.350,63.6501,-0.015710
23.382,63.6501,-0.018127
23.412,63.6501,-0.020544
23.444,63.6501,-0.019335
23.476,63.6501,-0.019335
23.507,63.6501,-0.018127
23.530,63.6501,-0.019335
23.552,63.6501,-0.019335
23.584,63.6501,-0.018127
23.604,63.6501,-0.018127
23.631,63.6501,-0.016918
23.651,63.6501,-0.020544
23.678,63.6501,-0.016918
23.699,63.6501,-0.016918
23.723,63.6501,-0.016918
23.754,63.6501,-0.018127
23.785,63.6501,-0.016918
23.815,63.6501,-0.016918
23.847,63.6501,-0.020544
23.880,63.6501,-0.020544
23.909,63.6501,-0.016918
23.940,63.6501,-0.019335
23.973,63.6501,-0.022961
24.002,63.6501,-0.016918
24.034,63.6501,-0.020544
24.058,63.6501,-0.020544
24.081,63.6501,-0.018127
24.112,63.6501,-0.020544
24.144,63.6501,-0.015710
24.164,63.6501,-0.015710
24.190,63.6501,-0.014501
24.211,63.6501,-0.020544
24.237,63.6501,-0.013293
24.268,63.6501,-0.013293
24.300,63.6501,-0.015710
24.330,63.6501,-0.018127
24.361,63.6501,-0.016918
24.392,63.6501,-0.015710
24.423,63.6501,-0.014501
24.454,63.6501,-0.016918
24.486,63.6501,-0.015710
24.517,63.6501,-0.015710
24.548,63.6501,-0.018127
24.579,63.6501,-0.019335
24.610,63.6501,-0.014501
24.641,63.6501,-0.018127
24.673,63.6501,-0.018127
24.705,63.6501,-0.019335
24.735,63.6501,-0.016918
24.766,63.6501,-0.016918
24.786,63.6501,-0.019335
24.812,63.6501,-0.016918
24.843,63.6501,-0.015710
24.874,63.6501,-0.018127
24.906,63.6501,-0.015710
24.936,63.6501,-0.014501
24.968,63.6501,-0.016918
24.999,63.6501,-0.019335
25.031,63.6501,-0.015710
25.063,63.6501,-0.016918
25.093,63.6501,-0.016918
25.124,63.6501,-0.015710
25.154,63.6501,-0.014501
25.185,63.6501,-0.014501
25.216,63.6501,-0.014501
25.242,63.6501,-0.021752
25.267,63.6501,-0.018127
25.295,63.6501,-0.015710
25.325,63.6501,-0.018127
25.346,63.6501,-0.018127
25.372,63.6501,-0.016918
25.403,63.6501,-0.015710
25.434,63.6501,-0.015710
25.465,63.6501,-0.018127
25.496,63.6501,-0.014501
25.528,63.6501,-0.014501
25.559,63.6501,-0.018127
25.591,63.6501,-0.022961
25.621,63.6501,-0.016918
25.652,63.6501,-0.015710
25.684,63.6501,-0.020544
25.715,63.6501,-0.020544
25.747,63.6501,-0.012084
25.778,63.6501,-0.015710
25.809,63.6501,-0.015710
25.840,63.6501,-0.016918
25.870,63.6501,-0.015710
25.901,63.6501,-0.015710
25.922,63.6501,-0.020544
25.947,63.6501,-0.021752
25.977,63.6501,-0.014501
26.008,63.6501,-0.015710
26.039,63.6501,-0.013293
26.073,63.6501,-0.013293
26.101,63.6501,-0.018127
26.134,63.6501,-0.020544
26.163,63.6501,-0.016918
26.194,63.6501,-0.016918
26.225,63.6501,-0.016918
26.255,63.6501,-0.019335
26.287,63.6501,-0.016918
26.318,63.6501,-0.016918
26.349,63.6501,-0.022961
26.369,63.6501,-0.020544
26.395,63.6501,-0.020544
26.427,63.6501,-0.020544
26.458,63.6501,-0.016918
26.489,63.6501,-0.016918
26.520,63.6501,-0.018127
26.551,63.6501,-0.016918
26.584,63.6501,-0.016918
26.613,63.6501,-0.018127
26.644,63.6501,-0.015710
26.675,63.6501,-0.014501
26.707,63.6501,-0.020544
26.738,63.6501,-0.020544
26.769,63.6501,-0.015710
26.800,63.6501,-0.015710
26.831,63.6501,-0.018127
26.862,63.6501,-0.013293
26.897,63.6501,-0.013293
26.925,63.6501,-0.016918
26.956,63.6501,-0.018127
26.988,63.6501,-0.014501
27.020,63.6501,-0.014501
27.050,63.6501,-0.016918
27.073,63.6501,-0.018127
27.097,63.6501,-0.018127
27.128,63.6501,-0.016918
27.160,63.6501,-0.020544
27.191,63.6501,-0.019335
27.221,63.6501,-0.012084
27.253,63.6501,-0.015710
27.283,63.6501,-0.018127
27.313,63.6501,-0.019335
27.344,63.5827,0.004834
27.375,63.4903,0.002417
27.406,63.3937,0.003625
27.437,63.3034,0.013293
27.468,63.2083,0.020544
27.498,63.1201,0.025377
27.520,63.0535,0.035045
27.544,62.9812,0.043504
27.576,62.8873,0.050755
27.607,62.7920,0.064048
27.638,62.7004,0.079758
27.669,62.6062,0.093050
27.700,62.5135,0.105135
27.732,62.4163,0.117219
27.764,62.3233,0.122053
27.796,62.2268,0.132929
27.827,62.1331,0.155890
27.859,62.0357,0.172808
27.890,61.9435,0.178850
27.920,61.8538,0.189726
27.951,61.7606,0.192143
27.983,61.6657,0.188518
28.014,61.5697,0.183684
28.045,61.4809,0.172808
28.076,61.3868,0.160724
28.108,61.2916,0.149848
28.141,61.1917,0.114803
28.171,61.1005,0.004834
28.191,61.0417,-0.001208
28.216,60.9656,-0.001208
28.248,60.8713,0.002417
28.279,60.7768,-0.002417
28.310,60.6823,-0.001208
28.342,60.5882,0.001208
28.374,60.4931,0.000000
28.404,60.4036,0.002417
28.435,60.3100,0.001208
28.466,60.2161,-0.001208
28.499,60.1192,-0.001208
28.530,60.0233,-0.003625
28.562,59.9269,0.001208
28.593,59.8355,0.000000
28.624,59.7410,-0.003625
28.656,59.6461,0.003625
28.685,59.5592,0.002417
28.717,59.4638,0.000000
28.749,59.3651,-0.002417
28.779,59.2750,0.001208
28.811,59.1815,-0.001208
28.831,59.1215,-0.001208
28.858,59.0380,0.001208
28.880,58.9750,-0.002417
28.904,58.9016,0.002417
28.936,58.8071,0.000000
28.967,58.7120,0.002417
28.998,58.6210,0.001208
29.028,58.5295,0.002417
29.061,58.4333,-0.002417
29.090,58.3438,0.002417
29.117,58.2620,0.002417
29.152,58.1572,0.006042
29.183,58.0648,-0.003625
29.214,57.9715,-0.004834
29.245,57.8768,0.001208
29.277,57.7840,0.000000
29.308,57.6907,0.003625
29.328,57.6305,0.004834
29.356,57.6001,-0.001208
29.387,57.6001,-0.004834
29.418,57.6001,0.001208
29.448,57.6001,0.002417
29.469,57.6001,0.002417
29.495,57.6001,0.002417
29.526,57.6001,0.000000
29.557,57.6001,0.002417
29.588,57.6001,0.000000
29.619,57.6001,-0.001208
29.650,57.6001,0.001208
29.683,57.6001,0.002417
29.713,57.6001,-0.004834
29.744,57.6008,0.001208
29.775,57.6881,0.001208
29.806,57.7850,-0.014501
29.839,57.8814,-0.006042
29.869,57.9728,-0.002417
29.899,58.0611,0.001208
29.932,58.1603,-0.007251
29.961,58.2470,-0.006042
29.981,58.3074,-0.004834
30.007,58.3859,-0.003625
30.039,58.4793,-0.003625
30.069,58.5704,-0.001208
30.101,58.6662,0.001208
30.132,58.7588,-0.001208
30.164,58.8554,-0.001208
30.184,58.9170,-0.001208
30.210,58.9955,-0.001208
30.241,59.0897,0.002417
30.273,59.1815,0.002417
30.304,59.2766,-0.002417
30.335,59.3684,-0.003625
30.370,59.4764,-0.004834
30.392,59.5427,-0.004834
30.413,59.6039,-0.004834
30.443,59.6940,0.000000
30.474,59.7869,-0.003625
30.506,59.8817,-0.004834
30.540,59.9867,-0.001208
30.567,60.0680,-0.006042
30.600,60.1634,-0.004834
30.629,60.2501,0.000000
30.662,60.3518,-0.001208
30.691,60.4379,-0.002417
30.712,60.5009,-0.002417
30.739,60.5807,-0.002417
30.768,60.6698,-0.001208
30.799,60.7628,-0.006042
30.821,60.8294,-0.004834
30.846,60.9038,0.000000
30.869,60.9719,0.000000
30.892,61.0400,-0.001208
30.922,61.1303,-0.004834
30.955,61.2302,-0.003625
30.985,61.3178,-0.001208
31.017,61.4159,-0.003625
31.047,61.5050,-0.002417
31.083,61.6136,-0.004834
31.110,61.6940,-0.004834
31.142,61.7900,-0.003625
31.172,61.8812,-0.006042
31.204,61.9769,-0.002417
31.235,62.0720,-0.003625
31.266,62.1627,-0.007251
31.296,62.2532,-0.004834
31.328,62.3513,-0.007251
31.359,62.4431,-0.007251
31.390,62.5373,-0.008459
31.411,62.5970,-0.006042
31.437,62.6733,-0.006042
31.469,62.7714,-0.009668
31.499,62.8619,-0.013293
31.530,62.9552,-0.013293
31.561,63.0467,-0.010876
31.593,63.1448,-0.014501
31.624,63.2357,-0.016918
31.655,63.3323,-0.024169
31.686,63.4226,-0.031420
31.717,63.5148,-0.032628
31.748,63.6001,-0.032628
31.780,63.6001,-0.029003
31.811,63.6001,-0.039879
31.843,63.6001,-0.041087
31.873,63.6001,-0.037462
31.905,63.6001,-0.036253
31.936,63.6001,-0.037462
31.967,63.6001,-0.035045
31.998,63.6001,-0.035045
32.019,63.6001,-0.033837
32.045,63.6001,-0.033837
32.076,63.6001,-0.031420
32.107,63.6001,-0.032628
32.139,63.6001,-0.027794
32.170,63.6001,-0.027794
32.201,63.6001,-0.030211
32.232,63.6001,-0.031420
32.263,63.6001,-0.026586
32.294,63.6001,-0.027794
32.325,63.6001,-0.025377
32.358,63.6001,-0.025377
32.386,63.6001,-0.027794
32.417,63.6001,-0.026586
32.449,63.6001,-0.025377
32.480,63.6001,-0.026586
32.510,63.6001,-0.026586
32.543,63.6001,-0.027794
32.572,63.6001,-0.027794
32.604,63.6001,-0.025377
32.635,63.6001,-0.025377
32.666,63.6001,-0.026586
32.697,63.6001,-0.024169
32.728,63.6001,-0.024169
32.759,63.6001,-0.027794
32.790,63.6001,-0.027794
32.815,63.6001,-0.025377
32.836,63.6001,-0.025377
32.867,63.6001,-0.024169
32.899,63.6001,-0.025377
32.931,63.6001,-0.025377
32.961,63.6001,-0.027794
32.992,63.6001,-0.025377
33.024,63.6001,-0.025377
33.054,63.6001,-0.024169
33.085,63.6001,-0.022961
33.116,63.6001,-0.022961
33.147,63.6001,-0.022961
33.178,63.6001,-0.024169
33.209,63.6001,-0.021752
33.230,63.6001,-0.026586
33.255,63.6001,-0.026586
33.286,63.6001,-0.025377
33.316,63.6001,-0.021752
33.347,63.6001,-0.022961
33.378,63.6001,-0.022961
33.410,63.6001,-0.026586
33.442,63.6001,-0.019335
33.472,63.6001,-0.020544
33.503,63.6001,-0.025377
33.534,63.6001,-0.025377
33.565,63.6001,-0.022961
33.597,63.6001,-0.022961
33.628,63.6001,-0.020544
33.658,63.6001,-0.025377
33.689,63.6001,-0.029003
33.709,63.6001,-0.024169
33.736,63.6001,-0.024169
33.767,63.6001,-0.022961
33.798,63.6001,-0.018127
33.828,63.6001,-0.021752
33.859,63.6001,-0.019335
33.890,63.6001,-0.016918
33.912,63.6001,-0.021752
33.936,63.6001,-0.021752
33.969,63.6001,-0.021752
33.998,63.6001,-0.018127
34.028,63.6001,-0.016918
34.060,63.6001,-0.021752
34.092,63.6001,-0.018127
34.124,63.6001,-0.019335
34.156,63.6001,-0.020544
34.186,63.6001,-0.022961
34.217,63.6001,-0.021752
34.250,63.6001,-0.018127
34.279,63.6001,-0.021752
34.311,63.6001,-0.021752
34.344,63.6001,-0.021752
34.375,63.6001,-0.019335
34.405,63.6001,-0.016918
34.425,63.6001,-0.016918
34.451,63.6001,-0.021752
34.471,63.6001,-0.021752
34.499,63.6001,-0.020544
34.521,63.6001,-0.020544
34.543,63.6001,-0.019335
34.574,63.6001,-0.016918
34.606,63.6001,-0.016918
34.637,63.6001,-0.021752
34.667,63.6001,-0.020544
34.699,63.6001,-0.018127
34.731,63.6001,-0.015710
34.761,63.6001,-0.024169
34.792,63.6001,-0.016918
34.824,63.6001,-0.015710
34.855,63.6001,-0.019335
34.886,63.6001,-0.022961
34.917,63.6001,-0.021752
34.949,63.6001,-0.019335
34.980,63.6001,-0.021752
35.013,63.6001,-0.018127
35.043,63.6001,-0.018127
35.064,63.6001,-0.018127
35.090,63.6001,-0.022961
35.120,63.6001,-0.015710
35.152,63.6001,-0.016918
35.182,63.6001,-0.018127
35.212,63.6001,-0.020544
35.244,63.6001,-0.020544
35.275,63.6001,-0.019335
35.306,63.6001,-0.020544
35.338,63.6001,-0.015710
35.369,63.6001,-0.019335
35.400,63.6001,-0.016918
35.431,63.6001,-0.021752
35.462,63.6001,-0.024169
35.494,63.6001,-0.018127
35.526,63.6001,-0.018127
35.556,63.6001,-0.018127
35.588,63.6001,-0.020544
35.620,63.6001,-0.026586
35.649,63.6001,-0.018127
35.680,63.6001,-0.016918
35.701,63.6001,-0.018127
35.727,63.6001,-0.022961
35.748,63.6001,-0.022961
35.773,63.6001,-0.022961
35.804,63.6001,-0.018127
35.836,63.6001,-0.019335
35.866,63.6001,-0.019335
35.897,63.6001,-0.021752
35.928,63.6001,-0.019335
35.960,63.6001,-0.019335
35.990,63.6001,-0.016918
36.021,63.6001,-0.020544
36.052,63.6001,-0.025377
36.084,63.6001,-0.015710
36.115,63.6001,-0.015710
36.147,63.6001,-0.019335
36.178,63.6001,-0.021752
36.209,63.6001,-0.016918
36.241,63.6001,-0.020544
36.272,63.6001,-0.020544
36.292,63.6001,-0.015710
36.319,63.6001,-0.015710
36.350,63.6001,-0.015710
36.381,63.6001,-0.018127
36.412,63.6001,-0.018127
36.444,63.6001,-0.015710
36.474,63.6001,-0.016918
36.505,63.6001,-0.021752
36.539,63.6001,-0.016918
36.567,63.6001,-0.018127
36.599,63.6001,-0.020544
36.622,63.6001,-0.018127
36.645,63.6001,-0.018127
36.676,63.6001,-0.018127
36.708,63.6001,-0.020544
36.738,63.6001,-0.016918
36.772,63.6001,-0.019335
36.800,63.6001,-0.016918
36.831,63.6001,-0.018127
36.862,63.6001,-0.013293
36.893,63.6001,-0.015710
36.923,63.6001,-0.019335
36.955,63.6001,-0.021752
36.975,63.6001,-0.021752
37.001,63.6001,-0.020544
37.022,63.6001,-0.018127
37.048,63.6001,-0.019335
37.079,63.6001,-0.022961
37.111,63.6001,-0.018127
37.141,63.6001,-0.015710
37.162,63.6001,-0.019335
37.189,63.6001,-0.021752
37.210,63.6001,-0.020544
37.235,63.6001,-0.020544
37.266,63.6001,-0.020544
37.298,63.6001,-0.022961
37.329,63.6001,-0.019335
37.361,63.6001,-0.015710
37.391,63.6001,-0.021752
37.422,63.6001,-0.021752
37.452,63.6001,-0.022961
37.484,63.6001,-0.015710
37.514,63.6001,-0.016918
37.545,63.6001,-0.018127
37.576,63.6001,-0.016918
37.607,63.6001,-0.019335
37.638,63.6001,-0.019335
37.670,63.6001,-0.019335
37.700,63.6001,-0.018127
37.721,63.6001,-0.016918
37.746,63.6001,-0.018127
37.778,63.6001,-0.020544
37.808,63.6001,-0.013293
37.839,63.6001,-0.015710
37.871,63.6001,-0.019335
37.903,63.6001,-0.016918
37.931,63.6001,-0.016918
37.963,63.6001,-0.014501
37.994,63.6001,-0.014501
38.026,63.6001,-0.020544
38.056,63.6001,-0.019335
38.087,63.6001,-0.020544
38.119,63.6001,-0.019335
38.150,63.6001,-0.015710
38.181,63.6001,-0.015710
38.211,63.6001,-0.019335
38.233,63.6001,-0.013293
38.263,63.6001,-0.013293
38.288,63.6001,-0.013293
38.319,63.6001,-0.020544
38.351,63.6001,-0.018127
38.382,63.6001,-0.021752
38.412,63.6001,-0.016918
38.444,63.6001,-0.018127
38.474,63.6001,-0.020544
38.505,63.6001,-0.016918
38.536,63.6001,-0.016918
38.569,63.6001,-0.014501
38.598,63.6001,-0.015710
38.629,63.6001,-0.014501
38.660,63.6001,-0.019335
38.692,63.6001,-0.019335
38.723,63.6001,-0.014501
38.755,63.6001,-0.019335
38.786,63.6001,-0.015710
38.806,63.6001,-0.018127
38.834,63.6001,-0.018127
38.854,63.6001,-0.021752
38.879,63.6001,-0.016918
38.911,63.6001,-0.016918
38.941,63.6001,-0.020544
38.972,63.6001,-0.021752
39.003,63.6001,-0.018127
39.034,63.6001,-0.020544
39.066,63.6001,-0.015710
39.097,63.6001,-0.015710
39.128,63.6001,-0.020544
39.159,63.6001,-0.018127
39.191,63.6001,-0.015710
39.222,63.6001,-0.016918
39.255,63.6001,-0.015710
39.284,63.6001,-0.019335
39.315,63.6001,-0.021752
39.345,63.6001,-0.016918
39.366,63.6001,-0.016918
39.393,63.6001,-0.018127
39.415,63.6001,-0.018127
39.438,63.6001,-0.021752
39.469,63.6001,-0.020544
39.500,63.6001,-0.020544
39.531,63.6001,-0.019335
39.562,63.6001,-0.020544
39.593,63.6001,-0.014501
39.626,63.6001,-0.018127
39.657,63.6001,-0.018127
39.688,63.6001,-0.020544
39.719,63.6001,-0.018127
39.751,63.6001,-0.018127
39.783,63.6001,-0.020544
39.817,63.6001,-0.020544
39.846,63.6001,-0.018127
39.876,63.6001,-0.016918
39.900,63.6001,-0.015710
39.923,63.6001,-0.015710
39.954,63.6001,-0.016918
39.984,63.6001,-0.015710
40.015,63.6001,-0.015710
40.047,63.6001,-0.022961
40.078,63.6001,-0.019335
40.108,63.6001,-0.019335
40.139,63.6001,-0.016918
40.170,63.6001,-0.021752
40.202,63.6001,-0.016918
40.232,63.6001,-0.014501
40.264,63.6001,-0.018127
40.294,63.6001,-0.019335
40.316,63.6001,-0.016918
40.342,63.6001,-0.012084
40.373,63.6001,-0.013293
40.403,63.6001,-0.015710
40.434,63.6001,-0.019335
40.456,63.6001,-0.016918
40.481,63.6001,-0.019335
40.512,63.6001,-0.019335
40.544,63.6001,-0.020544
40.575,63.6001,-0.020544
40.607,63.6001,-0.019335
40.637,63.6001,-0.020544
40.668,63.6001,-0.021752
40.699,63.6001,-0.018127
40.730,63.6001,-0.015710
40.761,63.6001,-0.020544
40.792,63.6001,-0.016918
40.824,63.6001,-0.019335
40.855,63.6001,-0.018127
40.887,63.6001,-0.015710
40.918,63.6001,-0.019335
40.949,63.6001,-0.020544
40.980,63.6001,-0.018127
41.011,63.6001,-0.014501
41.042,63.6001,-0.014501
41.064,63.6001,-0.014501
41.089,63.6001,-0.013293
41.120,63.6001,-0.019335
41.151,63.6001,-0.018127
41.183,63.6001,-0.015710
41.214,63.6001,-0.022961
41.247,63.6001,-0.024169
41.276,63.6001,-0.018127
41.309,63.6001,-0.016918
41.339,63.6001,-0.018127
41.370,63.6001,-0.016918
41.400,63.6001,-0.018127
41.431,63.6001,-0.024169
41.462,63.6001,-0.018127
41.493,63.6001,-0.020544
41.523,63.6001,-0.016918
41.555,63.6001,-0.014501
41.587,63.6001,-0.016918
41.616,63.6001,-0.018127
41.647,63.6001,-0.016918
41.678,63.6001,-0.019335
41.709,63.6001,-0.016918
41.740,63.6001,-0.016918
41.771,63.6001,-0.016918
41.802,63.6001,-0.021752
41.832,63.6001,-0.021752
41.863,63.6001,-0.019335
41.895,63.6001,-0.022961
41.926,63.6001,-0.014501
41.958,63.6001,-0.015710
41.989,63.6001,-0.020544
42.021,63.6001,-0.018127
42.051,63.6001,-0.021752
42.083,63.6001,-0.015710
42.115,63.6001,-0.015710
42.145,63.6001,-0.015710
42.166,63.6001,-0.015710
42.192,63.6001,-0.015710
42.223,63.6001,-0.019335
42.255,63.6001,-0.016918
42.286,63.6001,-0.018127
42.316,63.6001,-0.019335
42.348,63.6001,-0.019335
42.379,63.6001,-0.020544
42.410,63.6001,-0.015710
42.441,63.6001,-0.016918
42.473,63.6001,-0.016918
42.504,63.6001,-0.019335
42.535,63.6001,-0.019335
42.566,63.6001,-0.020544
42.597,63.6001,-0.015710
42.628,63.6001,-0.013293
42.660,63.6001,-0.014501
42.690,63.6001,-0.015710
42.710,63.6001,-0.015710
42.737,63.6001,-0.013293
42.768,63.6001,-0.013293
42.799,63.6001,-0.018127
42.830,63.6001,-0.020544
42.860,63.6001,-0.015710
42.892,63.6001,-0.016918
42.923,63.6001,-0.018127
42.955,63.6001,-0.016918
42.984,63.6001,-0.019335
43.016,63.6001,-0.019335
43.048,63.6001,-0.018127
43.079,63.6001,-0.016918
43.111,63.6001,-0.016918
43.142,63.6001,-0.019335
43.172,63.6001,-0.016918
43.203,63.6001,-0.014501
43.235,63.6001,-0.015710
43.266,63.6001,-0.018127
43.297,63.6001,-0.018127
43.318,63.6001,-0.014501
43.343,63.6001,-0.014501
43.374,63.6001,-0.015710
43.404,63.5429,-0.018127
43.435,63.4488,-0.004834
43.467,63.3522,-0.002417
43.498,63.2598,0.007251
43.529,63.1667,0.013293
43.560,63.0746,0.030211
43.592,62.9771,0.036253
43.623,62.8847,0.051963
43.655,62.7906,0.062839
43.686,62.6984,0.076132
43.717,62.6052,0.088217
43.748,62.5122,0.105135
43.778,62.4219,0.109969
43.809,62.3259,0.123262
43.830,62.2667,0.132929
43.856,62.1882,0.132929
43.887,62.0948,0.151056
43.918,62.0022,0.169183
43.948,61.9109,0.178850
43.979,61.8197,0.200602
44.011,61.7222,0.209061
44.042,61.6296,0.212687
44.073,61.5360,0.216312
44.105,61.4417,0.198185
44.136,61.3497,0.198185
44.167,61.2567,0.167974
44.197,61.1636,0.154681
44.228,61.0742,0.060422
44.259,60.9803,-0.001208
44.293,60.8778,0.001208
44.322,60.7892,0.002417
44.352,60.6972,0.000000
44.373,60.6363,0.000000
44.399,60.5589,-0.001208
44.430,60.4661,-0.001208
44.461,60.3737,-0.003625
44.492,60.2801,-0.001208
44.523,60.1845,0.000000
44.553,60.0963,-0.001208
44.584,60.0039,-0.002417
44.617,59.9033,0.001208
44.647,59.8134,0.000000
44.678,59.7213,0.002417
44.709,59.6301,-0.001208
44.740,59.5362,-0.001208
44.772,59.4405,0.002417
44.802,59.3483,0.000000
44.832,59.2569,0.000000
44.864,59.1648,0.001208
44.895,59.0694,-0.001208
44.926,58.9797,-0.002417
44.957,58.8861,0.003625
44.995,58.7711,-0.001208
45.018,58.7028,0.000000
45.049,58.6070,0.001208
45.080,58.5152,0.002417
45.111,58.4214,0.003625
45.142,58.3292,0.001208
45.173,58.2363,0.004834
45.204,58.1450,0.003625
45.235,58.0499,0.002417
45.258,57.9816,0.002417
45.281,57.9122,-0.001208
45.311,57.8213,0.001208
45.342,57.7314,-0.001208
45.365,57.6600,-0.001208
45.388,57.5928,0.003625
45.419,57.5501,0.003625
45.451,57.5501,-0.010876
45.481,57.5501,-0.002417
45.503,57.5501,-0.002417
45.527,57.5501,-0.002417
45.558,57.5501,-0.002417
45.589,57.5501,0.000000
45.621,57.5501,0.000000
45.652,57.5501,-0.001208
45.683,57.5501,0.003625
45.714,57.5501,0.000000
45.745,57.5501,-0.002417
45.776,57.5501,-0.002417
45.806,57.5501,0.001208
45.837,57.5507,0.001208
45.861,57.6130,-0.001208
45.883,57.6771,-0.014501
45.914,57.7707,-0.008459
45.944,57.8595,-0.003625
45.975,57.9549,-0.003625
46.006,58.0477,-0.002417
46.037,58.1403,-0.002417
46.068,58.2319,0.000000
46.098,58.3230,0.001208
46.129,58.4173,-0.001208
46.161,58.5139,0.001208
46.194,58.6101,0.001208
46.224,58.6995,-0.001208
46.245,58.7634,-0.001208
46.271,58.8433,0.000000
46.293,58.9063,-0.002417
46.317,58.9795,-0.002417
46.347,59.0710,-0.004834
46.377,59.1628,-0.001208
46.409,59.2578,0.001208
46.439,59.3491,-0.001208
46.471,59.4411,-0.002417
46.501,59.5330,-0.002417
46.533,59.6263,-0.001208
46.564,59.7186,-0.003625
46.596,59.8159,-0.001208
46.626,59.9070,-0.002417
46.657,59.9992,-0.001208
46.677,60.0595,-0.001208
46.704,60.1396,-0.003625
46.726,60.2043,-0.003625
46.750,60.2790,0.000000
46.781,60.3741,-0.004834
46.812,60.4638,-0.002417
46.843,60.5578,0.001208
46.875,60.6513,-0.003625
46.905,60.7452,-0.002417
46.936,60.8376,-0.006042
46.959,60.9063,-0.002417
46.983,60.9777,-0.002417
47.014,61.0722,-0.006042
47.045,61.1649,-0.002417
47.076,61.2570,0.000000
47.107,61.3509,-0.003625
47.137,61.4400,-0.003625
47.168,61.5324,-0.002417
47.200,61.6290,-0.001208
47.231,61.7199,-0.006042
47.262,61.8165,-0.003625
47.293,61.9083,-0.001208
47.325,62.0038,-0.009668
47.356,62.0949,-0.003625
47.376,62.1552,-0.003625
47.402,62.2356,-0.010876
47.424,62.3016,-0.010876
47.446,62.3664,-0.007251
47.480,62.4696,-0.006042
47.511,62.5620,-0.003625
47.543,62.6586,-0.008459
47.574,62.7495,-0.012084
47.604,62.8432,-0.007251
47.639,62.9466,-0.009668
47.667,63.0297,-0.015710
47.698,63.1212,-0.014501
47.729,63.2187,-0.019335
47.761,63.3096,-0.026586
47.792,63.4083,-0.026586
47.824,63.4995,-0.035045
47.854,63.5501,-0.039879
47.885,63.5501,-0.031420
47.916,63.5501,-0.039879
47.948,63.5501,-0.036253
47.979,63.5501,-0.035045
47.999,63.5501,-0.039879
48.026,63.5501,-0.038670
48.047,63.5501,-0.038670
48.071,63.5501,-0.032628
48.103,63.5501,-0.035045
48.134,63.5501,-0.038670
48.165,63.5501,-0.031420
48.196,63.5501,-0.031420
48.226,63.5501,-0.030211
48.259,63.5501,-0.033837
48.288,63.5501,-0.032628
48.319,63.5501,-0.029003
48.351,63.5501,-0.031420
