Elapsed Time (s),Position (mm),Force (N)
-0.014,80.4902,0.064887
0.017,80.4902,0.064887
0.048,80.4902,0.065000
0.079,80.4902,0.065000
0.111,80.4902,0.065000
0.141,80.4902,0.065000
0.173,80.4902,0.065000
0.203,80.4902,0.065000
0.234,80.4902,0.065000
0.266,80.4902,0.065000
0.298,80.4902,0.065103
0.327,80.4902,0.065103
0.359,80.4902,0.065103
0.390,80.4902,0.065103
0.422,80.4902,0.065103
0.452,80.4902,0.065103
0.483,80.4902,0.065103
0.514,80.4902,0.065103
0.545,80.4902,0.065245
0.576,80.4902,0.065245
0.607,80.4902,0.065245
0.638,80.4902,0.065245
0.669,80.4902,0.065245
0.701,80.4902,0.065245
0.732,80.4902,0.065245
0.763,80.4902,0.065358
0.795,80.4902,0.065358
0.826,80.4902,0.065358
0.857,80.4902,0.065358
0.888,80.4902,0.065358
0.919,80.4902,0.065358
0.950,80.4902,0.065358
0.982,80.4902,0.065358
1.013,80.4902,0.065358
1.045,80.4902,0.065358
1.075,80.4902,0.065461
1.106,80.4902,0.065461
1.136,80.4902,0.065461
1.168,80.4902,0.065461
1.199,80.4902,0.065461
1.230,80.4902,0.065461
1.262,80.4902,0.065461
1.292,80.4902,0.065574
1.324,80.4902,0.065574
1.355,80.4902,0.065574
1.388,80.4902,0.065574
1.418,80.4902,0.065574
1.449,80.4902,0.065574
1.479,80.4902,0.065574
1.511,80.4902,0.065574
1.542,80.4902,0.065574
1.574,80.4902,0.065621
1.605,80.4902,0.065621
1.637,80.4902,0.065621
1.667,80.4902,0.065621
1.699,80.4902,0.065621
1.729,80.4902,0.065621
1.760,80.4902,0.065621
1.791,80.4902,0.065621
1.822,80.4902,0.065678
1.853,80.4902,0.065678
1.885,80.4902,0.065678
1.915,80.4902,0.065678
1.947,80.4902,0.065678
1.977,80.4902,0.065678
2.009,80.4902,0.065678
2.040,80.4902,0.065800
2.070,80.4902,0.065800
2.101,80.4902,0.065800
2.132,80.4902,0.065800
2.163,80.4902,0.065800
2.194,80.4902,0.065800
2.225,80.4902,0.065800
2.257,80.4902,0.065800
2.289,80.4902,0.065800
2.320,80.4902,0.065914
2.352,80.4902,0.065914
2.384,80.4902,0.065914
2.415,80.4902,0.065914
2.447,80.4902,0.065914
2.477,80.4902,0.065914
2.509,80.4902,0.065914
2.540,80.4902,0.065914
2.571,80.4902,0.066017
2.602,80.4902,0.066017
2.633,80.4902,0.066017
2.663,80.4902,0.066017
2.694,80.4902,0.066017
2.726,80.4902,0.066017
2.757,80.4902,0.066017
2.787,80.4902,0.066064
2.818,80.4902,0.066064
2.849,80.4902,0.066064
2.880,80.4902,0.066064
2.911,80.4902,0.066064
2.942,80.4902,0.066064
2.973,80.4902,0.066064
3.004,80.4902,0.066064
3.036,80.4902,0.066064
3.068,80.4902,0.066102
3.098,80.4902,0.066102
3.130,80.4902,0.066102
3.160,80.4902,0.066102
3.191,80.4902,0.066102
3.222,80.4902,0.066102
3.252,80.4902,0.066102
3.283,80.4902,0.066177
3.314,80.4902,0.066177
3.345,80.4902,0.066177
3.377,80.4902,0.066177
3.408,80.4902,0.066177
3.441,80.4902,0.066177
3.471,80.4902,0.066177
3.502,80.4902,0.066177
3.534,80.4902,0.066177
3.565,80.4902,0.066224
3.594,80.4902,0.066224
3.626,80.4902,0.066224
3.657,80.4902,0.066224
3.689,80.4902,0.066224
3.719,80.4902,0.066224
3.751,80.4902,0.066224
3.782,80.4902,0.066290
3.813,80.4902,0.066290
3.844,80.4902,0.066290
3.875,80.4902,0.066290
3.907,80.4902,0.066290
3.937,80.4902,0.066290
3.967,80.4902,0.066290
3.999,80.4902,0.066290
4.029,80.4902,0.066290
4.060,80.4902,0.066356
4.091,80.4902,0.066356
4.122,80.4901,0.066356
4.152,80.4894,0.066356
4.183,80.4879,0.066356
4.213,80.4858,0.066356
4.244,80.4828,0.066356
4.276,80.4792,0.066507
4.306,80.4748,0.066507
4.338,80.4695,0.066507
4.370,80.4636,0.066507
4.401,80.4574,0.066507
4.432,80.4512,0.066507
4.463,80.4451,0.066507
4.494,80.4389,0.066507
4.524,80.4328,0.066790
4.554,80.4267,0.066790
4.584,80.4206,0.066790
4.615,80.4144,0.066790
4.646,80.4082,0.066790
4.677,80.4020,0.066790
4.708,80.3958,0.066790
4.739,80.3898,0.066790
4.769,80.3837,0.066950
4.800,80.3774,0.066950
4.831,80.3713,0.066950
4.862,80.3652,0.066950
4.893,80.3590,0.066950
4.923,80.3528,0.066950
4.955,80.3465,0.066950
4.986,80.3403,0.066950
5.017,80.3341,0.066950
5.049,80.3277,0.066978
5.080,80.3215,0.066978
5.112,80.3152,0.066978
5.142,80.3090,0.066978
5.173,80.3028,0.066978
5.204,80.2969,0.066978
5.234,80.2907,0.066978
5.265,80.2845,0.066978
5.296,80.2784,0.067025
5.327,80.2721,0.067025
5.358,80.2659,0.067025
5.389,80.2597,0.067025
5.420,80.2536,0.067025
5.450,80.2474,0.067025
5.482,80.2412,0.067025
5.513,80.2350,0.067025
5.543,80.2288,0.067035
5.574,80.2227,0.067035
5.606,80.2163,0.067035
5.637,80.2103,0.067035
5.668,80.2036,0.067035
5.699,80.1978,0.067035
5.730,80.1914,0.067035
5.761,80.1854,0.067035
5.792,80.1792,0.067138
5.823,80.1728,0.067138
5.854,80.1669,0.067138
5.884,80.1607,0.067138
5.916,80.1544,0.067138
5.947,80.1480,0.067138
5.978,80.1420,0.067138
6.009,80.1358,0.067138
6.040,80.1297,0.067176
6.071,80.1234,0.067176
6.101,80.1172,0.067176
6.132,80.1111,0.067176
6.163,80.1049,0.067176
6.194,80.0986,0.067176
6.225,80.0926,0.067176
6.256,80.0863,0.067176
6.287,80.0803,0.067185
6.317,80.0741,0.067185
6.348,80.0680,0.067185
6.379,80.0617,0.067185
6.410,80.0555,0.067185
6.442,80.0492,0.067185
6.473,80.0430,0.067185
6.505,80.0365,0.067185
6.536,80.0303,0.067195
6.568,80.0240,0.067195
6.599,80.0178,0.067195
6.629,80.0115,0.067195
6.661,80.0054,0.067195
6.692,79.9992,0.067195
6.724,79.9929,0.067195
6.755,79.9864,0.067195
6.786,79.9802,0.067233
6.817,79.9742,0.067233
6.848,79.9678,0.067233
6.879,79.9618,0.067233
6.909,79.9556,0.067233
6.940,79.9496,0.067233
6.970,79.9433,0.067233
7.002,79.9371,0.067233
7.033,79.9307,0.067242
7.065,79.9245,0.067242
7.096,79.9183,0.067242
7.126,79.9123,0.067242
7.158,79.9061,0.067242
7.189,79.8996,0.067242
7.220,79.8935,0.067242
7.252,79.8872,0.067242
7.282,79.8813,0.067185
7.313,79.8749,0.067185
7.344,79.8687,0.067185
7.376,79.8623,0.067185
7.407,79.8561,0.067185
7.437,79.8501,0.067185
7.468,79.8438,0.067185
7.500,79.8376,0.067185
7.531,79.8313,0.067167
7.562,79.8252,0.067167
7.593,79.8189,0.067167
7.624,79.8127,0.067167
7.656,79.8062,0.067167
7.687,79.8002,0.067167
7.719,79.7937,0.067167
7.750,79.7875,0.067167
7.781,79.7812,0.067119
7.813,79.7750,0.067119
7.844,79.7687,0.067119
7.876,79.7624,0.067119
7.907,79.7561,0.067119
7.938,79.7499,0.067119
7.969,79.7437,0.067119
8.001,79.7374,0.067119
8.033,79.7309,0.067185
8.063,79.7250,0.067185
8.096,79.7184,0.067185
8.125,79.7125,0.067185
8.156,79.7063,0.067185
8.188,79.6999,0.067185
8.220,79.6936,0.067185
8.251,79.6874,0.067185
8.281,79.6812,0.067157
8.313,79.6750,0.067157
8.343,79.6688,0.067157
8.374,79.6627,0.067157
8.405,79.6562,0.067157
8.435,79.6505,0.067157
8.467,79.6443,0.067157
8.498,79.6381,0.067157
8.528,79.6317,0.067063
8.559,79.6255,0.067063
8.591,79.6195,0.067063
8.623,79.6130,0.067063
8.653,79.6068,0.067063
8.685,79.6005,0.067063
8.717,79.5943,0.067063
8.747,79.5882,0.067063
8.777,79.5821,0.067054
8.809,79.5757,0.067054
8.839,79.5697,0.067054
8.870,79.5635,0.067054
8.902,79.5572,0.067054
8.933,79.5509,0.067054
8.963,79.5449,0.067054
8.994,79.5388,0.067054
9.026,79.5323,0.067054
9.057,79.5261,0.067035
9.088,79.5199,0.067035
9.118,79.5139,0.067035
9.149,79.5077,0.067035
9.180,79.5015,0.067035
9.211,79.4953,0.067035
9.242,79.4891,0.067035
9.272,79.4831,0.067035
9.304,79.4767,0.067035
9.335,79.4706,0.067025
9.366,79.4643,0.067025
9.398,79.4580,0.067025
9.430,79.4514,0.067025
9.461,79.4454,0.067025
9.491,79.4394,0.067025
9.521,79.4332,0.067025
9.552,79.4270,0.067025
9.583,79.4210,0.066940
9.614,79.4148,0.066940
9.645,79.4087,0.066940
9.675,79.4025,0.066940
9.707,79.3962,0.066940
9.737,79.3901,0.066940
9.769,79.3838,0.066940
9.800,79.3776,0.066940
9.831,79.3714,0.066865
9.862,79.3650,0.066865
9.893,79.3588,0.066865
9.925,79.3527,0.066865
9.955,79.3465,0.066865
9.987,79.3399,0.066865
10.018,79.3338,0.066865
10.050,79.3274,0.066856
10.082,79.3213,0.066856
10.113,79.3150,0.066856
10.144,79.3088,0.066856
10.175,79.3024,0.066856
10.205,79.2966,0.066856
10.236,79.2904,0.066856
10.267,79.2842,0.066856
10.297,79.2781,0.066856
10.327,79.2723,0.066809
10.358,79.2660,0.066809
10.389,79.2599,0.066809
10.420,79.2537,0.066809
10.450,79.2474,0.066809
10.482,79.2413,0.066809
10.513,79.2350,0.066809
10.544,79.2288,0.066761
10.575,79.2227,0.066761
10.606,79.2164,0.066761
10.637,79.2102,0.066761
10.668,79.2040,0.066761
10.699,79.1979,0.066761
10.731,79.1913,0.066761
10.762,79.1851,0.066761
10.793,79.1788,0.066714
10.825,79.1726,0.066714
10.855,79.1665,0.066714
10.887,79.1602,0.066714
10.918,79.1539,0.066714
10.950,79.1475,0.066714
10.981,79.1415,0.066714
11.012,79.1350,0.066714
11.044,79.1286,0.066667
11.076,79.1224,0.066667
11.108,79.1159,0.066667
11.139,79.1097,0.066667
11.171,79.1031,0.066667
11.202,79.0971,0.066667
11.233,79.0910,0.066667
11.264,79.0847,0.066667
11.295,79.0787,0.066554
11.326,79.0723,0.066554
11.357,79.0663,0.066554
11.388,79.0601,0.066554
11.418,79.0539,0.066554
11.450,79.0476,0.066554
11.480,79.0416,0.066554
11.511,79.0352,0.066554
11.543,79.0291,0.066469
11.575,79.0225,0.066469
11.605,79.0167,0.066469
11.635,79.0105,0.066469
11.667,79.0043,0.066469
11.698,78.9980,0.066469
11.729,78.9918,0.066469
11.759,78.9857,0.066469
11.790,78.9795,0.066422
11.821,78.9734,0.066422
11.852,78.9672,0.066422
11.884,78.9608,0.066422
11.915,78.9547,0.066422
11.945,78.9484,0.066422
11.976,78.9424,0.066422
12.007,78.9361,0.066422
12.038,78.9301,0.066328
12.068,78.9238,0.066328
12.099,78.9177,0.066328
12.130,78.9115,0.066328
12.161,78.9054,0.066328
12.192,78.8992,0.066328
12.222,78.8932,0.066328
12.253,78.8868,0.066328
12.285,78.8805,0.066234
12.317,78.8743,0.066234
12.348,78.8679,0.066234
12.379,78.8618,0.066234
12.410,78.8555,0.066234
12.441,78.8493,0.066234
12.472,78.8429,0.066234
12.503,78.8369,0.066234
12.535,78.8305,0.066102
12.566,78.8242,0.066102
12.597,78.8180,0.066102
12.629,78.8117,0.066102
12.660,78.8055,0.066102
12.691,78.7993,0.066102
12.723,78.7930,0.066102
12.754,78.7868,0.066102
12.785,78.7807,0.066045
12.816,78.7744,0.066045
12.847,78.7682,0.066045
12.878,78.7618,0.066045
12.909,78.7559,0.066045
12.940,78.7497,0.066045
12.970,78.7436,0.066045
13.002,78.7371,0.066045
13.032,78.7312,0.066036
13.063,78.7250,0.066036
13.093,78.7190,0.066036
13.124,78.7128,0.066036
13.154,78.7068,0.066036
13.185,78.7004,0.066036
13.216,78.6942,0.066036
13.248,78.6879,0.066036
13.278,78.6820,0.065970
13.310,78.6755,0.065970
13.341,78.6694,0.065970
13.372,78.6630,0.065970
13.404,78.6569,0.065970
13.436,78.6505,0.065970
13.466,78.6443,0.065970
13.498,78.6378,0.065970
13.529,78.6319,0.065866
13.560,78.6255,0.065866
13.592,78.6193,0.065866
13.622,78.6130,0.065866
13.654,78.6069,0.065866
13.685,78.6003,0.065866
13.717,78.5943,0.065866
13.749,78.5877,0.065866
13.780,78.5816,0.065791
13.811,78.5753,0.065791
13.843,78.5691,0.065791
13.874,78.5629,0.065791
13.904,78.5568,0.065791
13.934,78.5509,0.065791
13.968,78.5439,0.065791
13.997,78.5383,0.065791
14.028,78.5319,0.065669
14.059,78.5258,0.065669
14.090,78.5195,0.065669
14.121,78.5134,0.065669
14.152,78.5071,0.065669
14.183,78.5010,0.065669
14.214,78.4947,0.065669
14.246,78.4884,0.065669
14.277,78.4820,0.065555
14.309,78.4758,0.065555
14.340,78.4694,0.065555
14.371,78.4634,0.065555
14.403,78.4569,0.065555
14.434,78.4507,0.065555
14.465,78.4446,0.065555
14.496,78.4385,0.065555
14.527,78.4323,0.065490
14.557,78.4261,0.065490
14.588,78.4200,0.065490
14.619,78.4138,0.065490
14.650,78.4076,0.065490
14.681,78.4014,0.065490
14.712,78.3952,0.065490
14.742,78.3890,0.065490
14.774,78.3828,0.065490
14.805,78.3765,0.065490
14.836,78.3704,0.065367
14.869,78.3638,0.065367
14.898,78.3580,0.065367
14.930,78.3517,0.065367
14.961,78.3454,0.065367
14.991,78.3393,0.065367
15.022,78.3332,0.065367
15.054,78.3269,0.065301
15.086,78.3206,0.065301
15.117,78.3141,0.065301
15.148,78.3079,0.065301
15.178,78.3019,0.065301
15.210,78.2956,0.065301
15.241,78.2895,0.065301
15.272,78.2833,0.065301
15.303,78.2770,0.065301
15.335,78.2707,0.065245
15.365,78.2646,0.065245
15.396,78.2583,0.065245
15.428,78.2521,0.065245
15.459,78.2459,0.065245
15.490,78.2397,0.065245
15.520,78.2337,0.065245
15.551,78.2274,0.065094
15.582,78.2211,0.065094
15.614,78.2148,0.065094
15.644,78.2089,0.065094
15.674,78.2027,0.065094
15.705,78.1967,0.065094
15.736,78.1903,0.065094
15.767,78.1843,0.065094
15.798,78.1780,0.065094
15.828,78.1720,0.064990
15.859,78.1656,0.064990
15.890,78.1597,0.064990
15.922,78.1531,0.064990
15.954,78.1469,0.064990
15.986,78.1403,0.064990
16.017,78.1343,0.064990
16.047,78.1279,0.064990
16.079,78.1219,0.064924
16.111,78.1155,0.064924
16.141,78.1095,0.064924
16.173,78.1030,0.064924
16.204,78.0967,0.064924
16.235,78.0906,0.064924
16.267,78.0843,0.064924
16.297,78.0781,0.064821
16.328,78.0720,0.064821
16.360,78.0656,0.064821
16.391,78.0595,0.064821
16.421,78.0533,0.064821
16.452,78.0472,0.064821
16.483,78.0409,0.064821
16.514,78.0349,0.064821
16.545,78.0285,0.064821
16.576,78.0224,0.064698
16.607,78.0161,0.064698
16.639,78.0099,0.064698
16.670,78.0034,0.064698
16.702,77.9971,0.064698
16.734,77.9907,0.064698
16.765,77.9846,0.064698
16.797,77.9782,0.064698
16.827,77.9722,0.064604
16.858,77.9661,0.064604
16.889,77.9596,0.064604
16.920,77.9537,0.064604
16.951,77.9475,0.064604
16.982,77.9410,0.064604
17.014,77.9350,0.064604
17.045,77.9288,0.064604
17.075,77.9226,0.064594
17.106,77.9164,0.064594
17.137,77.9103,0.064594
17.168,77.9040,0.064594
17.199,77.8978,0.064594
17.231,77.8913,0.064594
17.262,77.8851,0.064594
17.294,77.8789,0.064519
17.324,77.8730,0.064519
17.355,77.8666,0.064519
17.387,77.8602,0.064519
17.419,77.8539,0.064519
17.450,77.8477,0.064519
17.480,77.8416,0.064519
17.512,77.8354,0.064519
17.543,77.8290,0.064444
17.574,77.8227,0.064444
17.605,77.8166,0.064444
17.637,77.8102,0.064444
17.668,77.8041,0.064444
17.698,77.7980,0.064444
17.729,77.7917,0.064444
17.760,77.7855,0.064444
17.792,77.7793,0.064444
17.823,77.7731,0.064359
17.854,77.7668,0.064359
17.885,77.7606,0.064359
17.916,77.7544,0.064359
17.947,77.7483,0.064359
17.978,77.7420,0.064359
18.008,77.7362,0.064359
18.039,77.7297,0.064246
18.070,77.7236,0.064246
18.101,77.7172,0.064246
18.133,77.7111,0.064246
18.164,77.7048,0.064246
18.194,77.6987,0.064246
18.225,77.6926,0.064246
18.256,77.6863,0.064246
18.286,77.6803,0.064246
18.319,77.6739,0.064171
18.349,77.6679,0.064171
18.379,77.6616,0.064171
18.411,77.6554,0.064171
18.441,77.6492,0.064171
18.473,77.6431,0.064171
18.504,77.6367,0.064171
18.535,77.6307,0.064076
18.566,77.6244,0.064076
18.597,77.6183,0.064076
18.628,77.6121,0.064076
18.659,77.6058,0.064076
18.690,77.5994,0.064076
18.722,77.5933,0.064076
18.752,77.5871,0.064076
18.784,77.5809,0.063963
18.815,77.5747,0.063963
18.846,77.5685,0.063963
18.878,77.5620,0.063963
18.909,77.5559,0.063963
18.941,77.5495,0.063963
18.973,77.5432,0.063963
19.003,77.5370,0.063963
19.035,77.5308,0.063860
19.065,77.5246,0.063860
19.097,77.5184,0.063860
19.128,77.5120,0.063860
19.158,77.5061,0.063860
19.189,77.4998,0.063860
19.221,77.4936,0.063860
19.251,77.4874,0.063860
19.282,77.4813,0.063831
19.314,77.4748,0.063831
19.345,77.4686,0.063831
19.377,77.4624,0.063831
19.408,77.4571,0.063831
19.439,77.4525,0.063831
19.469,77.4485,0.063831
19.501,77.4456,0.063831
19.531,77.4431,0.063737
19.562,77.4415,0.063737
19.593,77.4405,0.063737
19.623,77.4402,0.063737
19.654,77.4402,0.063737
19.685,77.4402,0.063737
19.716,77.4402,0.063737
19.747,77.4402,0.063737
19.779,77.4402,0.063577
19.809,77.4402,0.063577
19.841,77.4402,0.063577
19.871,77.4402,0.063577
19.904,77.4402,0.063577
19.935,77.4402,0.063577
19.965,77.4402,0.063577
19.996,77.4402,0.063577
20.027,77.4402,0.063577
20.058,77.4402,0.063539
20.088,77.4402,0.063539
20.119,77.4402,0.063539
20.150,77.4402,0.063539
20.181,77.4402,0.063539
20.213,77.4402,0.063539
20.243,77.4402,0.063539
20.275,77.4402,0.063520
20.305,77.4406,0.063520
20.337,77.4417,0.063520
20.368,77.4437,0.063520
20.399,77.4462,0.063520
20.430,77.4494,0.063520
20.460,77.4535,0.063520
20.492,77.4583,0.063520
20.522,77.4638,0.063379
20.554,77.4699,0.063379
20.584,77.4761,0.063379
20.615,77.4823,0.063379
20.646,77.4885,0.063379
20.678,77.4948,0.063379
20.708,77.5006,0.063379
20.739,77.5070,0.063379
20.771,77.5132,0.063341
20.802,77.5195,0.063341
20.834,77.5259,0.063341
20.863,77.5318,0.063341
20.895,77.5380,0.063341
20.925,77.5443,0.063341
20.955,77.5502,0.063341
20.986,77.5564,0.063341
21.017,77.5625,0.063341
21.049,77.5690,0.063360
21.080,77.5752,0.063360
21.111,77.5814,0.063360
21.142,77.5876,0.063360
21.173,77.5939,0.063360
21.204,77.6001,0.063360
21.235,77.6062,0.063360
21.267,77.6128,0.063360
21.299,77.6188,0.063341
21.330,77.6253,0.063341
21.361,77.6312,0.063341
21.392,77.6376,0.063341
21.423,77.6436,0.063341
21.454,77.6498,0.063341
21.485,77.6560,0.063341
21.516,77.6624,0.063341
21.547,77.6688,0.063304
21.579,77.6749,0.063304
21.610,77.6811,0.063304
21.641,77.6874,0.063304
21.672,77.6936,0.063304
21.703,77.6998,0.063304
21.733,77.7058,0.063304
21.764,77.7121,0.063304
21.796,77.7183,0.063200
21.827,77.7246,0.063200
21.858,77.7307,0.063200
21.888,77.7369,0.063200
21.920,77.7431,0.063200
21.951,77.7494,0.063200
21.981,77.7554,0.063200
22.012,77.7616,0.063200
22.044,77.7679,0.063200
22.074,77.7740,0.063200
22.106,77.7804,0.063200
22.137,77.7866,0.063200
22.170,77.7931,0.063200
22.199,77.7990,0.063200
22.230,77.8052,0.063200
22.261,77.8116,0.063200
22.292,77.8175,0.063210
22.323,77.8237,0.063210
22.355,77.8300,0.063210
22.386,77.8362,0.063210
22.417,77.8424,0.063210
22.448,77.8486,0.063210
22.479,77.8550,0.063210
22.510,77.8612,0.063210
22.541,77.8674,0.063210
22.572,77.8736,0.063172
22.602,77.8795,0.063172
22.633,77.8856,0.063172
22.664,77.8921,0.063172
22.695,77.8981,0.063172
22.727,77.9046,0.063172
22.757,77.9105,0.063172
22.789,77.9172,0.063134
22.819,77.9231,0.063134
22.850,77.9293,0.063134
22.882,77.9355,0.063134
22.913,77.9419,0.063134
22.944,77.9479,0.063134
22.975,77.9542,0.063134
23.007,77.9604,0.063134
23.038,77.9668,0.063134
23.069,77.9728,0.063144
23.100,77.9792,0.063144
23.131,77.9853,0.063144
23.161,77.9915,0.063144
23.193,77.9976,0.063144
23.225,78.0040,0.063144
23.256,78.0104,0.063144
23.287,78.0164,0.063144
23.317,78.0225,0.063144
23.348,78.0287,0.063144
23.380,78.0352,0.063144
23.410,78.0411,0.063144
23.441,78.0473,0.063144
23.472,78.0535,0.063144
23.503,78.0597,0.063144
23.534,78.0659,0.063144
23.565,78.0721,0.063106
23.596,78.0783,0.063106
23.627,78.0845,0.063106
23.659,78.0910,0.063106
23.689,78.0969,0.063106
23.721,78.1033,0.063106
23.752,78.1096,0.063106
23.783,78.1157,0.063106
23.814,78.1220,0.063087
23.846,78.1283,0.063087
23.877,78.1344,0.063087
23.907,78.1406,0.063087
23.938,78.1467,0.063087
23.969,78.1530,0.063087
24.002,78.1596,0.063087
24.031,78.1654,0.063087
24.062,78.1715,0.063087
24.093,78.1777,0.063087
24.123,78.1838,0.063087
24.154,78.1901,0.063087
24.185,78.1962,0.063087
24.215,78.2021,0.063087
24.247,78.2084,0.063087
24.278,78.2148,0.063096
24.309,78.2211,0.063096
24.340,78.2272,0.063096
24.371,78.2335,0.063096
24.403,78.2396,0.063096
24.435,78.2460,0.063096
24.465,78.2521,0.063096
24.497,78.2585,0.063096
24.528,78.2646,0.063087
24.559,78.2711,0.063087
24.590,78.2771,0.063087
24.622,78.2837,0.063087
24.653,78.2897,0.063087
24.683,78.2957,0.063087
24.714,78.3018,0.063087
24.744,78.3079,0.063087
24.776,78.3144,0.063078
24.809,78.3209,0.063078
24.839,78.3270,0.063078
24.870,78.3332,0.063078
24.902,78.3394,0.063078
24.932,78.3456,0.063078
24.963,78.3517,0.063078
24.995,78.3581,0.063078
25.026,78.3643,0.063125
25.056,78.3703,0.063125
25.087,78.3765,0.063125
25.118,78.3829,0.063125
25.149,78.3890,0.063125
25.180,78.3953,0.063125
25.212,78.4014,0.063125
25.242,78.4076,0.063125
25.273,78.4137,0.063078
25.304,78.4201,0.063078
25.335,78.4260,0.063078
25.367,78.4325,0.063078
25.398,78.4386,0.063078
25.428,78.4448,0.063078
25.459,78.4510,0.063078
25.490,78.4570,0.063078
25.520,78.4633,0.063078
25.551,78.4695,0.063040
25.583,78.4758,0.063040
25.614,78.4818,0.063040
25.644,78.4881,0.063040
25.676,78.4942,0.063040
25.706,78.5004,0.063040
25.738,78.5067,0.063040
25.769,78.5129,0.063040
25.800,78.5191,0.063049
25.831,78.5253,0.063049
25.862,78.5318,0.063049
25.895,78.5381,0.063049
25.925,78.5442,0.063049
25.957,78.5505,0.063049
25.988,78.5567,0.063049
26.019,78.5629,0.063049
26.049,78.5688,0.063021
26.081,78.5753,0.063021
26.112,78.5815,0.063021
26.143,78.5878,0.063021
26.173,78.5937,0.063021
26.204,78.6000,0.063021
26.234,78.6059,0.063021
26.266,78.6124,0.063021
26.297,78.6185,0.063068
26.329,78.6249,0.063068
26.360,78.6311,0.063068
26.392,78.6374,0.063068
26.422,78.6435,0.063068
26.453,78.6497,0.063068
26.484,78.6560,0.063068
26.515,78.6621,0.063068
26.546,78.6682,0.063068
26.577,78.6745,0.063068
26.608,78.6807,0.063068
26.640,78.6872,0.063068
26.671,78.6934,0.063068
26.703,78.6996,0.063068
26.733,78.7056,0.063068
26.764,78.7120,0.063068
26.795,78.7180,0.063049
26.826,78.7242,0.063049
26.858,78.7306,0.063049
26.889,78.7370,0.063049
26.919,78.7430,0.063049
26.950,78.7492,0.063049
26.981,78.7554,0.063049
27.012,78.7617,0.063049
27.043,78.7677,0.063049
27.073,78.7739,0.063049
27.104,78.7798,0.063049
27.134,78.7860,0.063049
27.165,78.7922,0.063049
27.196,78.7984,0.063049
27.227,78.8046,0.063049
27.259,78.8109,0.063049
27.290,78.8171,0.063030
27.322,78.8235,0.063030
27.353,78.8297,0.063030
27.384,78.8359,0.063030
27.415,78.8419,0.063030
27.445,78.8481,0.063030
27.476,78.8543,0.063030
27.507,78.8606,0.063030
27.538,78.8668,0.063002
27.570,78.8730,0.063002
27.600,78.8790,0.063002
27.631,78.8854,0.063002
27.663,78.8916,0.063002
27.694,78.8980,0.063002
27.725,78.9040,0.063002
27.756,78.9104,0.063002
27.787,78.9165,0.063059
27.818,78.9227,0.063059
27.848,78.9286,0.063059
27.878,78.9348,0.063059
27.909,78.9409,0.063059
27.942,78.9475,0.063059
27.973,78.9536,0.063059
28.003,78.9599,0.063059
28.035,78.9661,0.063049
28.065,78.9720,0.063049
28.095,78.9780,0.063049
28.126,78.9845,0.063049
28.158,78.9908,0.063049
28.189,78.9969,0.063049
28.220,79.0029,0.063049
28.251,79.0093,0.063049
28.282,79.0153,0.063040
28.313,79.0217,0.063040
28.344,79.0279,0.063040
28.375,79.0341,0.063040
28.406,79.0403,0.063040
28.437,79.0465,0.063040
28.468,79.0527,0.063040
28.499,79.0590,0.063040
28.530,79.0651,0.063030
28.561,79.0714,0.063030
28.593,79.0777,0.063030
28.624,79.0840,0.063030
28.656,79.0902,0.063030
28.689,79.0969,0.063030
28.720,79.1030,0.063030
28.750,79.1092,0.063030
28.781,79.1153,0.063049
28.812,79.1215,0.063049
28.844,79.1278,0.063049
28.875,79.1341,0.063049
28.906,79.1403,0.063049
28.937,79.1465,0.063049
28.968,79.1529,0.063049
28.999,79.1588,0.063049
29.030,79.1652,0.063106
29.061,79.1715,0.063106
29.092,79.1776,0.063106
29.123,79.1836,0.063106
29.154,79.1901,0.063106
29.185,79.1962,0.063106
29.216,79.2024,0.063106
29.247,79.2084,0.063106
29.277,79.2145,0.063087
29.308,79.2206,0.063087
29.338,79.2267,0.063087
29.369,79.2331,0.063087
29.400,79.2393,0.063087
29.431,79.2453,0.063087
29.462,79.2515,0.063087
29.493,79.2577,0.063087
29.524,79.2639,0.063087
29.555,79.2701,0.063106
29.586,79.2763,0.063106
29.617,79.2824,0.063106
29.648,79.2888,0.063106
29.680,79.2950,0.063106
29.711,79.3013,0.063106
29.743,79.3075,0.063106
29.773,79.3139,0.063106
29.805,79.3199,0.063144
29.836,79.3263,0.063144
29.867,79.3325,0.063144
29.900,79.3390,0.063144
29.930,79.3450,0.063144
29.960,79.3511,0.063144
29.991,79.3573,0.063144
30.022,79.3636,0.063200
30.052,79.3695,0.063200
30.084,79.3759,0.063200
30.115,79.3819,0.063200
30.146,79.3884,0.063200
30.177,79.3945,0.063200
30.208,79.4008,0.063200
30.240,79.4071,0.063200
30.270,79.4133,0.063200
30.302,79.4194,0.063219
30.334,79.4258,0.063219
30.366,79.4322,0.063219
30.395,79.4381,0.063219
30.425,79.4442,0.063219
30.456,79.4503,0.063219
30.488,79.4566,0.063219
30.518,79.4627,0.063210
30.549,79.4690,0.063210
30.580,79.4751,0.063210
30.611,79.4813,0.063210
30.643,79.4876,0.063210
30.674,79.4939,0.063210
30.705,79.5003,0.063210
30.736,79.5063,0.063210
30.767,79.5125,0.063210
30.798,79.5186,0.063238
30.829,79.5249,0.063238
30.860,79.5310,0.063238
30.891,79.5372,0.063238
30.922,79.5434,0.063238
30.953,79.5496,0.063238
30.984,79.5558,0.063238
31.014,79.5620,0.063238
31.044,79.5679,0.063257
31.076,79.5742,0.063257
31.108,79.5806,0.063257
31.137,79.5865,0.063257
31.168,79.5927,0.063257
31.200,79.5991,0.063257
31.230,79.6052,0.063257
31.261,79.6115,0.063257
31.293,79.6176,0.063285
31.325,79.6242,0.063285
31.355,79.6301,0.063285
31.386,79.6364,0.063285
31.417,79.6425,0.063285
31.448,79.6486,0.063285
31.480,79.6550,0.063285
31.510,79.6611,0.063285
31.541,79.6672,0.063360
31.571,79.6734,0.063360
31.601,79.6792,0.063360
31.633,79.6857,0.063360
31.664,79.6919,0.063360
31.695,79.6980,0.063360
31.727,79.7044,0.063360
31.758,79.7107,0.063360
31.789,79.7169,0.063426
31.819,79.7230,0.063426
31.850,79.7291,0.063426
31.882,79.7355,0.063426
31.912,79.7416,0.063426
31.944,79.7479,0.063426
31.975,79.7541,0.063426
32.006,79.7603,0.063426
32.038,79.7667,0.063426
32.069,79.7730,0.063379
32.099,79.7791,0.063379
32.130,79.7851,0.063379
32.162,79.7915,0.063379
32.193,79.7975,0.063379
32.225,79.8040,0.063379
32.255,79.8101,0.063379
32.286,79.8163,0.063379
32.317,79.8224,0.063398
32.348,79.8287,0.063398
32.379,79.8350,0.063398
32.410,79.8412,0.063398
32.442,79.8475,0.063398
32.473,79.8537,0.063398
32.504,79.8599,0.063398
32.535,79.8660,0.063398
32.565,79.8722,0.063492
32.597,79.8787,0.063492
32.628,79.8849,0.063492
32.660,79.8912,0.063492
32.691,79.8974,0.063492
32.723,79.9037,0.063492
32.754,79.9098,0.063492
32.784,79.9160,0.063492
32.815,79.9219,0.063492
32.847,79.9284,0.063492
32.877,79.9345,0.063492
32.908,79.9407,0.063492
32.939,79.9469,0.063492
32.970,79.9531,0.063492
33.001,79.9593,0.063492
33.033,79.9656,0.063492
33.063,79.9717,0.063568
33.095,79.9782,0.063568
33.127,79.9843,0.063568
33.157,79.9905,0.063568
33.189,79.9970,0.063568
33.221,80.0033,0.063568
33.252,80.0095,0.063568
33.284,80.0158,0.063624
33.315,80.0220,0.063624
33.346,80.0284,0.063624
33.378,80.0347,0.063624
33.410,80.0410,0.063624
33.441,80.0472,0.063624
33.471,80.0532,0.063624
33.502,80.0596,0.063624
33.533,80.0657,0.063662
33.564,80.0720,0.063662
33.596,80.0783,0.063662
33.627,80.0844,0.063662
33.657,80.0907,0.063662
33.689,80.0967,0.063662
33.720,80.1029,0.063662
33.750,80.1092,0.063662
33.782,80.1153,0.063775
33.812,80.1215,0.063775
33.843,80.1276,0.063775
33.874,80.1338,0.063775
33.905,80.1400,0.063775
33.936,80.1463,0.063775
33.967,80.1525,0.063775
34.000,80.1590,0.063775
34.030,80.1649,0.063869
34.060,80.1711,0.063869
34.092,80.1773,0.063869
34.122,80.1836,0.063869
34.153,80.1897,0.063869
34.184,80.1959,0.063869
34.215,80.2020,0.063869
34.247,80.2083,0.063869
34.277,80.2144,0.063869
34.308,80.2207,0.063935
34.339,80.2268,0.063935
34.370,80.2331,0.063935
34.401,80.2392,0.063935
34.432,80.2453,0.063935
34.462,80.2515,0.063935
34.494,80.2578,0.063935
34.524,80.2638,0.064001
34.555,80.2701,0.064001
34.587,80.2764,0.064001
34.618,80.2827,0.064001
34.649,80.2887,0.064001
34.680,80.2951,0.064001
34.711,80.3011,0.064001
34.742,80.3075,0.064001
34.773,80.3137,0.064067
34.804,80.3201,0.064067
34.835,80.3263,0.064067
34.867,80.3323,0.064067
34.899,80.3388,0.064067
34.930,80.3451,0.064067
34.961,80.3511,0.064067
34.991,80.3573,0.064067
35.023,80.3637,0.064067
35.053,80.3695,0.064067
35.084,80.3759,0.064142
35.115,80.3821,0.064142
35.146,80.3881,0.064142
35.177,80.3945,0.064142
35.209,80.4007,0.064142
35.240,80.4072,0.064142
35.271,80.4132,0.064142
35.302,80.4193,0.064218
35.333,80.4242,0.064218
35.364,80.4288,0.064218
35.395,80.4325,0.064218
35.427,80.4355,0.064218
35.458,80.4378,0.064218
35.488,80.4392,0.064218
35.519,80.4401,0.064218
35.550,80.4402,0.064218
35.581,80.4402,0.064368
35.613,80.4402,0.064368
35.643,80.4402,0.064368
35.675,80.4402,0.064368
35.706,80.4402,0.064368
35.737,80.4402,0.064368
35.767,80.4402,0.064368
35.799,80.4402,0.064594
35.831,80.4402,0.064594
35.862,80.4402,0.064594
35.894,80.4402,0.064594
35.925,80.4402,0.064594
35.955,80.4402,0.064594
35.987,80.4402,0.064594
36.017,80.4402,0.064594
36.048,80.4402,0.064594
36.079,80.4402,0.064726
36.111,80.4402,0.064726
36.143,80.4402,0.064726
36.173,80.4402,0.064726
36.205,80.4402,0.064726
36.236,80.4402,0.064726
36.268,80.4402,0.064726
36.299,80.4402,0.064811
36.331,80.4402,0.064811
36.361,80.4402,0.064811
36.392,80.4402,0.064811
36.423,80.4402,0.064811
36.454,80.4402,0.064811
36.486,80.4402,0.064811
36.517,80.4402,0.064811
36.548,80.4402,0.064934
36.579,80.4402,0.064934
36.610,80.4402,0.064934
36.641,80.4402,0.064934
36.672,80.4402,0.064934
36.705,80.4402,0.064934
36.735,80.4402,0.064934
36.767,80.4402,0.064934
36.798,80.4402,0.065056
36.829,80.4402,0.065056
36.860,80.4402,0.065056
36.891,80.4402,0.065056
36.922,80.4402,0.065056
36.953,80.4402,0.065056
36.984,80.4402,0.065056
37.016,80.4402,0.065169
37.045,80.4402,0.065169
37.076,80.4402,0.065169
37.107,80.4402,0.065169
37.138,80.4402,0.065169
37.169,80.4402,0.065169
37.200,80.4402,0.065169
37.232,80.4402,0.065169
37.264,80.4402,0.065169
37.296,80.4402,0.065245
37.328,80.4402,0.065245
37.360,80.4402,0.065245
37.391,80.4402,0.065245
37.422,80.4402,0.065245
37.453,80.4402,0.065245
37.484,80.4402,0.065245
37.514,80.4402,0.065245
37.546,80.4402,0.065358
37.575,80.4402,0.065358
37.607,80.4402,0.065358
37.639,80.4402,0.065358
37.669,80.4402,0.065358
37.700,80.4402,0.065358
37.731,80.4402,0.065358
37.762,80.4402,0.065358
37.793,80.4402,0.065442
37.823,80.4402,0.065442
37.854,80.4402,0.065442
37.885,80.4402,0.065442
37.917,80.4402,0.065442
37.948,80.4402,0.065442
37.978,80.4402,0.065442
38.011,80.4402,0.065442
38.040,80.4402,0.065433
38.073,80.4402,0.065433
38.103,80.4402,0.065433
38.133,80.4402,0.065433
38.165,80.4402,0.065433
38.196,80.4402,0.065433
38.227,80.4402,0.065433
38.259,80.4402,0.065499
38.289,80.4402,0.065499
38.319,80.4402,0.065499
38.350,80.4402,0.065499
38.381,80.4402,0.065499
38.412,80.4402,0.065499
38.442,80.4402,0.065499
38.473,80.4402,0.065499
38.504,80.4402,0.065499
38.536,80.4402,0.065499
38.568,80.4402,0.065612
38.598,80.4402,0.065612
38.629,80.4402,0.065612
38.659,80.4402,0.065612
38.691,80.4402,0.065612
38.722,80.4402,0.065612
38.753,80.4402,0.065612
38.785,80.4402,0.065612
38.815,80.4402,0.065716
38.846,80.4402,0.065716
38.877,80.4402,0.065716
38.908,80.4402,0.065716
38.940,80.4402,0.065716
38.971,80.4402,0.065716
39.002,80.4402,0.065716
39.034,80.4402,0.065716
39.064,80.4402,0.065753
39.095,80.4402,0.065753
39.126,80.4402,0.065753
39.157,80.4402,0.065753
39.189,80.4402,0.065753
39.220,80.4402,0.065753
39.252,80.4402,0.065753
39.283,80.4402,0.065810
39.314,80.4402,0.065810
39.345,80.4402,0.065810
39.377,80.4402,0.065810
39.409,80.4402,0.065810
39.440,80.4402,0.065810
39.471,80.4402,0.065810
39.502,80.4402,0.065810
39.533,80.4402,0.065810
39.563,80.4402,0.065904
39.595,80.4402,0.065904
39.627,80.4402,0.065904
39.659,80.4402,0.065904
39.689,80.4402,0.065904
39.720,80.4402,0.065904
39.751,80.4402,0.065904
39.783,80.4402,0.065951
39.814,80.4402,0.065951
39.845,80.4402,0.065951
39.877,80.4402,0.065951
39.907,80.4402,0.065951
39.938,80.4402,0.065951
39.969,80.4402,0.065951
40.000,80.4402,0.065951
40.031,80.4402,0.065951
40.062,80.4402,0.066008
40.093,80.4402,0.066008
40.124,80.4402,0.066008
40.156,80.4402,0.066008
40.186,80.4401,0.066008
40.217,80.4395,0.066008
40.249,80.4380,0.066008
40.280,80.4359,0.066008
40.311,80.4329,0.066111
40.342,80.4292,0.066111
40.373,80.4250,0.066111
40.404,80.4198,0.066111
40.436,80.4139,0.066111
40.467,80.4076,0.066111
40.497,80.4015,0.066111
40.529,80.3952,0.066394
40.559,80.3891,0.066394
40.591,80.3827,0.066394
40.623,80.3764,0.066394
40.655,80.3700,0.066394
40.687,80.3636,0.066394
40.718,80.3575,0.066394
40.750,80.3511,0.066394
40.780,80.3450,0.066601
40.811,80.3388,0.066601
40.843,80.3322,0.066601
40.873,80.3263,0.066601
40.904,80.3202,0.066601
40.935,80.3141,0.066601
40.965,80.3079,0.066601
40.996,80.3018,0.066601
41.027,80.2957,0.066601
41.058,80.2894,0.066582
41.089,80.2832,0.066582
41.120,80.2770,0.066582
41.151,80.2708,0.066582
41.182,80.2645,0.066582
41.213,80.2584,0.066582
41.244,80.2522,0.066582
41.276,80.2459,0.066667
41.307,80.2396,0.066667
41.338,80.2332,0.066667
41.370,80.2272,0.066667
41.400,80.2210,0.066667
41.432,80.2145,0.066667
41.463,80.2086,0.066667
41.494,80.2024,0.066667
41.525,80.1960,0.066667
41.556,80.1898,0.066724
41.587,80.1835,0.066724
41.618,80.1774,0.066724
41.651,80.1709,0.066724
41.680,80.1652,0.066724
41.711,80.1588,0.066724
41.742,80.1526,0.066724
41.773,80.1465,0.066771
41.803,80.1403,0.066771
41.835,80.1341,0.066771
41.867,80.1277,0.066771
41.898,80.1214,0.066771
41.928,80.1153,0.066771
41.959,80.1092,0.066771
41.990,80.1031,0.066771
42.021,80.0967,0.066771
42.052,80.0907,0.066837
42.083,80.0844,0.066837
42.113,80.0785,0.066837
42.144,80.0723,0.066837
42.175,80.0661,0.066837
42.206,80.0599,0.066837
42.237,80.0535,0.066837
42.268,80.0475,0.066865
42.299,80.0413,0.066865
42.330,80.0351,0.066865
42.361,80.0287,0.066865
42.392,80.0225,0.066865
42.425,80.0161,0.066865
42.455,80.0099,0.066865
42.486,80.0039,0.066865
42.517,79.9977,0.066875
42.548,79.9915,0.066875
42.579,79.9853,0.066875
42.610,79.9791,0.066875
42.641,79.9729,0.066875
42.671,79.9668,0.066875
42.702,79.9605,0.066875
42.734,79.9542,0.066875
42.764,79.9481,0.066875
42.796,79.9419,0.066837
42.827,79.9356,0.066837
42.858,79.9295,0.066837
42.888,79.9233,0.066837
42.919,79.9172,0.066837
42.950,79.9110,0.066837
42.983,79.9043,0.066837
43.013,79.8983,0.066780
43.044,79.8923,0.066780
43.074,79.8862,0.066780
43.105,79.8800,0.066780
43.136,79.8738,0.066780
43.167,79.8677,0.066780
43.198,79.8614,0.066780
43.229,79.8552,0.066780
43.260,79.8490,0.066780
43.292,79.8426,0.066799
43.323,79.8364,0.066799
43.355,79.8302,0.066799
43.386,79.8238,0.066799
43.418,79.8173,0.066799
43.449,79.8112,0.066799
43.481,79.8046,0.066799
43.511,79.7987,0.066799
43.542,79.7926,0.066809
43.573,79.7865,0.066809
43.603,79.7804,0.066809
43.636,79.7739,0.066809
43.666,79.7679,0.066809
43.697,79.7615,0.066809
43.729,79.7553,0.066809
43.760,79.7491,0.066809
43.790,79.7431,0.066790
43.821,79.7367,0.066790
43.852,79.7307,0.066790
43.885,79.7241,0.066790
43.915,79.7180,0.066790
43.946,79.7117,0.066790
43.978,79.7054,0.066790
44.010,79.6989,0.066790
44.040,79.6929,0.066799
44.071,79.6868,0.066799
44.104,79.6802,0.066799
44.134,79.6741,0.066799
44.165,79.6679,0.066799
44.196,79.6619,0.066799
44.227,79.6557,0.066799
44.258,79.6496,0.066799
44.289,79.6433,0.066799
44.320,79.6371,0.066780
44.351,79.6306,0.066780
44.383,79.6245,0.066780
44.414,79.6183,0.066780
44.446,79.6119,0.066780
44.476,79.6058,0.066780
44.507,79.5996,0.066780
44.538,79.5934,0.066780
44.569,79.5872,0.066771
44.600,79.5810,0.066771
44.632,79.5747,0.066771
44.662,79.5685,0.066771
44.694,79.5623,0.066771
44.725,79.5562,0.066771
44.755,79.5500,0.066771
44.786,79.5438,0.066771
44.818,79.5375,0.066743
44.849,79.5313,0.066743
44.880,79.5249,0.066743
44.911,79.5189,0.066743
44.942,79.5128,0.066743
44.975,79.5062,0.066743
45.005,79.5000,0.066743
45.037,79.4936,0.066743
45.068,79.4875,0.066677
45.098,79.4813,0.066677
45.131,79.4750,0.066677
45.161,79.4686,0.066677
45.193,79.4624,0.066677
45.224,79.4561,0.066677
45.255,79.4499,0.066677
45.286,79.4440,0.066677
45.316,79.4379,0.066630
45.347,79.4317,0.066630
45.379,79.4254,0.066630
45.410,79.4190,0.066630
45.442,79.4127,0.066630
45.473,79.4065,0.066630
45.504,79.4003,0.066630
45.535,79.3940,0.066630
45.567,79.3877,0.066573
45.598,79.3816,0.066573
45.629,79.3754,0.066573
45.660,79.3689,0.066573
45.691,79.3628,0.066573
45.723,79.3565,0.066573
45.755,79.3499,0.066573
45.786,79.3437,0.066507
45.816,79.3378,0.066507
45.847,79.3317,0.066507
45.878,79.3254,0.066507
45.910,79.3192,0.066507
45.940,79.3130,0.066507
45.971,79.3069,0.066507
46.002,79.3006,0.066507
46.033,79.2944,0.066507
46.064,79.2881,0.066498
46.097,79.2816,0.066498
46.127,79.2754,0.066498
46.158,79.2693,0.066498
46.189,79.2631,0.066498
46.221,79.2569,0.066498
46.253,79.2505,0.066498
46.284,79.2442,0.066498
46.315,79.2382,0.066479
46.346,79.2318,0.066479
46.378,79.2254,0.066479
46.410,79.2190,0.066479
46.440,79.2130,0.066479
46.472,79.2066,0.066479
46.503,79.2006,0.066479
46.534,79.1944,0.066479
46.565,79.1882,0.066460
46.596,79.1819,0.066460
46.627,79.1756,0.066460
46.658,79.1694,0.066460
46.689,79.1633,0.066460
46.719,79.1571,0.066460
46.751,79.1509,0.066460
46.782,79.1446,0.066460
46.813,79.1385,0.066337
46.844,79.1323,0.066337
46.875,79.1260,0.066337
46.906,79.1200,0.066337
46.937,79.1134,0.066337
46.969,79.1072,0.066337
47.000,79.1010,0.066337
47.031,79.0948,0.066337
47.062,79.0886,0.066215
47.094,79.0822,0.066215
47.124,79.0761,0.066215
47.155,79.0702,0.066215
47.187,79.0636,0.066215
47.218,79.0575,0.066215
47.250,79.0509,0.066215
47.281,79.0448,0.066196
47.313,79.0385,0.066196
47.343,79.0324,0.066196
47.374,79.0262,0.066196
47.405,79.0198,0.066196
47.437,79.0136,0.066196
47.468,79.0074,0.066196
47.499,79.0013,0.066196
47.530,78.9950,0.066149
47.561,78.9888,0.066149
47.593,78.9825,0.066149
47.624,78.9764,0.066149
47.654,78.9702,0.066149
47.684,78.9641,0.066149
47.715,78.9580,0.066149
47.746,78.9518,0.066149
47.777,78.9456,0.066083
47.808,78.9394,0.066083
47.839,78.9334,0.066083
47.871,78.9269,0.066083
47.900,78.9211,0.066083
47.931,78.9149,0.066083
47.961,78.9087,0.066083
47.992,78.9026,0.066083
48.023,78.8963,0.065961
48.054,78.8902,0.065961
48.084,78.8841,0.065961
48.117,78.8777,0.065961
48.147,78.8716,0.065961
48.180,78.8651,0.065961
48.211,78.8588,0.065961
48.242,78.8527,0.065961
48.273,78.8465,0.065961
48.304,78.8403,0.065866
48.335,78.8340,0.065866
48.366,78.8278,0.065866
48.397,78.8216,0.065866
48.429,78.8153,0.065866
48.459,78.8093,0.065866
48.492,78.8026,0.065866
48.523,78.7964,0.065866
48.554,78.7902,0.065819
48.584,78.7843,0.065819
48.615,78.7781,0.065819
48.646,78.7717,0.065819
48.677,78.7657,0.065819
48.708,78.7596,0.065819
48.739,78.7533,0.065819
48.770,78.7472,0.065819
48.801,78.7409,0.065819
48.832,78.7347,0.065800
48.863,78.7285,0.065800
48.894,78.7223,0.065800
48.926,78.7159,0.065800
48.957,78.7096,0.065800
48.988,78.7035,0.065800
49.019,78.6973,0.065800
49.049,78.6913,0.065725
49.080,78.6851,0.065725
49.111,78.6790,0.065725
49.142,78.6727,0.065725
49.172,78.6667,0.065725
49.204,78.6604,0.065725
49.234,78.6543,0.065725
49.265,78.6481,0.065725
49.296,78.6418,0.065725
49.328,78.6354,0.065574
49.359,78.6294,0.065574
49.389,78.6232,0.065574
49.421,78.6170,0.065574
49.451,78.6108,0.065574
49.482,78.6047,0.065574
49.513,78.5984,0.065574
49.544,78.5922,0.065574
49.577,78.5856,0.065518
49.607,78.5796,0.065518
49.637,78.5737,0.065518
49.668,78.5674,0.065518
49.699,78.5613,0.065518
49.730,78.5551,0.065518
49.761,78.5488,0.065518
49.793,78.5426,0.065518
49.823,78.5365,0.065414
49.855,78.5302,0.065414
49.886,78.5240,0.065414
49.917,78.5176,0.065414
49.948,78.5115,0.065414
49.979,78.5053,0.065414
50.010,78.4990,0.065414
50.041,78.4928,0.065311
50.071,78.4869,0.065311
50.102,78.4807,0.065311
50.133,78.4743,0.065311
50.164,78.4681,0.065311
50.195,78.4621,0.065311
50.226,78.4557,0.065311
50.256,78.4498,0.065311
50.287,78.4436,0.065273
50.319,78.4374,0.065273
50.349,78.4311,0.065273
50.380,78.4250,0.065273
50.411,78.4187,0.065273
50.442,78.4126,0.065273
50.473,78.4066,0.065273
50.504,78.4003,0.065273
50.535,78.3942,0.065188
50.567,78.3878,0.065188
50.597,78.3817,0.065188
50.628,78.3754,0.065188
50.659,78.3694,0.065188
50.690,78.3631,0.065188
50.719,78.3571,0.065188
50.751,78.3509,0.065188
50.782,78.3447,0.065103
50.813,78.3384,0.065103
50.844,78.3323,0.065103
50.875,78.3260,0.065103
50.906,78.3199,0.065103
50.937,78.3136,0.065103
50.967,78.3075,0.065103
50.999,78.3013,0.065103
51.029,78.2953,0.065009
51.060,78.2889,0.065009
51.092,78.2828,0.065009
51.123,78.2763,0.065009
51.154,78.2703,0.065009
51.185,78.2640,0.065009
51.216,78.2579,0.065009
51.249,78.2515,0.065009
51.279,78.2454,0.064934
51.311,78.2391,0.064934
51.341,78.2330,0.064934
51.370,78.2270,0.064934
51.401,78.2208,0.064934
51.433,78.2144,0.064934
51.464,78.2084,0.064934
51.494,78.2022,0.064934
51.525,78.1959,0.064830
51.555,78.1901,0.064830
51.585,78.1841,0.064830
51.616,78.1778,0.064830
51.647,78.1717,0.064830
51.678,78.1654,0.064830
51.710,78.1592,0.064830
51.740,78.1530,0.064830
51.772,78.1468,0.064830
51.803,78.1405,0.064736
51.834,78.1344,0.064736
51.865,78.1281,0.064736
51.896,78.1219,0.064736
51.927,78.1158,0.064736
51.957,78.1097,0.064736
51.988,78.1033,0.064736
52.020,78.0971,0.064660
52.052,78.0907,0.064660
52.083,78.0845,0.064660
52.113,78.0783,0.064660
52.145,78.0721,0.064660
52.176,78.0659,0.064660
52.208,78.0595,0.064660
52.239,78.0532,0.064660
52.271,78.0468,0.064660
52.303,78.0405,0.064660
52.333,78.0344,0.064557
52.364,78.0284,0.064557
52.396,78.0220,0.064557
52.428,78.0156,0.064557
52.458,78.0095,0.064557
52.489,78.0033,0.064557
52.520,77.9971,0.064557
52.551,77.9908,0.064557
52.582,77.9847,0.064491
52.614,77.9781,0.064491
52.645,77.9722,0.064491
52.677,77.9658,0.064491
52.707,77.9596,0.064491
52.738,77.9534,0.064491
52.769,77.9472,0.064491
52.801,77.9407,0.064415
52.831,77.9348,0.064415
52.862,77.9286,0.064415
52.893,77.9224,0.064415
52.924,77.9162,0.064415
52.955,77.9100,0.064415
52.987,77.9036,0.064415
53.018,77.8975,0.064415
53.048,77.8913,0.064378
53.079,77.8852,0.064378
53.111,77.8788,0.064378
53.141,77.8730,0.064378
53.171,77.8668,0.064378
53.202,77.8607,0.064378
53.233,77.8545,0.064378
53.264,77.8483,0.064378
53.296,77.8417,0.064265
53.328,77.8355,0.064265
53.358,77.8294,0.064265
53.390,77.8231,0.064265
53.422,77.8168,0.064265
53.452,77.8106,0.064265
53.484,77.8044,0.064265
53.515,77.7980,0.064265
53.544,77.7922,0.064123
53.576,77.7860,0.064123
53.607,77.7797,0.064123
53.638,77.7735,0.064123
53.668,77.7674,0.064123
53.699,77.7613,0.064123
53.731,77.7548,0.064123
53.762,77.7488,0.064123
53.793,77.7424,0.064057
53.824,77.7364,0.064057
53.854,77.7301,0.064057
53.886,77.7239,0.064057
53.919,77.7173,0.064057
53.950,77.7112,0.064057
53.981,77.7048,0.064057
54.011,77.6988,0.064057
54.043,77.6925,0.063992
54.074,77.6860,0.063992
54.106,77.6800,0.063992
54.137,77.6738,0.063992
54.168,77.6674,0.063992
54.199,77.6614,0.063992
54.230,77.6549,0.063992
54.261,77.6488,0.063992
54.292,77.6425,0.063992
54.324,77.6364,0.063897
54.354,77.6302,0.063897
54.386,77.6239,0.063897
54.417,77.6176,0.063897
54.449,77.6113,0.063897
54.479,77.6052,0.063897
54.512,77.5989,0.063897
54.542,77.5925,0.063784
54.573,77.5863,0.063784
54.605,77.5801,0.063784
54.635,77.5739,0.063784
54.666,77.5677,0.063784
54.697,77.5615,0.063784
54.729,77.5553,0.063784
54.758,77.5494,0.063784
54.790,77.5429,0.063794
54.821,77.5368,0.063794
54.852,77.5308,0.063794
54.883,77.5244,0.063794
54.914,77.5181,0.063794
54.945,77.5120,0.063794
54.976,77.5057,0.063794
55.007,77.4996,0.063794
55.038,77.4933,0.063794
55.070,77.4872,0.063775
55.100,77.4810,0.063775
55.131,77.4748,0.063775
55.162,77.4688,0.063775
55.193,77.4623,0.063775
55.224,77.4562,0.063775
55.256,77.4498,0.063775
55.286,77.4440,0.063652
55.317,77.4378,0.063652
55.348,77.4316,0.063652
55.378,77.4255,0.063652
55.410,77.4190,0.063652
55.441,77.4131,0.063652
55.471,77.4077,0.063652
55.502,77.4032,0.063652
55.533,77.3991,0.063577
55.564,77.3958,0.063577
55.596,77.3934,0.063577
55.628,77.3916,0.063577
55.657,77.3906,0.063577
55.688,77.3903,0.063577
55.719,77.3903,0.063577
55.750,77.3903,0.063577
55.782,77.3903,0.063492
55.813,77.3903,0.063492
55.844,77.3903,0.063492
55.875,77.3903,0.063492
55.907,77.3903,0.063492
55.938,77.3903,0.063492
55.969,77.3903,0.063492
56.000,77.3903,0.063492
56.031,77.3903,0.063389
56.063,77.3903,0.063389
56.093,77.3903,0.063389
56.124,77.3903,0.063389
56.155,77.3903,0.063389
56.186,77.3903,0.063389
56.217,77.3903,0.063389
56.248,77.3903,0.063389
56.278,77.3903,0.063398
56.309,77.3906,0.063398
56.340,77.3917,0.063398
56.371,77.3936,0.063398
56.403,77.3961,0.063398
56.434,77.3996,0.063398
56.464,77.4034,0.063398
56.495,77.4082,0.063398
56.526,77.4136,0.063313
56.557,77.4198,0.063313
56.589,77.4260,0.063313
56.620,77.4323,0.063313
56.651,77.4385,0.063313
56.683,77.4448,0.063313
56.714,77.4510,0.063313
56.745,77.4572,0.063313
56.775,77.4633,0.063219
56.807,77.4695,0.063219
56.838,77.4758,0.063219
56.869,77.4822,0.063219
56.900,77.4882,0.063219
56.930,77.4943,0.063219
56.961,77.5004,0.063219
56.992,77.5068,0.063219
57.023,77.5128,0.063247
57.055,77.5191,0.063247
57.086,77.5253,0.063247
57.117,77.5316,0.063247
57.148,77.5380,0.063247
57.179,77.5443,0.063247
57.211,77.5505,0.063247
57.241,77.5564,0.063247
57.274,77.5630,0.063247
57.302,77.5687,0.063200
57.333,77.5749,0.063200
57.363,77.5809,0.063200
57.396,77.5875,0.063200
57.426,77.5934,0.063200
57.457,77.5999,0.063200
57.487,77.6057,0.063200
57.519,77.6121,0.063200
57.550,77.6183,0.063200
57.581,77.6247,0.063200
57.613,77.6309,0.063200
57.644,77.6372,0.063200
57.676,77.6434,0.063200
57.707,77.6498,0.063200
57.738,77.6557,0.063200
57.769,77.6621,0.063200
57.800,77.6683,0.063200
57.830,77.6743,0.063162
57.862,77.6807,0.063162
57.892,77.6867,0.063162
57.923,77.6930,0.063162
57.954,77.6991,0.063162
57.985,77.7054,0.063162
58.016,77.7115,0.063162
58.047,77.7178,0.063162
58.078,77.7238,0.063134
58.110,77.7303,0.063134
58.142,77.7367,0.063134
58.172,77.7427,0.063134
58.203,77.7488,0.063134
58.234,77.7551,0.063134
58.264,77.7611,0.063134
58.296,77.7674,0.063087
58.326,77.7735,0.063087
58.357,77.7797,0.063087
58.388,77.7859,0.063087
58.418,77.7918,0.063087
58.450,77.7983,0.063087
58.481,77.8044,0.063087
58.511,77.8106,0.063087
58.542,77.8165,0.063068
58.573,77.8230,0.063068
58.604,77.8290,0.063068
58.636,77.8355,0.063068
58.666,77.8415,0.063068
58.696,77.8475,0.063068
58.728,77.8539,0.063068
58.759,77.8601,0.063068
58.790,77.8664,0.063078
58.821,77.8725,0.063078
58.851,77.8784,0.063078
58.883,77.8849,0.063078
58.914,77.8909,0.063078
58.945,77.8973,0.063078
58.976,77.9033,0.063078
59.007,77.9097,0.063078
59.037,77.9156,0.063030
59.068,77.9219,0.063030
59.099,77.9280,0.063030
59.131,77.9345,0.063030
59.161,77.9404,0.063030
59.193,77.9470,0.063030
59.225,77.9531,0.063030
59.255,77.9593,0.063030
59.286,77.9653,0.063059
59.317,77.9717,0.063059
59.348,77.9778,0.063059
59.378,77.9840,0.063059
59.409,77.9900,0.063059
59.440,77.9962,0.063059
59.471,78.0024,0.063059
59.502,78.0086,0.063059
59.532,78.0147,0.063021
59.563,78.0209,0.063021
59.594,78.0270,0.063021
59.625,78.0332,0.063021
59.656,78.0393,0.063021
59.688,78.0457,0.063021
59.718,78.0518,0.063021
59.749,78.0581,0.063021
59.781,78.0644,0.062993
59.811,78.0705,0.062993
59.842,78.0766,0.062993
59.873,78.0828,0.062993
59.905,78.0891,0.062993
59.936,78.0953,0.062993
59.966,78.1014,0.062993
59.998,78.1079,0.062993
60.028,78.1138,0.062993
60.060,78.1203,0.062965
60.090,78.1263,0.062965
60.122,78.1327,0.062965
60.153,78.1387,0.062965
60.184,78.1451,0.062965
60.214,78.1510,0.062965
60.245,78.1575,0.062965
60.276,78.1634,0.062965
60.308,78.1700,0.062965
60.339,78.1759,0.062965
60.370,78.1821,0.062965
60.401,78.1885,0.062965
60.432,78.1947,0.062965
60.463,78.2007,0.062965
60.495,78.2072,0.062965
60.526,78.2135,0.063012
60.556,78.2195,0.063012
60.587,78.2257,0.063012
60.618,78.2319,0.063012
60.648,78.2378,0.063012
60.679,78.2442,0.063012
60.710,78.2505,0.063012
60.741,78.2564,0.063012
60.773,78.2628,0.063012
60.803,78.2690,0.063012
60.835,78.2752,0.063021
60.865,78.2814,0.063021
60.897,78.2876,0.063021
60.928,78.2939,0.063021
60.959,78.3000,0.063021
60.990,78.3063,0.063021
61.021,78.3124,0.063021
61.052,78.3187,0.062927
61.083,78.3249,0.062927
61.113,78.3308,0.062927
61.145,78.3372,0.062927
61.175,78.3434,0.062927
61.207,78.3497,0.062927
61.238,78.3558,0.062927
61.270,78.3622,0.062927
61.300,78.3681,0.062899
61.332,78.3746,0.062899
61.362,78.3806,0.062899
61.394,78.3870,0.062899
61.425,78.3932,0.062899
61.455,78.3993,0.062899
61.485,78.4053,0.062899
61.516,78.4115,0.062899
61.547,78.4177,0.062983
61.578,78.4239,0.062983
61.610,78.4303,0.062983
61.640,78.4363,0.062983
61.671,78.4425,0.062983
61.704,78.4489,0.062983
61.734,78.4550,0.062983
61.765,78.4613,0.062983
61.796,78.4673,0.062965
61.827,78.4737,0.062965
61.859,78.4799,0.062965
61.890,78.4861,0.062965
61.921,78.4923,0.062965
61.952,78.4985,0.062965
61.982,78.5046,0.062965
62.014,78.5109,0.062965
62.045,78.5173,0.062927
62.077,78.5236,0.062927
62.108,78.5298,0.062927
62.138,78.5359,0.062927
62.169,78.5421,0.062927
62.201,78.5486,0.062927
62.232,78.5546,0.062927
62.263,78.5609,0.062927
62.294,78.5671,0.062955
62.325,78.5733,0.062955
62.356,78.5795,0.062955
62.387,78.5857,0.062955
62.417,78.5917,0.062955
62.449,78.5981,0.062955
62.480,78.6044,0.062955
62.511,78.6104,0.062955
62.542,78.6167,0.062936
62.574,78.6230,0.062936
62.605,78.6292,0.062936
62.635,78.6353,0.062936
62.667,78.6415,0.062936
62.697,78.6476,0.062936
62.728,78.6538,0.062936
62.759,78.6603,0.062936
62.790,78.6662,0.062917
62.821,78.6725,0.062917
62.851,78.6785,0.062917
62.883,78.6847,0.062917
62.914,78.6910,0.062917
62.945,78.6973,0.062917
62.977,78.7035,0.062917
63.007,78.7097,0.062917
63.039,78.7159,0.062946
63.069,78.7220,0.062946
63.101,78.7283,0.062946
63.132,78.7345,0.062946
63.163,78.7407,0.062946
63.193,78.7468,0.062946
63.224,78.7533,0.062946
63.256,78.7593,0.062946
63.287,78.7657,0.062927
63.318,78.7717,0.062927
63.349,78.7780,0.062927
63.380,78.7843,0.062927
63.411,78.7904,0.062927
63.441,78.7966,0.062927
63.472,78.8025,0.062927
63.503,78.8088,0.062927
63.534,78.8150,0.062917
63.565,78.8214,0.062917
63.597,78.8276,0.062917
63.629,78.8340,0.062917
63.660,78.8401,0.062917
63.690,78.8463,0.062917
63.722,78.8526,0.062917
63.753,78.8587,0.062917
63.784,78.8650,0.062946
63.814,78.8710,0.062946
63.845,78.8773,0.062946
63.876,78.8834,0.062946
63.907,78.8897,0.062946
63.937,78.8956,0.062946
63.969,78.9021,0.062946
64.000,78.9084,0.062946
64.031,78.9145,0.062955
64.062,78.9207,0.062955
64.093,78.9269,0.062955
64.125,78.9332,0.062955
64.155,78.9394,0.062955
64.187,78.9456,0.062955
64.218,78.9517,0.062955
64.248,78.9578,0.062955
64.280,78.9641,0.062917
64.311,78.9706,0.062917
64.343,78.9768,0.062917
64.373,78.9830,0.062917
64.404,78.9890,0.062917
64.435,78.9952,0.062917
64.467,79.0017,0.062917
64.498,79.0079,0.062917
64.528,79.0140,0.062917
64.559,79.0203,0.062917
64.590,79.0264,0.062917
64.621,79.0324,0.062917
64.652,79.0386,0.062917
64.683,79.0448,0.062917
64.714,79.0512,0.062917
64.745,79.0573,0.062917
64.777,79.0635,0.062936
64.808,79.0698,0.062936
64.839,79.0760,0.062936
64.870,79.0823,0.062936
64.901,79.0884,0.062936
64.932,79.0946,0.062936
64.963,79.1007,0.062936
64.994,79.1071,0.062936
65.025,79.1132,0.063002
65.056,79.1195,0.063002
65.087,79.1256,0.063002
65.118,79.1318,0.063002
65.150,79.1381,0.063002
65.180,79.1442,0.063002
65.212,79.1508,0.063002
65.243,79.1567,0.063002
65.275,79.1633,0.063002
65.306,79.1694,0.063030
65.336,79.1756,0.063030
65.367,79.1816,0.063030
65.398,79.1877,0.063030
65.429,79.1940,0.063030
65.460,79.2001,0.063030
65.491,79.2066,0.063030
65.522,79.2127,0.063030
65.553,79.2190,0.063030
65.585,79.2251,0.063040
65.616,79.2315,0.063040
65.647,79.2376,0.063040
65.678,79.2439,0.063040
65.709,79.2500,0.063040
65.739,79.2562,0.063040
65.770,79.2623,0.063040
65.801,79.2686,0.063078
65.833,79.2748,0.063078
65.863,79.2809,0.063078
65.894,79.2871,0.063078
65.926,79.2933,0.063078
65.958,79.2997,0.063078
65.986,79.3054,0.063078
66.017,79.3115,0.063078
66.047,79.3177,0.063078
66.078,79.3238,0.063059
66.109,79.3300,0.063059
66.140,79.3362,0.063059
66.171,79.3425,0.063059
66.203,79.3488,0.063059
66.234,79.3550,0.063059
66.266,79.3614,0.063059
66.297,79.3677,0.063059
66.328,79.3739,0.063068
66.358,79.3800,0.063068
66.389,79.3860,0.063068
66.421,79.3924,0.063068
66.452,79.3986,0.063068
66.483,79.4048,0.063068
66.514,79.4110,0.063068
66.544,79.4170,0.063125
66.575,79.4234,0.063125
66.606,79.4294,0.063125
66.638,79.4358,0.063125
66.668,79.4417,0.063125
66.699,79.4480,0.063125
66.730,79.4541,0.063125
66.761,79.4605,0.063125
66.791,79.4664,0.063181
66.822,79.4726,0.063181
66.853,79.4788,0.063181
66.884,79.4849,0.063181
66.916,79.4915,0.063181
66.948,79.4977,0.063181
66.979,79.5039,0.063181
67.011,79.5103,0.063181
67.040,79.5161,0.063191
67.071,79.5225,0.063191
67.103,79.5288,0.063191
67.134,79.5350,0.063191
67.165,79.5411,0.063191
67.196,79.5474,0.063191
67.226,79.5533,0.063191
67.258,79.5598,0.063191
67.288,79.5657,0.063200
67.320,79.5723,0.063200
67.351,79.5784,0.063200
67.383,79.5847,0.063200
67.413,79.5908,0.063200
67.444,79.5970,0.063200
67.475,79.6032,0.063200
67.507,79.6098,0.063200
67.538,79.6159,0.063238
67.569,79.6221,0.063238
67.600,79.6283,0.063238
67.631,79.6346,0.063238
67.663,79.6407,0.063238
67.693,79.6467,0.063238
67.724,79.6531,0.063238
67.756,79.6594,0.063238
67.787,79.6655,0.063238
67.818,79.6718,0.063238
67.849,79.6780,0.063238
67.881,79.6843,0.063238
67.912,79.6906,0.063238
67.943,79.6968,0.063238
67.975,79.7033,0.063238
68.006,79.7094,0.063238
68.038,79.7158,0.063238
68.068,79.7219,0.063304
68.100,79.7282,0.063304
68.131,79.7344,0.063304
68.162,79.7406,0.063304
68.194,79.7469,0.063304
68.225,79.7533,0.063304
68.256,79.7593,0.063304
68.285,79.7653,0.063304
68.317,79.7715,0.063341
68.348,79.7778,0.063341
68.379,79.7839,0.063341
68.409,79.7901,0.063341
68.441,79.7963,0.063341
68.471,79.8024,0.063341
68.502,79.8086,0.063341
68.533,79.8149,0.063341
68.564,79.8211,0.063398
68.595,79.8272,0.063398
68.627,79.8335,0.063398
68.658,79.8400,0.063398
68.689,79.8460,0.063398
68.721,79.8525,0.063398
68.752,79.8584,0.063398
68.782,79.8648,0.063398
68.813,79.8707,0.063454
68.843,79.8768,0.063454
68.874,79.8830,0.063454
68.905,79.8892,0.063454
68.936,79.8953,0.063454
68.967,79.9017,0.063454
68.998,79.9077,0.063454
69.028,79.9139,0.063454
69.059,79.9202,0.063502
69.091,79.9264,0.063502
69.122,79.9325,0.063502
69.153,79.9388,0.063502
69.184,79.9449,0.063502
69.214,79.9511,0.063502
69.246,79.9573,0.063502
69.277,79.9636,0.063558
69.308,79.9697,0.063558
69.339,79.9760,0.063558
69.370,79.9822,0.063558
69.401,79.9884,0.063558
69.432,79.9946,0.063558
69.463,80.0008,0.063558
69.494,80.0070,0.063558
69.526,80.0133,0.063558
69.556,80.0195,0.063558
69.588,80.0259,0.063586
69.619,80.0321,0.063586
69.649,80.0380,0.063586
69.681,80.0444,0.063586
69.712,80.0506,0.063586
69.742,80.0566,0.063586
69.774,80.0631,0.063586
69.805,80.0692,0.063662
69.836,80.0754,0.063662
69.866,80.0814,0.063662
69.899,80.0880,0.063662
69.929,80.0940,0.063662
69.960,80.1003,0.063662
69.991,80.1062,0.063662
70.022,80.1126,0.063662
70.052,80.1185,0.063718
70.083,80.1248,0.063718
70.115,80.1310,0.063718
70.147,80.1375,0.063718
70.179,80.1439,0.063718
70.211,80.1504,0.063718
70.241,80.1562,0.063718
70.271,80.1623,0.063718
70.302,80.1687,0.063718
70.333,80.1747,0.063765
70.364,80.1810,0.063765
70.395,80.1871,0.063765
70.426,80.1936,0.063765
70.458,80.1998,0.063765
70.489,80.2061,0.063765
70.520,80.2123,0.063765
70.551,80.2184,0.063812
70.582,80.2246,0.063812
70.613,80.2309,0.063812
70.645,80.2372,0.063812
70.676,80.2434,0.063812
70.707,80.2496,0.063812
70.738,80.2557,0.063812
70.769,80.2620,0.063812
70.801,80.2682,0.063907
70.831,80.2744,0.063907
70.862,80.2805,0.063907
70.893,80.2868,0.063907
70.924,80.2930,0.063907
70.956,80.2992,0.063907
70.987,80.3057,0.063907
71.016,80.3114,0.063907
71.047,80.3176,0.063982
71.078,80.3237,0.063982
71.109,80.3300,0.063982
71.140,80.3362,0.063982
71.172,80.3426,0.063982
71.203,80.3488,0.063982
71.233,80.3550,0.063982
71.265,80.3614,0.064001
71.296,80.3672,0.064001
71.328,80.3728,0.064001
71.358,80.3775,0.064001
71.389,80.3813,0.064001
71.420,80.3846,0.064001
71.451,80.3872,0.064001
71.483,80.3889,0.064001
71.514,80.3900,0.064001
71.544,80.3903,0.064180
71.575,80.3903,0.064180
71.606,80.3903,0.064180
71.638,80.3903,0.064180
71.669,80.3903,0.064180
71.700,80.3903,0.064180
71.730,80.3903,0.064180
71.762,80.3903,0.064180
71.793,80.3903,0.064387
71.823,80.3903,0.064387
71.855,80.3903,0.064387
71.886,80.3903,0.064387
71.916,80.3903,0.064387
71.947,80.3903,0.064387
71.979,80.3903,0.064387
72.010,80.3903,0.064387
72.042,80.3903,0.064387
72.072,80.3903,0.064472
72.104,80.3903,0.064472
72.135,80.3903,0.064472
72.166,80.3903,0.064472
72.197,80.3903,0.064472
72.228,80.3903,0.064472
72.258,80.3903,0.064472
72.289,80.3903,0.064472
72.320,80.3903,0.064594
72.352,80.3903,0.064594
72.382,80.3903,0.064594
72.413,80.3903,0.064594
72.444,80.3903,0.064594
72.475,80.3903,0.064594
72.506,80.3903,0.064594
72.536,80.3903,0.064736
72.567,80.3903,0.064736
72.598,80.3903,0.064736
72.629,80.3903,0.064736
72.660,80.3903,0.064736
72.691,80.3903,0.064736
72.721,80.3903,0.064736
72.753,80.3903,0.064736
72.785,80.3903,0.064736
72.817,80.3903,0.064849
72.847,80.3903,0.064849
72.879,80.3903,0.064849
72.910,80.3903,0.064849
72.941,80.3903,0.064849
72.972,80.3903,0.064849
73.003,80.3903,0.064849
73.034,80.3903,0.064849
73.065,80.3903,0.064934
73.096,80.3903,0.064934
73.127,80.3903,0.064934
73.159,80.3903,0.064934
73.189,80.3903,0.064934
73.221,80.3903,0.064934
73.251,80.3903,0.064934
73.283,80.3903,0.064934
73.314,80.3903,0.065000
73.347,80.3903,0.065000
73.377,80.3903,0.065000
73.408,80.3903,0.065000
73.439,80.3903,0.065000
73.471,80.3903,0.065000
73.502,80.3903,0.065000
73.533,80.3903,0.065000
73.564,80.3903,0.065094
73.596,80.3903,0.065094
73.626,80.3903,0.065094
73.658,80.3903,0.065094
73.688,80.3903,0.065094
73.720,80.3903,0.065094
73.751,80.3903,0.065094
73.782,80.3903,0.065094
73.813,80.3903,0.065160
73.843,80.3903,0.065160
73.875,80.3903,0.065160
73.908,80.3903,0.065160
73.938,80.3903,0.065160
73.968,80.3903,0.065160
74.000,80.3903,0.065160
74.031,80.3903,0.065235
74.062,80.3903,0.065235
74.095,80.3903,0.065235
74.125,80.3903,0.065235
74.156,80.3903,0.065235
74.187,80.3903,0.065235
74.219,80.3903,0.065235
74.249,80.3903,0.065235
74.280,80.3903,0.065348
74.310,80.3903,0.065348
74.341,80.3903,0.065348
74.373,80.3903,0.065348
74.404,80.3903,0.065348
74.435,80.3903,0.065348
74.466,80.3903,0.065348
74.497,80.3903,0.065348
74.528,80.3903,0.065405
74.559,80.3903,0.065405
74.590,80.3903,0.065405
74.622,80.3903,0.065405
74.652,80.3903,0.065405
74.683,80.3903,0.065405
74.714,80.3903,0.065405
74.745,80.3903,0.065405
74.776,80.3903,0.065452
74.808,80.3903,0.065452
74.840,80.3903,0.065452
74.870,80.3903,0.065452
74.901,80.3903,0.065452
74.931,80.3903,0.065452
74.963,80.3903,0.065452
74.993,80.3903,0.065452
75.024,80.3903,0.065452
75.054,80.3903,0.065555
75.086,80.3903,0.065555
75.116,80.3903,0.065555
75.147,80.3903,0.065555
75.179,80.3903,0.065555
75.211,80.3903,0.065555
75.242,80.3903,0.065555
75.273,80.3903,0.065555
75.304,80.3903,0.065555
75.336,80.3903,0.065555
75.368,80.3903,0.065555
75.400,80.3903,0.065555
75.432,80.3903,0.065555
75.464,80.3903,0.065555
75.495,80.3903,0.065555
75.526,80.3903,0.065537
75.558,80.3903,0.065537
75.588,80.3903,0.065537
75.619,80.3903,0.065537
75.650,80.3903,0.065537
75.681,80.3903,0.065537
75.713,80.3903,0.065537
75.745,80.3903,0.065537
75.775,80.3903,0.065537
75.806,80.3903,0.065603
75.838,80.3903,0.065603
75.869,80.3903,0.065603
75.899,80.3903,0.065603
75.931,80.3903,0.065603
75.961,80.3903,0.065603
75.992,80.3903,0.065603
76.024,80.3903,0.065697
76.056,80.3903,0.065697
76.087,80.3903,0.065697
76.119,80.3903,0.065697
76.150,80.3903,0.065697
76.181,80.3903,0.065697
76.212,80.3896,0.065697
76.242,80.3883,0.065697
76.273,80.3863,0.065782
76.304,80.3834,0.065782
76.335,80.3800,0.065782
76.366,80.3757,0.065782
76.398,80.3707,0.065782
76.429,80.3650,0.065782
76.460,80.3588,0.065782
76.491,80.3526,0.065782
76.522,80.3464,0.065970
76.553,80.3400,0.065970
76.585,80.3338,0.065970
76.615,80.3276,0.065970
76.646,80.3213,0.065970
76.677,80.3152,0.065970
76.708,80.3090,0.065970
76.739,80.3029,0.065970
76.770,80.2969,0.065970
76.800,80.2905,0.066234
76.831,80.2846,0.066234
76.862,80.2783,0.066234
76.893,80.2719,0.066234
76.924,80.2659,0.066234
76.954,80.2600,0.066234
76.984,80.2538,0.066234
77.016,80.2475,0.066234
77.047,80.2413,0.066290
77.077,80.2352,0.066290
77.109,80.2290,0.066290
77.140,80.2226,0.066290
77.171,80.2166,0.066290
77.202,80.2102,0.066290
77.233,80.2041,0.066290
77.265,80.1978,0.066290
77.295,80.1917,0.066319
77.327,80.1852,0.066319
77.357,80.1793,0.066319
77.388,80.1731,0.066319
77.419,80.1670,0.066319
77.451,80.1606,0.066319
77.481,80.1546,0.066319
77.512,80.1482,0.066319
77.543,80.1422,0.066403
77.575,80.1358,0.066403
77.605,80.1297,0.066403
77.636,80.1234,0.066403
77.667,80.1174,0.066403
77.699,80.1110,0.066403
77.728,80.1050,0.066403
77.760,80.0988,0.066403
77.791,80.0926,0.066479
77.822,80.0863,0.066479
77.853,80.0801,0.066479
77.884,80.0737,0.066479
77.916,80.0677,0.066479
77.946,80.0615,0.066479
77.977,80.0553,0.066479
78.009,80.0488,0.066479
78.040,80.0427,0.066516
78.072,80.0364,0.066516
78.102,80.0303,0.066516
78.135,80.0238,0.066516
78.165,80.0177,0.066516
78.195,80.0115,0.066516
78.227,80.0054,0.066516
78.258,79.9991,0.066516
78.289,79.9929,0.066535
78.322,79.9864,0.066535
78.352,79.9804,0.066535
78.383,79.9742,0.066535
78.415,79.9676,0.066535
78.445,79.9616,0.066535
78.476,79.9557,0.066535
78.508,79.9490,0.066535
78.538,79.9432,0.066498
78.569,79.9370,0.066498
78.599,79.9310,0.066498
78.631,79.9245,0.066498
78.662,79.9185,0.066498
78.692,79.9123,0.066498
78.723,79.9061,0.066498
78.756,79.8995,0.066498
78.786,79.8934,0.066460
78.817,79.8873,0.066460
78.848,79.8811,0.066460
78.879,79.8749,0.066460
78.910,79.8687,0.066460
78.940,79.8627,0.066460
78.972,79.8563,0.066460
79.003,79.8501,0.066460
79.034,79.8439,0.066460
79.064,79.8379,0.066460
79.095,79.8315,0.066460
79.127,79.8253,0.066460
79.157,79.8193,0.066460
79.189,79.8129,0.066460
79.221,79.8066,0.066460
79.251,79.8005,0.066460
79.283,79.7941,0.066460
79.314,79.7880,0.066460
79.346,79.7815,0.066460
79.378,79.7752,0.066460
79.409,79.7690,0.066460
79.440,79.7628,0.066460
79.471,79.7565,0.066460
79.502,79.7503,0.066460
79.534,79.7438,0.066460
79.564,79.7380,0.066460
79.594,79.7321,0.066460
79.625,79.7257,0.066460
79.656,79.7194,0.066460
79.686,79.7136,0.066460
79.717,79.7073,0.066460
79.749,79.7009,0.066460
79.780,79.6946,0.066460
79.812,79.6884,0.066432
79.842,79.6822,0.066432
79.871,79.6765,0.066432
79.903,79.6699,0.066432
79.934,79.6639,0.066432
79.965,79.6576,0.066432
79.997,79.6513,0.066432
80.028,79.6452,0.066441
80.060,79.6387,0.066441
80.090,79.6327,0.066441
80.121,79.6264,0.066441
80.155,79.6198,0.066441
80.183,79.6141,0.066441
80.214,79.6078,0.066441
80.244,79.6018,0.066441
80.275,79.5955,0.066441
80.306,79.5896,0.066403
80.338,79.5830,0.066403
80.369,79.5769,0.066403
80.400,79.5706,0.066403
80.431,79.5646,0.066403
80.462,79.5583,0.066403
80.493,79.5521,0.066403
80.525,79.5455,0.066403
80.556,79.5396,0.066366
80.587,79.5334,0.066366
80.618,79.5272,0.066366
80.649,79.5210,0.066366
80.680,79.5149,0.066366
80.710,79.5086,0.066366
80.742,79.5024,0.066366
80.772,79.4963,0.066366
80.803,79.4901,0.066347
80.834,79.4839,0.066347
80.865,79.4777,0.066347
80.895,79.4716,0.066347
80.927,79.4653,0.066347
80.957,79.4593,0.066347
80.989,79.4529,0.066347
81.019,79.4471,0.066347
81.050,79.4409,0.066319
81.080,79.4347,0.066319
81.112,79.4285,0.066319
81.143,79.4220,0.066319
81.174,79.4161,0.066319
81.205,79.4096,0.066319
81.236,79.4035,0.066319
81.267,79.3972,0.066319
81.299,79.3909,0.066253
81.331,79.3847,0.066253
81.360,79.3788,0.066253
81.390,79.3726,0.066253
81.422,79.3664,0.066253
81.452,79.3601,0.066253
81.484,79.3540,0.066253
81.516,79.3476,0.066253
81.547,79.3413,0.066187
81.576,79.3354,0.066187
81.608,79.3292,0.066187
81.638,79.3232,0.066187
81.669,79.3170,0.066187
81.700,79.3106,0.066187
81.731,79.3046,0.066187
81.763,79.2982,0.066187
81.793,79.2922,0.066158
81.824,79.2858,0.066158
81.855,79.2797,0.066158
81.885,79.2735,0.066158
81.916,79.2675,0.066158
81.948,79.2611,0.066158
81.979,79.2549,0.066158
82.010,79.2487,0.066158
82.041,79.2425,0.066158
82.072,79.2363,0.066130
82.103,79.2301,0.066130
82.133,79.2241,0.066130
82.165,79.2176,0.066130
82.196,79.2115,0.066130
82.227,79.2053,0.066130
82.258,79.1991,0.066130
82.290,79.1928,0.066130
82.321,79.1867,0.066130
82.352,79.1803,0.066130
82.383,79.1742,0.066130
82.413,79.1680,0.066130
82.444,79.1621,0.066130
82.475,79.1556,0.066130
82.505,79.1498,0.066130
82.536,79.1436,0.066130
82.566,79.1376,0.066045
82.597,79.1313,0.066045
82.628,79.1250,0.066045
82.659,79.1189,0.066045
82.690,79.1128,0.066045
82.721,79.1066,0.066045
82.751,79.1005,0.066045
82.782,79.0942,0.066045
82.813,79.0881,0.065932
82.845,79.0817,0.065932
82.875,79.0757,0.065932
82.906,79.0694,0.065932
82.937,79.0632,0.065932
82.969,79.0570,0.065932
82.999,79.0509,0.065932
83.030,79.0447,0.065932
83.061,79.0386,0.065932
83.093,79.0321,0.065932
83.124,79.0260,0.065932
83.156,79.0194,0.065932
83.188,79.0132,0.065932
83.219,79.0068,0.065932
83.251,79.0007,0.065932
83.281,78.9944,0.065932
83.313,78.9882,0.065866
83.345,78.9818,0.065866
83.375,78.9758,0.065866
83.407,78.9694,0.065866
83.438,78.9630,0.065866
83.469,78.9570,0.065866
83.500,78.9508,0.065866
83.530,78.9448,0.065866
83.561,78.9386,0.065744
83.592,78.9322,0.065744
83.624,78.9260,0.065744
83.655,78.9197,0.065744
83.687,78.9135,0.065744
83.717,78.9074,0.065744
83.748,78.9012,0.065744
83.779,78.8949,0.065744
83.811,78.8887,0.065725
83.842,78.8824,0.065725
83.873,78.8762,0.065725
83.905,78.8697,0.065725
83.935,78.8635,0.065725
83.966,78.8576,0.065725
83.997,78.8514,0.065725
84.028,78.8450,0.065725
84.059,78.8390,0.065706
84.089,78.8329,0.065706
84.121,78.8267,0.065706
84.152,78.8202,0.065706
84.182,78.8143,0.065706
84.213,78.8080,0.065706
84.244,78.8020,0.065706
84.276,78.7956,0.065706
84.307,78.7895,0.065603
84.338,78.7830,0.065603
84.369,78.7770,0.065603
84.400,78.7706,0.065603
84.430,78.7648,0.065603
84.461,78.7586,0.065603
84.492,78.7523,0.065603
84.523,78.7462,0.065603
84.553,78.7401,0.065603
84.584,78.7339,0.065490
84.615,78.7278,0.065490
84.645,78.7216,0.065490
84.676,78.7156,0.065490
84.707,78.7094,0.065490
84.738,78.7032,0.065490
84.769,78.6968,0.065490
84.801,78.6905,0.065405
84.832,78.6844,0.065405
84.862,78.6784,0.065405
84.892,78.6722,0.065405
84.924,78.6661,0.065405
84.954,78.6599,0.065405
84.985,78.6538,0.065405
85.016,78.6476,0.065405
85.046,78.6415,0.065386
85.077,78.6354,0.065386
85.108,78.6289,0.065386
85.138,78.6230,0.065386
85.169,78.6170,0.065386
85.200,78.6108,0.065386
85.232,78.6044,0.065386
85.263,78.5982,0.065386
85.294,78.5920,0.065348
85.324,78.5860,0.065348
85.355,78.5798,0.065348
85.386,78.5736,0.065348
85.417,78.5674,0.065348
85.449,78.5609,0.065348
85.480,78.5548,0.065348
85.511,78.5484,0.065348
85.542,78.5422,0.065197
85.573,78.5362,0.065197
85.603,78.5302,0.065197
85.634,78.5240,0.065197
85.664,78.5180,0.065197
85.696,78.5117,0.065197
85.726,78.5056,0.065197
85.756,78.4995,0.065197
85.788,78.4933,0.065160
85.818,78.4870,0.065160
85.850,78.4809,0.065160
85.880,78.4747,0.065160
85.911,78.4686,0.065160
85.943,78.4621,0.065160
85.975,78.4559,0.065160
86.007,78.4494,0.065160
86.036,78.4436,0.065066
86.067,78.4374,0.065066
86.098,78.4312,0.065066
86.129,78.4251,0.065066
86.159,78.4188,0.065066
86.191,78.4126,0.065066
86.222,78.4065,0.065066
86.253,78.4002,0.065066
86.284,78.3940,0.064962
86.316,78.3876,0.064962
86.347,78.3814,0.064962
86.379,78.3750,0.064962
86.409,78.3690,0.064962
86.440,78.3626,0.064962
86.471,78.3566,0.064962
86.504,78.3501,0.064962
86.534,78.3441,0.064887
86.565,78.3378,0.064887
86.596,78.3316,0.064887
86.627,78.3254,0.064887
86.659,78.3191,0.064887
86.690,78.3127,0.064887
86.720,78.3068,0.064887
86.751,78.3005,0.064887
86.782,78.2944,0.064792
86.813,78.2883,0.064792
86.844,78.2820,0.064792
86.876,78.2757,0.064792
86.906,78.2696,0.064792
86.937,78.2634,0.064792
86.967,78.2574,0.064792
86.998,78.2512,0.064792
87.029,78.2451,0.064745
87.060,78.2387,0.064745
87.092,78.2325,0.064745
87.123,78.2262,0.064745
87.154,78.2200,0.064745
87.186,78.2136,0.064745
87.216,78.2074,0.064745
87.247,78.2014,0.064745
87.279,78.1950,0.064642
87.310,78.1888,0.064642
87.341,78.1825,0.064642
87.372,78.1763,0.064642
87.402,78.1704,0.064642
87.434,78.1640,0.064642
87.465,78.1578,0.064642
87.497,78.1514,0.064642
87.526,78.1456,0.064594
87.557,78.1394,0.064594
87.588,78.1333,0.064594
87.618,78.1271,0.064594
87.649,78.1209,0.064594
87.681,78.1147,0.064594
87.711,78.1086,0.064594
87.742,78.1024,0.064594
87.773,78.0961,0.064519
87.804,78.0900,0.064519
87.835,78.0838,0.064519
87.868,78.0772,0.064519
87.898,78.0711,0.064519
87.929,78.0649,0.064519
87.960,78.0587,0.064519
87.991,78.0525,0.064519
88.022,78.0463,0.064519
88.053,78.0403,0.064519
88.086,78.0337,0.064415
88.116,78.0276,0.064415
88.147,78.0213,0.064415
88.178,78.0152,0.064415
88.211,78.0085,0.064415
88.241,78.0026,0.064415
88.270,77.9967,0.064415
88.302,77.9903,0.064359
88.334,77.9841,0.064359
88.364,77.9780,0.064359
88.395,77.9718,0.064359
88.426,77.9656,0.064359
88.457,77.9593,0.064359
88.488,77.9532,0.064359
88.520,77.9466,0.064359
88.551,77.9405,0.064246
88.583,77.9341,0.064246
88.614,77.9280,0.064246
88.645,77.9217,0.064246
88.676,77.9156,0.064246
88.706,77.9094,0.064246
88.738,77.9032,0.064246
88.769,77.8970,0.064246
88.799,77.8909,0.064171
88.831,77.8845,0.064171
88.862,77.8783,0.064171
88.893,77.8721,0.064171
88.924,77.8660,0.064171
88.956,77.8596,0.064171
88.986,77.8536,0.064171
89.018,77.8473,0.064171
89.049,77.8411,0.064105
89.079,77.8351,0.064105
89.109,77.8289,0.064105
89.140,77.8228,0.064105
89.172,77.8164,0.064105
89.203,77.8101,0.064105
89.235,77.8037,0.064105
89.266,77.7975,0.064010
89.299,77.7911,0.064010
89.329,77.7850,0.064010
89.359,77.7791,0.064010
89.390,77.7729,0.064010
89.422,77.7665,0.064010
89.453,77.7602,0.064010
89.483,77.7540,0.064010
89.514,77.7481,0.064010
89.546,77.7416,0.063973
89.576,77.7357,0.063973
89.607,77.7293,0.063973
89.638,77.7233,0.063973
89.668,77.7171,0.063973
89.700,77.7110,0.063973
89.732,77.7044,0.063973
89.763,77.6982,0.063973
89.794,77.6919,0.063926
89.825,77.6859,0.063926
89.855,77.6797,0.063926
89.886,77.6735,0.063926
89.917,77.6673,0.063926
89.948,77.6611,0.063926
89.979,77.6549,0.063926
90.010,77.6490,0.063926
90.041,77.6425,0.063822
90.072,77.6364,0.063822
90.104,77.6300,0.063822
90.134,77.6240,0.063822
90.166,77.6177,0.063822
90.196,77.6116,0.063822
90.227,77.6054,0.063822
90.258,77.5992,0.063822
90.289,77.5929,0.063822
90.320,77.5868,0.063756
90.351,77.5806,0.063756
90.383,77.5743,0.063756
90.414,77.5679,0.063756
90.445,77.5619,0.063756
90.476,77.5556,0.063756
90.508,77.5494,0.063756
90.539,77.5430,0.063756
90.570,77.5368,0.063699
90.601,77.5306,0.063699
90.633,77.5242,0.063699
90.664,77.5181,0.063699
90.695,77.5119,0.063699
90.726,77.5056,0.063699
90.757,77.4995,0.063699
90.788,77.4932,0.063699
90.819,77.4871,0.063615
90.850,77.4808,0.063615
90.881,77.4747,0.063615
90.912,77.4684,0.063615
90.943,77.4622,0.063615
90.974,77.4560,0.063615
91.005,77.4498,0.063615
91.037,77.4433,0.063615
91.068,77.4373,0.063568
91.099,77.4309,0.063568
91.130,77.4249,0.063568
91.161,77.4188,0.063568
91.192,77.4123,0.063568
91.223,77.4063,0.063568
91.254,77.3999,0.063568
91.285,77.3940,0.063568
91.316,77.3875,0.063454
91.346,77.3816,0.063454
91.378,77.3751,0.063454
91.410,77.3688,0.063454
91.441,77.3627,0.063454
91.471,77.3575,0.063454
91.503,77.3527,0.063454
91.534,77.3488,0.063454
91.565,77.3457,0.063370
91.595,77.3432,0.063370
91.627,77.3415,0.063370
91.657,77.3405,0.063370
91.688,77.3403,0.063370
91.719,77.3403,0.063370
91.750,77.3403,0.063370
91.782,77.3403,0.063370
91.812,77.3403,0.063304
91.843,77.3403,0.063304
91.874,77.3403,0.063304
91.906,77.3403,0.063304
91.938,77.3403,0.063304
91.968,77.3403,0.063304
91.999,77.3403,0.063304
92.031,77.3403,0.063219
92.062,77.3403,0.063219
92.094,77.3403,0.063219
92.124,77.3403,0.063219
92.155,77.3403,0.063219
92.186,77.3403,0.063219
92.217,77.3403,0.063219
92.248,77.3403,0.063219
92.279,77.3403,0.063210
92.311,77.3403,0.063210
92.342,77.3409,0.063210
92.374,77.3424,0.063210
92.404,77.3444,0.063210
92.437,77.3473,0.063210
92.467,77.3507,0.063210
92.499,77.3553,0.063210
92.530,77.3601,0.063115
92.561,77.3661,0.063115
92.592,77.3723,0.063115
92.624,77.3786,0.063115
92.655,77.3848,0.063115
92.686,77.3910,0.063115
92.716,77.3970,0.063115
92.749,77.4035,0.063115
92.778,77.4095,0.063049
92.810,77.4157,0.063049
92.841,77.4220,0.063049
92.872,77.4282,0.063049
92.903,77.4344,0.063049
92.935,77.4409,0.063049
92.965,77.4468,0.063049
92.996,77.4531,0.063049
93.027,77.4592,0.063078
93.058,77.4654,0.063078
93.088,77.4715,0.063078
93.120,77.4778,0.063078
93.150,77.4838,0.063078
93.181,77.4898,0.063078
93.211,77.4960,0.063078
93.243,77.5026,0.063078
93.274,77.5086,0.063078
93.305,77.5148,0.063002
93.335,77.5210,0.063002
93.366,77.5272,0.063002
93.396,77.5329,0.063002
93.427,77.5395,0.063002
93.458,77.5454,0.063002
93.489,77.5515,0.063002
93.519,77.5576,0.063002
93.550,77.5639,0.063012
93.582,77.5701,0.063012
93.612,77.5762,0.063012
93.644,77.5825,0.063012
93.675,77.5888,0.063012
93.707,77.5951,0.063012
93.738,77.6016,0.063012
93.770,77.6077,0.063012
93.801,77.6140,0.063012
93.832,77.6201,0.063021
93.863,77.6265,0.063021
93.894,77.6327,0.063021
93.925,77.6388,0.063021
93.954,77.6446,0.063021
93.985,77.6508,0.063021
94.017,77.6572,0.063021
94.047,77.6634,0.063021
94.079,77.6696,0.062955
94.110,77.6758,0.062955
94.141,77.6820,0.062955
94.172,77.6883,0.062955
94.203,77.6944,0.062955
94.233,77.7004,0.062955
94.265,77.7068,0.062955
94.296,77.7131,0.062965
94.326,77.7192,0.062965
94.357,77.7252,0.062965
94.386,77.7311,0.062965
94.420,77.7379,0.062965
94.451,77.7442,0.062965
94.482,77.7502,0.062965
94.513,77.7565,0.062965
94.545,77.7627,0.062965
94.575,77.7688,0.062965
94.607,77.7752,0.062965
94.637,77.7812,0.062965
94.667,77.7874,0.062965
94.699,77.7936,0.062965
94.730,77.7999,0.062965
94.760,77.8060,0.062965
94.791,77.8122,0.062965
94.822,77.8181,0.062936
94.853,77.8246,0.062936
94.885,77.8307,0.062936
94.916,77.8370,0.062936
94.945,77.8429,0.062936
94.976,77.8491,0.062936
95.008,77.8555,0.062936
95.039,77.8617,0.062927
95.070,77.8677,0.062927
95.100,77.8738,0.062927
95.132,77.8800,0.062927
95.163,77.8863,0.062927
95.193,77.8925,0.062927
95.224,77.8986,0.062927
95.256,77.9051,0.062927
95.285,77.9109,0.062927
95.319,77.9176,0.062936
95.348,77.9234,0.062936
95.380,77.9298,0.062936
95.410,77.9357,0.062936
95.441,77.9420,0.062936
95.473,77.9485,0.062936
95.504,77.9548,0.062936
95.535,77.9608,0.062899
95.566,77.9670,0.062899
95.596,77.9732,0.062899
95.627,77.9792,0.062899
95.658,77.9853,0.062899
95.689,77.9916,0.062899
95.720,77.9977,0.062899
95.751,78.0040,0.062899
95.782,78.0101,0.062833
95.814,78.0167,0.062833
95.845,78.0228,0.062833
95.876,78.0291,0.062833
95.907,78.0352,0.062833
95.938,78.0415,0.062833
95.969,78.0476,0.062833
96.001,78.0539,0.062833
96.031,78.0600,0.062842
96.063,78.0664,0.062842
96.093,78.0724,0.062842
96.124,78.0787,0.062842
96.155,78.0847,0.062842
96.187,78.0912,0.062842
96.217,78.0971,0.062842
96.247,78.1033,0.062842
96.278,78.1093,0.062823
96.309,78.1154,0.062823
96.340,78.1219,0.062823
96.372,78.1282,0.062823
96.403,78.1343,0.062823
96.434,78.1407,0.062823
96.465,78.1467,0.062823
96.496,78.1531,0.062823
96.526,78.1590,0.062823
96.557,78.1653,0.062814
96.588,78.1714,0.062814
96.620,78.1778,0.062814
96.649,78.1835,0.062814
96.680,78.1900,0.062814
96.712,78.1962,0.062814
96.744,78.2026,0.062814
96.775,78.2087,0.062842
96.806,78.2150,0.062842
96.838,78.2213,0.062842
96.869,78.2275,0.062842
96.900,78.2337,0.062842
96.931,78.2401,0.062842
96.962,78.2460,0.062842
96.994,78.2525,0.062842
97.025,78.2588,0.062842
97.056,78.2650,0.062833
97.088,78.2714,0.062833
97.119,78.2776,0.062833
97.150,78.2837,0.062833
97.181,78.2902,0.062833
97.212,78.2962,0.062833
97.243,78.3024,0.062833
97.274,78.3085,0.062833
97.306,78.3150,0.062833
97.336,78.3209,0.062795
97.367,78.3272,0.062795
97.399,78.3336,0.062795
97.430,78.3399,0.062795
97.461,78.3461,0.062795
97.492,78.3523,0.062795
97.523,78.3584,0.062795
97.554,78.3646,0.062795
97.585,78.3708,0.062795
97.617,78.3771,0.062795
97.647,78.3832,0.062795
97.678,78.3893,0.062795
97.709,78.3955,0.062795
97.740,78.4018,0.062795
97.771,78.4079,0.062795
97.802,78.4142,0.062823
97.833,78.4203,0.062823
97.864,78.4267,0.062823
97.895,78.4327,0.062823
97.926,78.4391,0.062823
97.957,78.4451,0.062823
97.988,78.4514,0.062823
98.019,78.4577,0.062823
98.050,78.4639,0.062804
98.081,78.4700,0.062804
98.113,78.4763,0.062804
98.144,78.4827,0.062804
98.175,78.4887,0.062804
98.204,78.4944,0.062804
98.238,78.5014,0.062804
98.268,78.5075,0.062804
98.299,78.5135,0.062804
98.330,78.5197,0.062804
98.362,78.5262,0.062804
98.393,78.5323,0.062804
98.424,78.5387,0.062804
98.455,78.5447,0.062804
98.486,78.5510,0.062804
98.517,78.5572,0.062804
98.548,78.5633,0.062804
98.578,78.5693,0.062795
98.610,78.5758,0.062795
98.642,78.5822,0.062795
98.673,78.5884,0.062795
98.704,78.5945,0.062795
98.735,78.6008,0.062795
98.765,78.6069,0.062795
98.796,78.6131,0.062795
98.828,78.6192,0.062823
98.859,78.6255,0.062823
98.891,78.6320,0.062823
98.922,78.6383,0.062823
98.953,78.6443,0.062823
98.982,78.6502,0.062823
99.014,78.6565,0.062823
99.046,78.6629,0.062861
99.077,78.6692,0.062861
99.109,78.6755,0.062861
99.140,78.6817,0.062861
99.171,78.6879,0.062861
99.201,78.6940,0.062861
99.232,78.7003,0.062861
99.264,78.7066,0.062861
99.295,78.7128,0.062851
99.326,78.7189,0.062851
99.356,78.7249,0.062851
99.387,78.7312,0.062851
99.418,78.7373,0.062851
99.450,78.7437,0.062851
99.480,78.7498,0.062851
99.512,78.7562,0.062851
99.543,78.7622,0.062861
99.574,78.7685,0.062861
99.605,78.7747,0.062861
99.636,78.7808,0.062861
99.666,78.7871,0.062861
99.697,78.7932,0.062861
99.728,78.7995,0.062861
99.760,78.8056,0.062861
99.790,78.8118,0.062861
99.822,78.8181,0.062814
99.852,78.8241,0.062814
99.882,78.8303,0.062814
99.913,78.8364,0.062814
99.944,78.8424,0.062814
99.975,78.8486,0.062814
100.006,78.8548,0.062814
100.037,78.8610,0.062833
100.068,78.8672,0.062833
100.099,78.8736,0.062833
100.130,78.8798,0.062833
100.161,78.8860,0.062833
100.192,78.8923,0.062833
100.224,78.8985,0.062833
100.256,78.9051,0.062833
100.287,78.9110,0.062870
100.318,78.9174,0.062870
100.349,78.9234,0.062870
100.380,78.9298,0.062870
100.411,78.9360,0.062870
100.443,78.9424,0.062870
100.473,78.9484,0.062870
100.505,78.9547,0.062870
100.536,78.9609,0.062823
100.567,78.9672,0.062823
100.598,78.9734,0.062823
100.630,78.9799,0.062823
100.661,78.9859,0.062823
100.692,78.9921,0.062823
100.723,78.9983,0.062823
100.755,79.0048,0.062823
100.787,79.0110,0.062814
100.817,79.0172,0.062814
100.849,79.0235,0.062814
100.880,79.0297,0.062814
100.911,79.0358,0.062814
100.942,79.0421,0.062814
100.973,79.0483,0.062814
101.004,79.0546,0.062814
101.035,79.0606,0.062842
101.066,79.0668,0.062842
101.096,79.0731,0.062842
101.127,79.0791,0.062842
101.158,79.0855,0.062842
101.189,79.0917,0.062842
101.220,79.0978,0.062842
101.251,79.1040,0.062842
101.282,79.1102,0.062880
101.314,79.1164,0.062880
101.344,79.1225,0.062880
101.375,79.1287,0.062880
101.406,79.1349,0.062880
101.437,79.1412,0.062880
101.468,79.1474,0.062880
101.499,79.1535,0.062880
101.530,79.1597,0.062870
101.561,79.1659,0.062870
101.592,79.1723,0.062870
101.623,79.1783,0.062870
101.654,79.1847,0.062870
101.686,79.1909,0.062870
101.717,79.1972,0.062870
101.748,79.2034,0.062870
101.779,79.2097,0.062870
101.810,79.2158,0.062870
101.841,79.2222,0.062870
101.872,79.2282,0.062870
101.904,79.2346,0.062870
101.934,79.2406,0.062870
101.964,79.2465,0.062870
101.996,79.2528,0.062870
102.026,79.2589,0.062927
102.059,79.2655,0.062927
102.090,79.2717,0.062927
102.121,79.2779,0.062927
102.152,79.2842,0.062927
102.183,79.2905,0.062927
102.215,79.2967,0.062927
102.246,79.3029,0.062927
102.277,79.3091,0.062927
102.309,79.3157,0.062946
102.339,79.3215,0.062946
102.369,79.3276,0.062946
102.401,79.3341,0.062946
102.432,79.3400,0.062946
102.463,79.3464,0.062946
102.494,79.3524,0.062946
102.525,79.3588,0.062955
102.555,79.3648,0.062955
102.587,79.3712,0.062955
102.618,79.3774,0.062955
102.648,79.3834,0.062955
102.679,79.3898,0.062955
102.710,79.3958,0.062955
102.741,79.4020,0.062955
102.773,79.4084,0.062955
102.804,79.4147,0.063002
102.835,79.4208,0.063002
102.866,79.4271,0.063002
102.897,79.4332,0.063002
102.928,79.4395,0.063002
102.959,79.4456,0.063002
102.991,79.4519,0.063002
103.021,79.4580,0.063012
103.052,79.4642,0.063012
103.084,79.4706,0.063012
103.112,79.4761,0.063012
103.146,79.4829,0.063012
103.178,79.4895,0.063012
103.210,79.4957,0.063012
103.241,79.5020,0.063012
103.272,79.5081,0.062993
103.303,79.5143,0.062993
103.334,79.5205,0.062993
103.365,79.5267,0.062993
103.396,79.5329,0.062993
103.427,79.5391,0.062993
103.458,79.5454,0.062993
103.488,79.5514,0.062993
103.520,79.5578,0.062993
103.551,79.5638,0.063030
103.582,79.5702,0.063030
103.613,79.5763,0.063030
103.644,79.5827,0.063030
103.675,79.5887,0.063030
103.708,79.5954,0.063030
103.738,79.6013,0.063030
103.769,79.6077,0.063030
103.800,79.6136,0.063125
103.831,79.6199,0.063125
103.861,79.6260,0.063125
103.892,79.6322,0.063125
103.923,79.6383,0.063125
103.954,79.6445,0.063125
103.985,79.6508,0.063125
104.016,79.6569,0.063134
104.047,79.6631,0.063134
104.078,79.6693,0.063134
104.109,79.6755,0.063134
104.140,79.6818,0.063134
104.171,79.6879,0.063134
104.201,79.6939,0.063134
104.232,79.7002,0.063134
104.263,79.7063,0.063134
104.295,79.7128,0.063134
104.324,79.7185,0.063134
104.355,79.7249,0.063134
104.387,79.7311,0.063134
104.418,79.7373,0.063134
104.449,79.7436,0.063134
104.480,79.7498,0.063134
104.511,79.7558,0.063134
104.542,79.7622,0.063134
104.573,79.7683,0.063181
104.604,79.7746,0.063181
104.636,79.7808,0.063181
104.667,79.7871,0.063181
104.698,79.7932,0.063181
104.729,79.7995,0.063181
104.759,79.8055,0.063181
104.790,79.8118,0.063181
104.821,79.8179,0.063247
104.852,79.8242,0.063247
104.884,79.8305,0.063247
104.915,79.8367,0.063247
104.947,79.8431,0.063247
104.978,79.8494,0.063247
105.009,79.8553,0.063247
105.040,79.8618,0.063247
105.071,79.8677,0.063341
105.102,79.8741,0.063341
105.133,79.8804,0.063341
105.166,79.8868,0.063341
105.196,79.8929,0.063341
105.227,79.8992,0.063341
105.259,79.9056,0.063341
105.290,79.9116,0.063332
105.320,79.9177,0.063332
105.351,79.9238,0.063332
105.381,79.9299,0.063332
105.412,79.9361,0.063332
105.443,79.9423,0.063332
105.475,79.9486,0.063332
105.505,79.9547,0.063332
105.536,79.9609,0.063332
105.568,79.9672,0.063360
105.599,79.9735,0.063360
105.630,79.9797,0.063360
105.662,79.9862,0.063360
105.693,79.9923,0.063360
105.723,79.9983,0.063360
105.754,80.0045,0.063360
105.786,80.0109,0.063360
105.816,80.0169,0.063445
105.847,80.0231,0.063445
105.878,80.0293,0.063445
105.910,80.0357,0.063445
105.940,80.0417,0.063445
105.971,80.0480,0.063445
106.003,80.0543,0.063445
106.033,80.0604,0.063445
106.065,80.0668,0.063483
106.097,80.0730,0.063483
106.127,80.0792,0.063483
106.158,80.0853,0.063483
106.190,80.0917,0.063483
106.221,80.0979,0.063483
106.251,80.1039,0.063483
106.283,80.1102,0.063530
106.315,80.1167,0.063530
106.345,80.1226,0.063530
106.376,80.1289,0.063530
106.407,80.1350,0.063530
106.436,80.1411,0.063530
106.467,80.1470,0.063530
106.499,80.1535,0.063530
106.530,80.1596,0.063586
106.561,80.1660,0.063586
106.592,80.1721,0.063586
106.623,80.1784,0.063586
106.654,80.1846,0.063586
106.686,80.1911,0.063586
106.717,80.1970,0.063586
106.748,80.2032,0.063586
106.779,80.2094,0.063690
106.809,80.2156,0.063690
106.840,80.2218,0.063690
106.871,80.2280,0.063690
106.902,80.2341,0.063690
106.933,80.2404,0.063690
106.964,80.2464,0.063690
106.994,80.2526,0.063690
107.025,80.2587,0.063718
107.056,80.2649,0.063718
107.087,80.2711,0.063718
107.119,80.2775,0.063718
107.150,80.2836,0.063718
107.181,80.2898,0.063718
107.212,80.2960,0.063718
107.243,80.3024,0.063718
107.275,80.3086,0.063775
107.305,80.3148,0.063775
107.336,80.3204,0.063775
107.367,80.3254,0.063775
107.398,80.3296,0.063775
107.429,80.3332,0.063775
107.460,80.3362,0.063775
107.491,80.3382,0.063775
107.523,80.3397,0.063775
107.554,80.3403,0.063992
107.585,80.3403,0.063992
107.615,80.3403,0.063992
107.647,80.3403,0.063992
107.678,80.3403,0.063992
107.709,80.3403,0.063992
107.741,80.3403,0.063992
107.773,80.3403,0.063992
107.804,80.3403,0.064114
107.835,80.3403,0.064114
107.866,80.3403,0.064114
107.898,80.3403,0.064114
107.928,80.3403,0.064114
107.959,80.3403,0.064114
107.991,80.3403,0.064114
108.022,80.3403,0.064114
108.053,80.3403,0.064199
108.083,80.3403,0.064199
108.114,80.3403,0.064199
108.145,80.3403,0.064199
108.175,80.3403,0.064199
108.207,80.3403,0.064199
108.238,80.3403,0.064199
108.270,80.3403,0.064199
108.301,80.3403,0.064378
108.332,80.3403,0.064378
108.363,80.3403,0.064378
108.394,80.3403,0.064378
108.425,80.3403,0.064378
108.456,80.3403,0.064378
108.488,80.3403,0.064378
108.518,80.3403,0.064378
108.550,80.3403,0.064500
108.580,80.3403,0.064500
108.611,80.3403,0.064500
108.641,80.3403,0.064500
108.672,80.3403,0.064500
108.704,80.3403,0.064500
108.735,80.3403,0.064500
108.766,80.3403,0.064500
108.796,80.3403,0.064566
108.828,80.3403,0.064566
108.859,80.3403,0.064566
108.892,80.3403,0.064566
108.922,80.3403,0.064566
108.953,80.3403,0.064566
108.983,80.3403,0.064566
109.015,80.3403,0.064566
109.046,80.3403,0.064623
109.077,80.3403,0.064623
109.109,80.3403,0.064623
109.139,80.3403,0.064623
109.170,80.3403,0.064623
109.201,80.3403,0.064623
109.232,80.3403,0.064623
109.263,80.3403,0.064623
109.294,80.3403,0.064689
109.325,80.3403,0.064689
109.356,80.3403,0.064689
109.387,80.3403,0.064689
109.417,80.3403,0.064689
109.448,80.3403,0.064689
109.478,80.3403,0.064689
109.511,80.3403,0.064689
109.541,80.3403,0.064764
109.571,80.3403,0.064764
109.603,80.3403,0.064764
109.634,80.3403,0.064764
109.664,80.3403,0.064764
109.695,80.3403,0.064764
109.726,80.3403,0.064764
109.757,80.3403,0.064764
109.787,80.3403,0.064821
109.819,80.3403,0.064821
109.850,80.3403,0.064821
109.882,80.3403,0.064821
109.913,80.3403,0.064821
109.943,80.3403,0.064821
109.975,80.3403,0.064821
110.006,80.3403,0.064821
110.038,80.3403,0.064896
110.069,80.3403,0.064896
110.100,80.3403,0.064896
110.131,80.3403,0.064896
110.161,80.3403,0.064896
110.192,80.3403,0.064896
110.223,80.3403,0.064896
110.255,80.3403,0.064896
110.286,80.3403,0.064962
110.317,80.3403,0.064962
110.348,80.3403,0.064962
110.378,80.3403,0.064962
110.408,80.3403,0.064962
110.439,80.3403,0.064962
110.469,80.3403,0.064962
110.502,80.3403,0.064962
110.533,80.3403,0.065009
110.564,80.3403,0.065009
110.595,80.3403,0.065009
110.626,80.3403,0.065009
110.657,80.3403,0.065009
110.688,80.3403,0.065009
110.720,80.3403,0.065009
110.749,80.3403,0.065009
110.781,80.3403,0.065075
110.812,80.3403,0.065075
110.843,80.3403,0.065075
110.873,80.3403,0.065075
110.905,80.3403,0.065075
110.935,80.3403,0.065075
110.966,80.3403,0.065075
110.998,80.3403,0.065075
111.029,80.3403,0.065169
111.060,80.3403,0.065169
111.092,80.3403,0.065169
111.123,80.3403,0.065169
111.154,80.3403,0.065169
111.185,80.3403,0.065169
111.215,80.3403,0.065169
111.246,80.3403,0.065169
111.277,80.3403,0.065169
111.307,80.3403,0.065282
111.338,80.3403,0.065282
111.369,80.3403,0.065282
111.400,80.3403,0.065282
111.432,80.3403,0.065282
111.464,80.3403,0.065282
111.495,80.3403,0.065282
111.527,80.3403,0.065282
111.557,80.3403,0.065301
111.588,80.3403,0.065301
111.619,80.3403,0.065301
111.649,80.3403,0.065301
111.681,80.3403,0.065301
111.712,80.3403,0.065301
111.743,80.3403,0.065301
111.774,80.3403,0.065301
111.805,80.3403,0.065301
111.836,80.3398,0.065301
111.867,80.3387,0.065301
111.898,80.3367,0.065301
111.930,80.3339,0.065301
111.960,80.3306,0.065301
111.991,80.3266,0.065301
112.022,80.3217,0.065301
112.053,80.3162,0.065461
112.084,80.3100,0.065461
112.115,80.3038,0.065461
112.147,80.2975,0.065461
112.177,80.2913,0.065461
112.208,80.2852,0.065461
112.239,80.2790,0.065461
112.270,80.2728,0.065461
112.301,80.2666,0.065725
112.333,80.2603,0.065725
112.364,80.2541,0.065725
112.395,80.2478,0.065725
112.426,80.2418,0.065725
112.458,80.2352,0.065725
112.488,80.2293,0.065725
112.520,80.2229,0.065725
112.550,80.2169,0.065838
112.582,80.2105,0.065838
112.613,80.2043,0.065838
112.644,80.1980,0.065838
112.675,80.1919,0.065838
112.706,80.1856,0.065838
112.736,80.1795,0.065838
112.767,80.1735,0.065838
112.797,80.1674,0.065895
112.828,80.1612,0.065895
112.859,80.1551,0.065895
112.889,80.1490,0.065895
112.921,80.1427,0.065895
112.952,80.1364,0.065895
112.983,80.1303,0.065895
113.014,80.1241,0.065895
113.045,80.1179,0.065951
113.076,80.1116,0.065951
113.107,80.1055,0.065951
113.138,80.0990,0.065951
113.170,80.0928,0.065951
113.202,80.0865,0.065951
113.232,80.0806,0.065951
113.265,80.0737,0.065951
113.295,80.0679,0.065970
113.326,80.0616,0.065970
113.356,80.0556,0.065970
113.387,80.0496,0.065970
113.418,80.0431,0.065970
113.449,80.0369,0.065970
113.479,80.0308,0.065970
113.511,80.0246,0.065970
113.542,80.0183,0.066036
113.573,80.0121,0.066036
113.604,80.0059,0.066036
113.635,79.9997,0.066036
113.667,79.9934,0.066036
113.697,79.9873,0.066036
113.728,79.9814,0.066036
113.759,79.9750,0.066036
113.789,79.9691,0.066055
113.820,79.9627,0.066055
113.850,79.9568,0.066055
113.881,79.9506,0.066055
113.913,79.9443,0.066055
113.944,79.9381,0.066055
113.975,79.9317,0.066055
114.006,79.9254,0.066055
114.037,79.9195,0.066074
114.067,79.9134,0.066074
114.098,79.9072,0.066074
114.130,79.9007,0.066074
114.161,79.8945,0.066074
114.193,79.8882,0.066074
114.224,79.8819,0.066074
114.255,79.8757,0.066074
114.286,79.8696,0.066064
114.318,79.8633,0.066064
114.349,79.8572,0.066064
114.380,79.8508,0.066064
114.411,79.8447,0.066064
114.442,79.8385,0.066064
114.473,79.8323,0.066064
114.504,79.8259,0.066064
114.534,79.8199,0.066027
114.566,79.8137,0.066027
114.596,79.8076,0.066027
114.627,79.8015,0.066027
114.659,79.7949,0.066027
114.690,79.7889,0.066027
114.721,79.7827,0.066027
114.752,79.7765,0.066027
114.783,79.7700,0.066027
114.814,79.7641,0.066055
114.845,79.7577,0.066055
114.876,79.7518,0.066055
114.908,79.7453,0.066055
114.938,79.7394,0.066055
114.970,79.7329,0.066055
115.000,79.7269,0.066055
115.031,79.7207,0.066055
115.061,79.7147,0.066083
115.092,79.7085,0.066083
115.124,79.7020,0.066083
115.155,79.6957,0.066083
115.186,79.6896,0.066083
115.217,79.6834,0.066083
115.249,79.6771,0.066083
115.280,79.6709,0.066083
115.311,79.6646,0.066027
115.342,79.6583,0.066027
115.374,79.6522,0.066027
115.405,79.6459,0.066027
115.436,79.6398,0.066027
115.467,79.6335,0.066027
115.497,79.6274,0.066027
115.529,79.6211,0.066027
115.560,79.6147,0.065979
115.591,79.6087,0.065979
115.622,79.6023,0.065979
115.655,79.5960,0.065979
115.684,79.5899,0.065979
115.715,79.5839,0.065979
115.746,79.5775,0.065979
115.778,79.5713,0.065979
115.808,79.5653,0.065961
115.840,79.5589,0.065961
115.869,79.5530,0.065961
115.901,79.5466,0.065961
115.932,79.5406,0.065961
115.964,79.5341,0.065961
115.994,79.5282,0.065961
116.025,79.5220,0.065970
116.056,79.5158,0.065970
116.087,79.5094,0.065970
116.118,79.5032,0.065970
116.148,79.4972,0.065970
116.179,79.4910,0.065970
116.211,79.4845,0.065970
116.242,79.4784,0.065970
116.272,79.4725,0.065970
116.303,79.4662,0.065961
116.334,79.4600,0.065961
116.365,79.4540,0.065961
116.396,79.4477,0.065961
116.427,79.4415,0.065961
116.459,79.4350,0.065961
116.490,79.4290,0.065961
116.521,79.4226,0.065961
116.552,79.4167,0.065914
116.582,79.4103,0.065914
116.613,79.4040,0.065914
116.645,79.3979,0.065914
116.675,79.3917,0.065914
116.706,79.3855,0.065914
116.738,79.3791,0.065914
116.769,79.3730,0.065914
116.800,79.3667,0.065885
116.832,79.3605,0.065885
116.863,79.3540,0.065885
116.895,79.3480,0.065885
116.926,79.3416,0.065885
116.956,79.3358,0.065885
116.986,79.3297,0.065885
117.017,79.3235,0.065876
117.050,79.3168,0.065876
117.080,79.3108,0.065876
117.110,79.3048,0.065876
117.144,79.2981,0.065876
117.175,79.2917,0.065876
117.207,79.2855,0.065876
117.238,79.2794,0.065876
117.268,79.2733,0.065829
117.299,79.2671,0.065829
117.330,79.2608,0.065829
117.360,79.2548,0.065829
117.392,79.2484,0.065829
117.423,79.2422,0.065829
117.454,79.2360,0.065829
117.485,79.2300,0.065829
117.515,79.2237,0.065829
117.546,79.2176,0.065772
117.579,79.2112,0.065772
117.609,79.2051,0.065772
117.639,79.1990,0.065772
117.667,79.1936,0.065772
117.701,79.1867,0.065772
117.732,79.1804,0.065772
117.763,79.1743,0.065744
117.795,79.1680,0.065744
117.826,79.1617,0.065744
117.857,79.1556,0.065744
117.889,79.1490,0.065744
117.919,79.1431,0.065744
117.949,79.1370,0.065744
117.980,79.1308,0.065744
118.011,79.1247,0.065744
118.043,79.1181,0.065640
118.074,79.1121,0.065640
118.105,79.1060,0.065640
118.135,79.0998,0.065640
118.167,79.0936,0.065640
118.198,79.0873,0.065640
118.229,79.0812,0.065640
118.259,79.0750,0.065640
118.291,79.0688,0.065574
118.323,79.0623,0.065574
118.354,79.0561,0.065574
118.386,79.0498,0.065574
118.416,79.0437,0.065574
118.447,79.0375,0.065574
118.478,79.0312,0.065574
118.508,79.0253,0.065574
118.539,79.0189,0.065546
118.571,79.0127,0.065546
118.603,79.0064,0.065546
118.634,79.0000,0.065546
118.666,78.9936,0.065546
118.696,78.9878,0.065546
118.727,78.9816,0.065546
118.757,78.9755,0.065546
118.788,78.9693,0.065546
118.820,78.9630,0.065490
118.850,78.9568,0.065490
118.881,78.9507,0.065490
118.912,78.9446,0.065490
118.943,78.9382,0.065490
118.974,78.9320,0.065490
119.005,78.9258,0.065490
119.036,78.9196,0.065490
119.067,78.9135,0.065414
119.098,78.9073,0.065414
119.130,78.9010,0.065414
119.160,78.8948,0.065414
119.191,78.8885,0.065414
119.223,78.8824,0.065414
119.253,78.8764,0.065414
119.284,78.8700,0.065414
119.314,78.8640,0.065367
119.345,78.8578,0.065367
119.377,78.8516,0.065367
119.407,78.8454,0.065367
119.438,78.8393,0.065367
119.469,78.8331,0.065367
119.500,78.8271,0.065367
119.532,78.8204,0.065367
119.562,78.8145,0.065320
119.594,78.8081,0.065320
119.625,78.8019,0.065320
119.657,78.7956,0.065320
119.687,78.7896,0.065320
119.718,78.7833,0.065320
119.750,78.7768,0.065320
119.781,78.7709,0.065320
119.812,78.7646,0.065226
119.844,78.7582,0.065226
119.874,78.7522,0.065226
119.905,78.7461,0.065226
119.935,78.7399,0.065226
119.966,78.7337,0.065226
119.999,78.7272,0.065226
120.028,78.7213,0.065141
120.059,78.7151,0.065141
120.090,78.7089,0.065141
120.121,78.7027,0.065141
120.152,78.6963,0.065141
120.183,78.6903,0.065141
120.213,78.6842,0.065141
120.245,78.6780,0.065141
120.275,78.6719,0.065056
120.306,78.6655,0.065056
120.338,78.6594,0.065056
120.369,78.6529,0.065056
120.400,78.6469,0.065056
120.430,78.6407,0.065056
120.462,78.6346,0.065056
120.493,78.6283,0.065056
120.523,78.6223,0.064990
120.556,78.6157,0.064990
120.586,78.6097,0.064990
120.618,78.6032,0.064990
120.649,78.5971,0.064990
120.681,78.5908,0.064990
120.712,78.5846,0.064990
120.743,78.5783,0.064990
120.774,78.5721,0.064990
120.804,78.5660,0.064915
120.836,78.5598,0.064915
120.867,78.5536,0.064915
120.898,78.5473,0.064915
120.929,78.5412,0.064915
120.960,78.5349,0.064915
120.990,78.5289,0.064915
121.021,78.5227,0.064915
121.052,78.5165,0.064821
121.083,78.5102,0.064821
121.114,78.5041,0.064821
121.145,78.4978,0.064821
121.177,78.4915,0.064821
121.209,78.4851,0.064821
121.240,78.4791,0.064821
121.271,78.4729,0.064821
121.301,78.4668,0.064811
121.332,78.4605,0.064811
121.363,78.4544,0.064811
121.394,78.4480,0.064811
121.425,78.4420,0.064811
121.456,78.4356,0.064811
121.487,78.4294,0.064811
121.518,78.4234,0.064811
121.549,78.4172,0.064745
121.581,78.4108,0.064745
121.610,78.4049,0.064745
121.642,78.3984,0.064745
121.674,78.3922,0.064745
121.706,78.3858,0.064745
121.736,78.3797,0.064745
121.767,78.3734,0.064745
121.798,78.3672,0.064717
121.829,78.3612,0.064717
121.860,78.3549,0.064717
121.892,78.3486,0.064717
121.923,78.3424,0.064717
121.954,78.3361,0.064717
121.984,78.3301,0.064717
122.015,78.3239,0.064717
122.045,78.3179,0.064604
122.076,78.3116,0.064604
122.108,78.3054,0.064604
122.138,78.2993,0.064604
122.169,78.2931,0.064604
122.200,78.2869,0.064604
122.231,78.2809,0.064604
122.263,78.2744,0.064604
122.294,78.2680,0.064472
122.325,78.2619,0.064472
122.356,78.2557,0.064472
122.387,78.2495,0.064472
122.418,78.2434,0.064472
122.449,78.2371,0.064472
122.480,78.2309,0.064472
122.511,78.2247,0.064472
122.543,78.2184,0.064434
122.573,78.2122,0.064434
122.604,78.2061,0.064434
122.634,78.1999,0.064434
122.666,78.1938,0.064434
122.697,78.1875,0.064434
122.728,78.1812,0.064434
122.759,78.1749,0.064434
122.792,78.1686,0.064434
122.822,78.1623,0.064378
122.854,78.1560,0.064378
122.885,78.1500,0.064378
122.917,78.1434,0.064378
122.947,78.1376,0.064378
122.979,78.1310,0.064378
123.010,78.1251,0.064378
123.041,78.1188,0.064378
123.071,78.1128,0.064378
123.102,78.1066,0.064321
123.133,78.1004,0.064321
123.163,78.0943,0.064321
123.194,78.0883,0.064321
123.225,78.0818,0.064321
123.256,78.0759,0.064321
123.286,78.0697,0.064321
123.318,78.0633,0.064208
123.350,78.0569,0.064208
123.380,78.0508,0.064208
123.412,78.0446,0.064208
123.443,78.0384,0.064208
123.474,78.0321,0.064208
123.505,78.0260,0.064208
123.536,78.0195,0.064208
123.566,78.0137,0.064133
123.597,78.0075,0.064133
123.628,78.0013,0.064133
123.658,77.9951,0.064133
123.689,77.9892,0.064133
123.720,77.9830,0.064133
123.750,77.9770,0.064133
123.782,77.9706,0.064133
123.812,77.9645,0.064095
123.844,77.9580,0.064095
123.875,77.9521,0.064095
123.906,77.9459,0.064095
123.936,77.9396,0.064095
123.967,77.9335,0.064095
123.999,77.9273,0.064095
124.030,77.9208,0.064095
124.061,77.9147,0.064001
124.093,77.9083,0.064001
124.124,77.9022,0.064001
124.156,77.8958,0.064001
124.186,77.8897,0.064001
124.217,77.8835,0.064001
124.248,77.8774,0.064001
124.278,77.8712,0.064001
124.309,77.8651,0.063926
124.341,77.8587,0.063926
124.371,77.8527,0.063926
124.403,77.8462,0.063926
124.434,77.8401,0.063926
124.467,77.8335,0.063926
124.497,77.8274,0.063926
124.529,77.8211,0.063926
124.560,77.8149,0.063850
124.591,77.8086,0.063850
124.622,77.8025,0.063850
124.653,77.7962,0.063850
124.685,77.7901,0.063850
124.716,77.7837,0.063850
124.747,77.7776,0.063850
124.778,77.7713,0.063728
124.809,77.7651,0.063728
124.841,77.7587,0.063728
124.871,77.7528,0.063728
124.901,77.7467,0.063728
124.932,77.7405,0.063728
124.964,77.7340,0.063728
124.996,77.7278,0.063728
125.025,77.7219,0.063681
125.056,77.7157,0.063681
125.087,77.7095,0.063681
125.119,77.7033,0.063681
125.150,77.6970,0.063681
125.182,77.6906,0.063681
125.213,77.6843,0.063681
125.244,77.6782,0.063681
125.275,77.6719,0.063671
125.308,77.6655,0.063671
125.337,77.6595,0.063671
125.367,77.6533,0.063671
125.398,77.6475,0.063671
125.428,77.6413,0.063671
125.460,77.6351,0.063671
125.491,77.6286,0.063671
125.523,77.6224,0.063671
125.553,77.6162,0.063605
125.585,77.6100,0.063605
125.616,77.6037,0.063605
125.647,77.5974,0.063605
125.679,77.5910,0.063605
125.710,77.5848,0.063605
125.741,77.5786,0.063605
125.771,77.5727,0.063492
125.802,77.5665,0.063492
125.833,77.5602,0.063492
125.865,77.5540,0.063492
125.895,77.5478,0.063492
125.926,77.5417,0.063492
125.957,77.5355,0.063492
125.988,77.5294,0.063492
126.019,77.5231,0.063492
126.050,77.5169,0.063483
126.080,77.5108,0.063483
126.112,77.5046,0.063483
126.143,77.4985,0.063483
126.173,77.4924,0.063483
126.203,77.4864,0.063483
126.234,77.4800,0.063483
126.266,77.4737,0.063454
126.298,77.4675,0.063454
126.328,77.4613,0.063454
126.359,77.4551,0.063454
126.390,77.4489,0.063454
126.421,77.4427,0.063454
126.453,77.4364,0.063454
126.484,77.4301,0.063454
126.514,77.4241,0.063370
126.546,77.4178,0.063370
126.577,77.4116,0.063370
126.608,77.4054,0.063370
126.639,77.3992,0.063370
126.670,77.3929,0.063370
126.701,77.3868,0.063370
126.732,77.3806,0.063370
126.762,77.3745,0.063370
126.794,77.3682,0.063323
126.824,77.3621,0.063323
126.855,77.3560,0.063323
126.885,77.3498,0.063323
126.916,77.3439,0.063323
126.947,77.3377,0.063323
126.978,77.3315,0.063323
127.008,77.3254,0.063323
127.039,77.3192,0.063285
127.070,77.3132,0.063285
127.100,77.3078,0.063285
127.131,77.3032,0.063285
127.163,77.2991,0.063285
127.193,77.2960,0.063285
127.223,77.2935,0.063285
127.254,77.2918,0.063285
127.286,77.2907,0.063285
127.317,77.2903,0.063153
127.348,77.2903,0.063153
127.379,77.2903,0.063153
127.411,77.2903,0.063153
127.442,77.2903,0.063153
127.474,77.2903,0.063153
127.505,77.2903,0.063153
127.535,77.2903,0.063153
127.567,77.2903,0.063078
127.598,77.2903,0.063078
127.629,77.2903,0.063078
127.661,77.2903,0.063078
127.692,77.2903,0.063078
127.723,77.2903,0.063078
127.753,77.2903,0.063078
127.784,77.2903,0.063078
127.814,77.2903,0.063115
127.845,77.2903,0.063115
127.877,77.2903,0.063115
127.907,77.2907,0.063115
127.939,77.2918,0.063115
127.970,77.2936,0.063115
128.001,77.2961,0.063115
128.032,77.2995,0.063040
128.063,77.3034,0.063040
128.094,77.3081,0.063040
128.126,77.3139,0.063040
128.156,77.3198,0.063040
128.187,77.3259,0.063040
128.218,77.3321,0.063040
128.249,77.3384,0.063040
128.280,77.3446,0.062955
128.311,77.3508,0.062955
128.343,77.3570,0.062955
128.373,77.3632,0.062955
128.405,77.3697,0.062955
128.437,77.3759,0.062955
128.469,77.3822,0.062955
128.501,77.3886,0.062955
128.533,77.3950,0.062936
128.563,77.4010,0.062936
128.593,77.4072,0.062936
128.624,77.4133,0.062936
128.655,77.4195,0.062936
128.686,77.4257,0.062936
128.718,77.4320,0.062936
128.749,77.4385,0.062936
128.780,77.4446,0.062908
128.812,77.4510,0.062908
128.843,77.4571,0.062908
128.874,77.4634,0.062908
128.905,77.4696,0.062908
128.936,77.4758,0.062908
128.967,77.4819,0.062908
128.999,77.4885,0.062908
129.029,77.4944,0.062927
129.060,77.5006,0.062927
129.092,77.5070,0.062927
129.124,77.5133,0.062927
129.151,77.5186,0.062927
129.185,77.5256,0.062927
129.216,77.5318,0.062927
129.248,77.5381,0.062927
129.278,77.5443,0.062899
129.308,77.5501,0.062899
129.339,77.5563,0.062899
129.370,77.5626,0.062899
129.400,77.5686,0.062899
129.431,77.5747,0.062899
129.462,77.5809,0.062899
129.493,77.5871,0.062899
129.524,77.5933,0.062899
129.556,77.5997,0.062899
129.587,77.6061,0.062899
129.618,77.6121,0.062899
129.649,77.6183,0.062899
129.680,77.6245,0.062899
129.711,77.6307,0.062899
129.743,77.6371,0.062899
129.776,77.6438,0.062899
129.806,77.6497,0.062899
129.837,77.6558,0.062851
129.867,77.6620,0.062851
129.899,77.6683,0.062851
129.930,77.6745,0.062851
129.961,77.6806,0.062851
129.991,77.6869,0.062851
130.023,77.6932,0.062851
130.054,77.6994,0.062767
130.086,77.7056,0.062767
130.116,77.7117,0.062767
130.147,77.7180,0.062767
130.178,77.7241,0.062767
130.209,77.7304,0.062767
130.240,77.7365,0.062767
130.271,77.7429,0.062767
130.302,77.7489,0.062804
130.333,77.7553,0.062804
130.364,77.7612,0.062804
130.395,77.7677,0.062804
130.426,77.7736,0.062804
130.457,77.7799,0.062804
130.488,77.7861,0.062804
130.519,77.7923,0.062804
130.550,77.7987,0.062823
130.581,77.8050,0.062823
130.612,77.8109,0.062823
130.644,77.8174,0.062823
130.674,77.8233,0.062823
130.705,77.8298,0.062823
130.736,77.8357,0.062823
130.767,77.8421,0.062823
130.797,77.8479,0.062786
130.828,77.8541,0.062786
130.858,77.8602,0.062786
130.890,77.8665,0.062786
130.921,77.8727,0.062786
130.952,77.8789,0.062786
130.984,77.8852,0.062786
131.015,77.8916,0.062786
131.047,77.8979,0.062776
131.078,77.9042,0.062776
131.109,77.9102,0.062776
131.140,77.9165,0.062776
131.171,77.9227,0.062776
131.202,77.9289,0.062776
131.232,77.9350,0.062776
131.264,77.9413,0.062776
131.294,77.9472,0.062767
131.325,77.9534,0.062767
131.356,77.9598,0.062767
131.389,77.9662,0.062767
131.418,77.9720,0.062767
131.449,77.9784,0.062767
131.480,77.9844,0.062767
131.511,77.9908,0.062767
131.542,77.9969,0.062748
131.573,78.0032,0.062748
131.604,78.0094,0.062748
131.635,78.0157,0.062748
131.665,78.0215,0.062748
131.697,78.0279,0.062748
131.728,78.0342,0.062748
131.760,78.0404,0.062748
131.791,78.0468,0.062738
131.821,78.0527,0.062738
131.852,78.0587,0.062738
131.883,78.0651,0.062738
131.914,78.0713,0.062738
131.945,78.0775,0.062738
131.976,78.0837,0.062738
132.008,78.0901,0.062738
132.038,78.0959,0.062748
132.069,78.1023,0.062748
132.099,78.1083,0.062748
132.130,78.1145,0.062748
132.161,78.1205,0.062748
132.192,78.1268,0.062748
132.222,78.1329,0.062748
132.252,78.1391,0.062748
132.285,78.1453,0.062748
132.316,78.1516,0.062748
132.348,78.1581,0.062748
132.378,78.1642,0.062748
132.409,78.1702,0.062748
132.440,78.1764,0.062748
132.471,78.1826,0.062748
132.502,78.1888,0.062748
132.533,78.1950,0.062710
132.564,78.2014,0.062710
132.595,78.2074,0.062710
132.627,78.2139,0.062710
132.656,78.2197,0.062710
132.687,78.2259,0.062710
132.719,78.2321,0.062710
132.749,78.2383,0.062710
132.781,78.2447,0.062720
132.813,78.2510,0.062720
132.844,78.2572,0.062720
132.875,78.2635,0.062720
132.906,78.2697,0.062720
132.938,78.2762,0.062720
132.969,78.2824,0.062720
133.000,78.2884,0.062720
133.030,78.2945,0.062757
133.060,78.3006,0.062757
133.091,78.3069,0.062757
133.122,78.3131,0.062757
133.153,78.3193,0.062757
133.185,78.3255,0.062757
133.216,78.3317,0.062757
133.247,78.3379,0.062757
133.279,78.3444,0.062767
133.311,78.3507,0.062767
133.342,78.3570,0.062767
133.373,78.3631,0.062767
133.404,78.3693,0.062767
133.436,78.3757,0.062767
133.467,78.3818,0.062767
133.498,78.3881,0.062767
133.529,78.3942,0.062776
133.560,78.4005,0.062776
133.590,78.4065,0.062776
133.621,78.4128,0.062776
133.652,78.4190,0.062776
133.683,78.4251,0.062776
133.714,78.4314,0.062776
133.746,78.4376,0.062776
133.776,78.4438,0.062720
133.808,78.4500,0.062720
133.839,78.4564,0.062720
133.870,78.4624,0.062720
133.901,78.4689,0.062720
133.933,78.4751,0.062720
133.964,78.4812,0.062720
133.994,78.4874,0.062720
134.025,78.4936,0.062729
134.056,78.4998,0.062729
134.086,78.5057,0.062729
134.117,78.5119,0.062729
134.148,78.5181,0.062729
134.179,78.5243,0.062729
134.210,78.5305,0.062729
134.241,78.5367,0.062729
134.272,78.5429,0.062729
134.304,78.5493,0.062720
134.335,78.5553,0.062720
134.365,78.5615,0.062720
134.397,78.5677,0.062720
134.429,78.5742,0.062720
134.459,78.5804,0.062720
134.490,78.5865,0.062720
134.521,78.5925,0.062720
134.552,78.5990,0.062691
134.584,78.6053,0.062691
134.615,78.6115,0.062691
134.646,78.6177,0.062691
134.677,78.6239,0.062691
134.708,78.6300,0.062691
134.740,78.6364,0.062691
134.771,78.6428,0.062691
134.801,78.6487,0.062691
134.832,78.6549,0.062682
134.863,78.6610,0.062682
134.894,78.6673,0.062682
134.925,78.6734,0.062682
134.956,78.6797,0.062682
134.987,78.6859,0.062682
135.020,78.6924,0.062682
135.049,78.6982,0.062663
135.080,78.7045,0.062663
135.110,78.7105,0.062663
135.142,78.7168,0.062663
135.172,78.7230,0.062663
135.204,78.7292,0.062663
135.235,78.7357,0.062663
135.267,78.7419,0.062663
135.297,78.7479,0.062672
135.329,78.7544,0.062672
135.359,78.7603,0.062672
135.391,78.7668,0.062672
135.423,78.7730,0.062672
135.454,78.7793,0.062672
135.485,78.7854,0.062672
135.516,78.7917,0.062672
135.546,78.7977,0.062663
135.580,78.8044,0.062663
135.609,78.8103,0.062663
135.640,78.8165,0.062663
135.670,78.8225,0.062663
135.700,78.8286,0.062663
135.733,78.8350,0.062663
135.763,78.8411,0.062663
135.794,78.8474,0.062701
135.824,78.8534,0.062701
135.855,78.8594,0.062701
135.886,78.8658,0.062701
135.917,78.8718,0.062701
135.948,78.8782,0.062701
135.979,78.8844,0.062701
136.010,78.8906,0.062701
136.042,78.8969,0.062729
136.073,78.9030,0.062729
136.105,78.9095,0.062729
136.136,78.9156,0.062729
136.168,78.9221,0.062729
136.199,78.9283,0.062729
136.231,78.9348,0.062729
136.262,78.9408,0.062729
136.293,78.9472,0.062738
136.325,78.9534,0.062738
136.357,78.9598,0.062738
136.387,78.9661,0.062738
136.418,78.9723,0.062738
136.449,78.9782,0.062738
136.480,78.9845,0.062738
136.511,78.9907,0.062738
136.541,78.9967,0.062738
136.573,79.0031,0.062786
136.603,79.0090,0.062786
136.635,79.0156,0.062786
136.665,79.0214,0.062786
136.696,79.0279,0.062786
136.728,79.0341,0.062786
136.759,79.0403,0.062786
136.790,79.0466,0.062795
136.821,79.0527,0.062795
136.852,79.0589,0.062795
136.884,79.0652,0.062795
136.914,79.0713,0.062795
136.945,79.0775,0.062795
136.977,79.0838,0.062795
137.008,79.0900,0.062795
137.038,79.0961,0.062710
137.069,79.1023,0.062710
137.100,79.1085,0.062710
137.131,79.1147,0.062710
137.162,79.1209,0.062710
137.193,79.1270,0.062710
137.225,79.1334,0.062710
137.256,79.1397,0.062710
137.287,79.1461,0.062710
137.318,79.1521,0.062720
137.349,79.1583,0.062720
137.380,79.1645,0.062720
137.411,79.1707,0.062720
137.442,79.1769,0.062720
137.473,79.1831,0.062720
137.504,79.1893,0.062720
137.535,79.1953,0.062767
137.565,79.2014,0.062767
137.596,79.2076,0.062767
137.627,79.2140,0.062767
137.658,79.2200,0.062767
137.689,79.2263,0.062767
137.720,79.2324,0.062767
137.751,79.2386,0.062767
137.782,79.2448,0.062786
137.814,79.2512,0.062786
137.844,79.2573,0.062786
137.876,79.2636,0.062786
137.906,79.2696,0.062786
137.937,79.2760,0.062786
137.968,79.2820,0.062786
137.999,79.2884,0.062786
138.030,79.2944,0.062823
138.061,79.3008,0.062823
138.092,79.3068,0.062823
138.123,79.3131,0.062823
138.154,79.3192,0.062823
138.185,79.3256,0.062823
138.216,79.3317,0.062823
138.248,79.3379,0.062823
138.277,79.3439,0.062814
138.308,79.3501,0.062814
138.339,79.3563,0.062814
138.371,79.3627,0.062814
138.401,79.3687,0.062814
138.433,79.3751,0.062814
138.463,79.3811,0.062814
138.494,79.3873,0.062814
138.524,79.3934,0.062880
138.556,79.3997,0.062880
138.586,79.4056,0.062880
138.616,79.4117,0.062880
138.648,79.4180,0.062880
138.679,79.4244,0.062880
138.710,79.4303,0.062880
138.741,79.4368,0.062880
138.771,79.4428,0.062880
138.802,79.4489,0.062870
138.833,79.4551,0.062870
138.864,79.4613,0.062870
138.896,79.4675,0.062870
138.927,79.4737,0.062870
138.957,79.4799,0.062870
138.989,79.4862,0.062870
139.020,79.4925,0.062870
139.050,79.4984,0.062870
139.080,79.5045,0.062870
139.111,79.5107,0.062870
139.142,79.5168,0.062870
139.173,79.5231,0.062870
139.205,79.5294,0.062870
139.236,79.5356,0.062870
139.268,79.5421,0.062870
139.298,79.5481,0.062955
139.329,79.5543,0.062955
139.361,79.5605,0.062955
139.391,79.5667,0.062955
139.422,79.5729,0.062955
139.453,79.5790,0.062955
139.484,79.5851,0.062955
139.515,79.5914,0.062955
139.546,79.5975,0.063021
139.577,79.6039,0.063021
139.608,79.6100,0.063021
139.639,79.6162,0.063021
139.670,79.6224,0.063021
139.700,79.6285,0.063021
139.732,79.6348,0.063021
139.763,79.6410,0.063021
139.794,79.6471,0.063087
139.824,79.6533,0.063087
139.855,79.6596,0.063087
139.887,79.6660,0.063087
139.919,79.6722,0.063087
139.950,79.6785,0.063087
139.981,79.6847,0.063087
140.012,79.6909,0.063087
140.042,79.6968,0.063106
140.074,79.7032,0.063106
140.104,79.7092,0.063106
140.136,79.7157,0.063106
140.167,79.7218,0.063106
140.198,79.7282,0.063106
140.229,79.7342,0.063106
140.259,79.7405,0.063106
140.290,79.7463,0.063115
140.321,79.7529,0.063115
140.352,79.7587,0.063115
140.383,79.7652,0.063115
140.414,79.7711,0.063115
140.446,79.7776,0.063115
140.476,79.7835,0.063115
140.507,79.7899,0.063115
140.538,79.7962,0.063125
140.569,79.8023,0.063125
140.599,79.8083,0.063125
140.630,79.8145,0.063125
140.661,79.8206,0.063125
140.691,79.8267,0.063125
140.722,79.8328,0.063125
140.753,79.8390,0.063125
140.784,79.8453,0.063162
140.815,79.8516,0.063162
140.846,79.8577,0.063162
140.877,79.8639,0.063162
140.909,79.8702,0.063162
140.940,79.8766,0.063162
140.971,79.8826,0.063162
141.002,79.8890,0.063162
141.032,79.8948,0.063210
141.063,79.9011,0.063210
141.094,79.9071,0.063210
141.124,79.9133,0.063210
141.155,79.9193,0.063210
141.187,79.9257,0.063210
141.218,79.9320,0.063210
141.249,79.9382,0.063210
141.280,79.9444,0.063257
141.311,79.9507,0.063257
141.342,79.9568,0.063257
141.373,79.9630,0.063257
141.403,79.9691,0.063257
141.434,79.9753,0.063257
141.465,79.9814,0.063257
141.495,79.9874,0.063257
141.527,79.9938,0.063285
141.557,80.0001,0.063285
141.589,80.0062,0.063285
141.620,80.0126,0.063285
141.651,80.0186,0.063285
141.682,80.0248,0.063285
141.713,80.0310,0.063285
141.744,80.0373,0.063285
141.775,80.0435,0.063379
141.806,80.0497,0.063379
141.837,80.0558,0.063379
141.868,80.0620,0.063379
141.898,80.0682,0.063379
141.929,80.0744,0.063379
141.961,80.0806,0.063379
141.991,80.0866,0.063379
142.022,80.0928,0.063483
142.053,80.0990,0.063483
142.085,80.1054,0.063483
142.115,80.1115,0.063483
142.146,80.1177,0.063483
142.177,80.1237,0.063483
142.208,80.1299,0.063483
142.239,80.1363,0.063483
142.269,80.1425,0.063483
142.301,80.1487,0.063502
142.332,80.1550,0.063502
142.363,80.1609,0.063502
142.394,80.1674,0.063502
142.425,80.1735,0.063502
142.457,80.1800,0.063502
142.488,80.1859,0.063502
142.520,80.1924,0.063502
142.551,80.1986,0.063539
142.582,80.2050,0.063539
142.613,80.2110,0.063539
142.645,80.2176,0.063539
142.676,80.2236,0.063539
142.707,80.2300,0.063539
142.738,80.2360,0.063539
142.768,80.2420,0.063539
142.799,80.2481,0.063596
142.829,80.2543,0.063596
142.860,80.2607,0.063596
142.891,80.2667,0.063596
142.922,80.2722,0.063596
142.954,80.2770,0.063596
142.984,80.2810,0.063596
143.016,80.2843,0.063596
143.047,80.2869,0.063756
143.078,80.2888,0.063756
143.110,80.2899,0.063756
143.141,80.2903,0.063756
143.171,80.2903,0.063756
143.202,80.2903,0.063756
143.234,80.2903,0.063756
143.266,80.2903,0.063982
143.295,80.2903,0.063982
143.326,80.2903,0.063982
143.358,80.2903,0.063982
143.388,80.2903,0.063982
143.419,80.2903,0.063982
143.449,80.2903,0.063982
143.480,80.2903,0.063982
143.512,80.2903,0.063982
143.543,80.2903,0.064086
143.575,80.2903,0.064086
143.605,80.2903,0.064086
143.636,80.2903,0.064086
143.669,80.2903,0.064086
143.699,80.2903,0.064086
143.730,80.2903,0.064086
143.761,80.2903,0.064086
143.793,80.2903,0.064086
143.823,80.2903,0.064152
143.854,80.2903,0.064152
143.885,80.2903,0.064152
143.916,80.2903,0.064152
143.947,80.2903,0.064152
143.978,80.2903,0.064152
144.010,80.2903,0.064152
144.041,80.2903,0.064152
144.072,80.2903,0.064236
144.103,80.2903,0.064236
144.135,80.2903,0.064236
144.166,80.2903,0.064236
144.196,80.2903,0.064236
144.227,80.2903,0.064236
144.260,80.2903,0.064236
144.290,80.2903,0.064293
144.320,80.2903,0.064293
144.351,80.2903,0.064293
144.383,80.2903,0.064293
144.414,80.2903,0.064293
144.445,80.2903,0.064293
144.476,80.2903,0.064293
144.507,80.2903,0.064293
144.539,80.2903,0.064387
144.569,80.2903,0.064387
144.601,80.2903,0.064387
144.631,80.2903,0.064387
144.662,80.2903,0.064387
144.693,80.2903,0.064387
144.724,80.2903,0.064387
144.756,80.2903,0.064387
144.786,80.2903,0.064500
144.817,80.2903,0.064500
144.848,80.2903,0.064500
144.880,80.2903,0.064500
144.911,80.2903,0.064500
144.941,80.2903,0.064500
144.972,80.2903,0.064500
145.003,80.2903,0.064500
145.034,80.2903,0.064538
145.064,80.2903,0.064538
145.094,80.2903,0.064538
145.125,80.2903,0.064538
145.156,80.2903,0.064538
145.187,80.2903,0.064538
145.218,80.2903,0.064538
145.249,80.2903,0.064538
145.279,80.2903,0.064585
145.310,80.2903,0.064585
145.342,80.2903,0.064585
145.373,80.2903,0.064585
145.403,80.2903,0.064585
145.435,80.2903,0.064585
145.465,80.2903,0.064585
145.496,80.2903,0.064585
145.527,80.2903,0.064585
145.559,80.2903,0.064708
145.589,80.2903,0.064708
145.620,80.2903,0.064708
145.650,80.2903,0.064708
145.681,80.2903,0.064708
145.712,80.2903,0.064708
145.743,80.2903,0.064708
145.774,80.2903,0.064821
145.805,80.2903,0.064821
145.836,80.2903,0.064821
145.866,80.2903,0.064821
145.897,80.2903,0.064821
145.929,80.2903,0.064821
145.960,80.2903,0.064821
145.991,80.2903,0.064821
146.022,80.2903,0.064821
146.053,80.2903,0.064821
146.084,80.2903,0.064830
146.115,80.2903,0.064830
146.146,80.2903,0.064830
146.177,80.2903,0.064830
146.207,80.2903,0.064830
146.239,80.2903,0.064830
146.270,80.2903,0.064830
146.301,80.2903,0.064839
146.331,80.2903,0.064839
146.362,80.2903,0.064839
146.393,80.2903,0.064839
146.424,80.2903,0.064839
146.455,80.2903,0.064839
146.485,80.2903,0.064839
146.518,80.2903,0.064839
146.547,80.2903,0.064924
146.577,80.2903,0.064924
146.608,80.2903,0.064924
146.641,80.2903,0.064924
146.671,80.2903,0.064924
146.702,80.2903,0.064924
146.732,80.2903,0.064924
146.764,80.2903,0.064924
146.795,80.2903,0.064953
146.826,80.2903,0.064953
146.857,80.2903,0.064953
146.889,80.2903,0.064953
146.920,80.2903,0.064953
146.950,80.2903,0.064953
146.981,80.2903,0.064953
147.011,80.2903,0.064953
147.042,80.2903,0.065000
147.073,80.2903,0.065000
147.103,80.2903,0.065000
147.135,80.2903,0.065000
147.165,80.2903,0.065000
147.195,80.2903,0.065000
147.226,80.2903,0.065000
147.257,80.2903,0.065000
147.288,80.2903,0.065000
147.319,80.2903,0.065056
147.350,80.2903,0.065056
147.380,80.2903,0.065056
147.412,80.2903,0.065056
147.443,80.2903,0.065056
147.474,80.2903,0.065056
147.506,80.2903,0.065056
147.538,80.2903,0.065056
147.570,80.2903,0.065113
147.600,80.2903,0.065113
147.631,80.2903,0.065113
147.662,80.2903,0.065113
147.693,80.2903,0.065113
147.724,80.2903,0.065113
147.755,80.2903,0.065113
147.787,80.2903,0.065113
147.817,80.2903,0.065188
147.848,80.2899,0.065188
147.879,80.2888,0.065188
147.910,80.2869,0.065188
147.942,80.2843,0.065188
147.974,80.2809,0.065188
148.004,80.2769,0.065188
148.035,80.2721,0.065188
148.066,80.2666,0.065311
148.098,80.2602,0.065311
148.129,80.2542,0.065311
148.160,80.2480,0.065311
148.190,80.2419,0.065311
148.220,80.2358,0.065311
148.251,80.2296,0.065311
148.283,80.2233,0.065311
148.314,80.2172,0.065471
148.345,80.2107,0.065471
148.376,80.2046,0.065471
148.408,80.1981,0.065471
148.438,80.1923,0.065471
148.469,80.1860,0.065471
148.500,80.1799,0.065471
148.530,80.1738,0.065471
148.561,80.1676,0.065565
148.593,80.1611,0.065565
148.624,80.1551,0.065565
148.655,80.1487,0.065565
148.687,80.1426,0.065565
148.719,80.1361,0.065565
148.749,80.1301,0.065565
148.780,80.1239,0.065565
148.812,80.1175,0.065631
148.844,80.1112,0.065631
148.874,80.1049,0.065631
148.905,80.0989,0.065631
148.936,80.0926,0.065631
148.968,80.0863,0.065631
148.999,80.0801,0.065631
149.030,80.0740,0.065631
149.060,80.0678,0.065697
149.091,80.0616,0.065697
149.122,80.0554,0.065697
149.153,80.0493,0.065697
149.184,80.0432,0.065697
149.216,80.0367,0.065697
149.245,80.0308,0.065697
149.276,80.0246,0.065744
149.307,80.0184,0.065744
149.338,80.0122,0.065744
149.370,80.0059,0.065744
149.401,79.9998,0.065744
149.433,79.9931,0.065744
149.464,79.9872,0.065744
149.495,79.9809,0.065744
149.525,79.9749,0.065791
149.556,79.9686,0.065791
149.587,79.9626,0.065791
149.618,79.9562,0.065791
149.649,79.9501,0.065791
149.679,79.9441,0.065791
149.710,79.9379,0.065791
149.741,79.9316,0.065791
149.771,79.9257,0.065772
149.801,79.9195,0.065772
149.832,79.9134,0.065772
149.863,79.9072,0.065772
149.894,79.9010,0.065772
149.925,79.8949,0.065772
149.956,79.8886,0.065772
149.987,79.8825,0.065772
150.018,79.8762,0.065772
150.049,79.8702,0.065772
150.080,79.8638,0.065772
150.111,79.8577,0.065772
150.143,79.8514,0.065772
150.173,79.8453,0.065772
150.205,79.8388,0.065772
150.235,79.8328,0.065772
150.266,79.8268,0.065772
150.297,79.8206,0.065810
150.328,79.8143,0.065810
150.359,79.8081,0.065810
150.390,79.8018,0.065810
150.421,79.7958,0.065810
150.452,79.7895,0.065810
150.482,79.7833,0.065810
150.513,79.7772,0.065810
150.544,79.7711,0.065838
150.575,79.7648,0.065838
150.606,79.7587,0.065838
150.638,79.7523,0.065838
150.669,79.7461,0.065838
150.702,79.7394,0.065838
150.732,79.7336,0.065838
150.763,79.7272,0.065838
150.794,79.7211,0.065866
150.825,79.7148,0.065866
150.856,79.7087,0.065866
150.888,79.7023,0.065866
150.920,79.6958,0.065866
150.952,79.6896,0.065866
150.982,79.6837,0.065866
151.013,79.6774,0.065866
151.043,79.6713,0.065819
151.075,79.6648,0.065819
151.106,79.6588,0.065819
151.137,79.6526,0.065819
151.167,79.6465,0.065819
151.198,79.6404,0.065819
151.230,79.6341,0.065819
151.261,79.6276,0.065819
151.291,79.6217,0.065782
151.323,79.6154,0.065782
151.354,79.6092,0.065782
151.385,79.6028,0.065782
151.416,79.5968,0.065782
151.447,79.5904,0.065782
151.478,79.5842,0.065782
151.508,79.5783,0.065782
151.539,79.5721,0.065782
151.570,79.5659,0.065772
151.601,79.5597,0.065772
151.632,79.5536,0.065772
151.663,79.5474,0.065772
151.694,79.5411,0.065772
151.724,79.5351,0.065772
151.755,79.5288,0.065772
151.787,79.5226,0.065744
151.818,79.5161,0.065744
151.850,79.5099,0.065744
151.881,79.5037,0.065744
151.913,79.4974,0.065744
151.945,79.4908,0.065744
151.976,79.4848,0.065744
152.007,79.4786,0.065744
152.039,79.4722,0.065791
152.069,79.4660,0.065791
152.100,79.4600,0.065791
152.132,79.4536,0.065791
152.162,79.4474,0.065791
152.193,79.4414,0.065791
152.224,79.4350,0.065791
152.254,79.4291,0.065791
152.286,79.4226,0.065744
152.318,79.4163,0.065744
152.349,79.4100,0.065744
152.380,79.4039,0.065744
152.410,79.3977,0.065744
152.442,79.3914,0.065744
152.472,79.3853,0.065744
152.503,79.3792,0.065744
152.534,79.3731,0.065678
152.565,79.3668,0.065678
152.597,79.3606,0.065678
152.628,79.3544,0.065678
152.659,79.3481,0.065678
152.691,79.3416,0.065678
152.721,79.3357,0.065678
152.753,79.3292,0.065678
152.784,79.3232,0.065678
152.816,79.3167,0.065678
152.847,79.3106,0.065678
152.878,79.3043,0.065678
152.909,79.2981,0.065678
152.940,79.2919,0.065678
152.970,79.2858,0.065678
153.002,79.2795,0.065678
153.033,79.2734,0.065640
153.064,79.2671,0.065640
153.095,79.2609,0.065640
153.126,79.2546,0.065640
153.157,79.2486,0.065640
153.188,79.2422,0.065640
153.219,79.2361,0.065640
153.250,79.2300,0.065640
153.281,79.2238,0.065593
153.312,79.2175,0.065593
153.342,79.2115,0.065593
153.374,79.2051,0.065593
153.404,79.1991,0.065593
153.435,79.1929,0.065593
153.466,79.1867,0.065593
153.497,79.1804,0.065593
153.528,79.1745,0.065537
153.559,79.1680,0.065537
153.590,79.1619,0.065537
153.621,79.1556,0.065537
153.652,79.1495,0.065537
153.683,79.1432,0.065537
153.713,79.1372,0.065537
153.744,79.1310,0.065537
153.775,79.1247,0.065471
153.806,79.1185,0.065471
153.838,79.1123,0.065471
153.869,79.1061,0.065471
153.899,79.0999,0.065471
153.930,79.0938,0.065471
153.962,79.0875,0.065471
153.992,79.0814,0.065471
154.024,79.0751,0.065395
154.054,79.0690,0.065395
154.085,79.0630,0.065395
154.116,79.0568,0.065395
154.147,79.0507,0.065395
154.177,79.0444,0.065395
154.208,79.0384,0.065395
154.239,79.0322,0.065395
154.270,79.0259,0.065395
154.302,79.0195,0.065311
154.333,79.0133,0.065311
154.364,79.0070,0.065311
154.396,79.0007,0.065311
154.427,78.9946,0.065311
154.458,78.9883,0.065311
154.489,78.9822,0.065311
154.521,78.9758,0.065311
154.551,78.9698,0.065301
154.583,78.9634,0.065301
154.613,78.9574,0.065301
154.643,78.9511,0.065301
154.675,78.9450,0.065301
154.707,78.9386,0.065301
154.737,78.9326,0.065301
154.768,78.9263,0.065301
154.799,78.9202,0.065254
154.830,78.9140,0.065254
154.860,78.9079,0.065254
154.891,78.9017,0.065254
154.922,78.8955,0.065254
154.955,78.8890,0.065254
154.985,78.8831,0.065254
155.015,78.8769,0.065254
155.046,78.8708,0.065160
155.077,78.8644,0.065160
155.108,78.8584,0.065160
155.139,78.8521,0.065160
155.171,78.8458,0.065160
155.201,78.8396,0.065160
155.232,78.8335,0.065160
155.264,78.8272,0.065160
155.295,78.8211,0.065113
155.326,78.8149,0.065113
155.356,78.8088,0.065113
155.387,78.8025,0.065113
155.418,78.7964,0.065113
155.450,78.7900,0.065113
155.481,78.7839,0.065113
155.511,78.7777,0.065113
155.541,78.7717,0.065066
155.572,78.7655,0.065066
155.602,78.7595,0.065066
155.633,78.7533,0.065066
155.664,78.7472,0.065066
155.696,78.7407,0.065066
155.726,78.7348,0.065066
155.758,78.7282,0.065066
155.789,78.7223,0.064981
155.820,78.7158,0.064981
155.851,78.7096,0.064981
155.883,78.7034,0.064981
155.913,78.6973,0.064981
155.944,78.6911,0.064981
155.975,78.6849,0.064981
156.007,78.6786,0.064981
156.037,78.6727,0.064905
156.067,78.6665,0.064905
156.099,78.6603,0.064905
156.129,78.6539,0.064905
156.161,78.6479,0.064905
156.192,78.6413,0.064905
156.224,78.6352,0.064905
156.254,78.6289,0.064905
156.285,78.6229,0.064858
156.317,78.6165,0.064858
156.348,78.6103,0.064858
156.379,78.6041,0.064858
156.410,78.5977,0.064858
156.442,78.5915,0.064858
156.472,78.5856,0.064858
156.503,78.5791,0.064858
156.534,78.5733,0.064755
156.565,78.5670,0.064755
156.596,78.5608,0.064755
156.627,78.5545,0.064755
156.659,78.5483,0.064755
156.690,78.5418,0.064755
156.721,78.5359,0.064755
156.753,78.5294,0.064755
156.784,78.5232,0.064717
156.815,78.5168,0.064717
156.847,78.5107,0.064717
156.878,78.5042,0.064717
156.910,78.4980,0.064717
156.941,78.4916,0.064717
156.972,78.4856,0.064717
157.003,78.4794,0.064717
157.033,78.4733,0.064670
157.064,78.4671,0.064670
157.095,78.4608,0.064670
157.125,78.4549,0.064670
157.156,78.4487,0.064670
157.186,78.4426,0.064670
157.217,78.4365,0.064670
157.249,78.4301,0.064670
157.279,78.4240,0.064566
157.311,78.4177,0.064566
157.343,78.4113,0.064566
157.375,78.4050,0.064566
157.406,78.3986,0.064566
157.437,78.3924,0.064566
157.468,78.3863,0.064566
157.500,78.3800,0.064566
157.530,78.3740,0.064538
157.561,78.3677,0.064538
157.593,78.3615,0.064538
157.624,78.3552,0.064538
157.655,78.3491,0.064538
157.685,78.3430,0.064538
157.716,78.3369,0.064538
157.746,78.3307,0.064538
157.777,78.3245,0.064538
157.808,78.3184,0.064538
157.840,78.3120,0.064491
157.870,78.3058,0.064491
157.902,78.2996,0.064491
157.933,78.2933,0.064491
157.965,78.2869,0.064491
157.997,78.2805,0.064491
158.028,78.2744,0.064387
158.059,78.2682,0.064387
158.090,78.2619,0.064387
158.122,78.2556,0.064387
158.152,78.2495,0.064387
158.184,78.2430,0.064387
158.215,78.2370,0.064387
158.247,78.2306,0.064387
158.277,78.2243,0.064321
158.308,78.2184,0.064321
158.340,78.2118,0.064321
158.371,78.2057,0.064321
158.402,78.1994,0.064321
158.433,78.1933,0.064321
158.464,78.1871,0.064321
158.494,78.1812,0.064321
158.525,78.1748,0.064321
158.556,78.1687,0.064284
158.586,78.1627,0.064284
158.618,78.1563,0.064284
158.648,78.1504,0.064284
158.679,78.1439,0.064284
158.712,78.1376,0.064284
158.741,78.1318,0.064284
158.772,78.1256,0.064284
158.803,78.1195,0.064284
158.834,78.1131,0.064227
158.865,78.1070,0.064227
158.897,78.1005,0.064227
158.927,78.0946,0.064227
158.958,78.0881,0.064227
158.990,78.0819,0.064227
159.021,78.0757,0.064227
159.052,78.0695,0.064227
159.082,78.0633,0.064142
159.114,78.0570,0.064142
159.147,78.0506,0.064142
159.177,78.0446,0.064142
159.207,78.0385,0.064142
159.238,78.0323,0.064142
159.269,78.0262,0.064142
159.300,78.0199,0.064057
159.331,78.0138,0.064057
159.362,78.0075,0.064057
159.393,78.0013,0.064057
159.424,77.9951,0.064057
159.455,77.9890,0.064057
159.485,77.9827,0.064057
159.516,77.9766,0.064057
159.548,77.9702,0.064001
159.579,77.9641,0.064001
159.611,77.9575,0.064001
159.642,77.9517,0.064001
159.673,77.9454,0.064001
159.704,77.9393,0.064001
159.735,77.9331,0.064001
159.766,77.9268,0.064001
159.797,77.9206,0.063907
159.827,77.9146,0.063907
159.859,77.9083,0.063907
159.890,77.9020,0.063907
159.921,77.8958,0.063907
159.952,77.8896,0.063907
159.984,77.8830,0.063907
160.016,77.8768,0.063907
160.047,77.8706,0.063907
160.079,77.8641,0.063775
160.110,77.8578,0.063775
160.141,77.8517,0.063775
160.173,77.8452,0.063775
160.204,77.8391,0.063775
160.235,77.8329,0.063775
160.268,77.8262,0.063775
160.297,77.8205,0.063699
160.328,77.8143,0.063699
160.359,77.8081,0.063699
160.390,77.8021,0.063699
160.420,77.7959,0.063699
160.451,77.7897,0.063699
160.482,77.7834,0.063699
160.514,77.7771,0.063699
160.545,77.7710,0.063699
160.576,77.7648,0.063699
160.607,77.7586,0.063699
160.638,77.7524,0.063699
160.669,77.7461,0.063699
160.702,77.7398,0.063699
160.731,77.7337,0.063699
160.763,77.7275,0.063699
160.794,77.7211,0.063699
160.825,77.7149,0.063643
160.856,77.7087,0.063643
160.887,77.7025,0.063643
160.918,77.6963,0.063643
160.949,77.6903,0.063643
160.980,77.6838,0.063643
161.011,77.6777,0.063643
161.042,77.6715,0.063605
161.073,77.6653,0.063605
161.104,77.6593,0.063605
161.135,77.6529,0.063605
161.165,77.6470,0.063605
161.197,77.6407,0.063605
161.227,77.6346,0.063605
161.259,77.6281,0.063605
161.289,77.6222,0.063605
161.320,77.6157,0.063530
161.352,77.6097,0.063530
161.382,77.6036,0.063530
161.413,77.5974,0.063530
161.444,77.5912,0.063530
161.475,77.5850,0.063530
161.507,77.5786,0.063530
161.538,77.5724,0.063473
161.569,77.5661,0.063473
161.600,77.5599,0.063473
161.632,77.5537,0.063473
161.662,77.5474,0.063473
161.694,77.5413,0.063473
161.725,77.5350,0.063473
161.756,77.5289,0.063473
161.787,77.5227,0.063436
161.818,77.5163,0.063436
161.849,77.5103,0.063436
161.880,77.5040,0.063436
161.911,77.4978,0.063436
161.943,77.4913,0.063436
161.973,77.4854,0.063436
162.005,77.4789,0.063436
162.035,77.4731,0.063417
162.065,77.4668,0.063417
162.096,77.4607,0.063417
162.129,77.4542,0.063417
162.159,77.4482,0.063417
162.191,77.4417,0.063417
162.222,77.4355,0.063417
162.253,77.4294,0.063417
162.284,77.4230,0.063360
162.316,77.4167,0.063360
162.346,77.4107,0.063360
162.378,77.4044,0.063360
162.408,77.3984,0.063360
162.439,77.3921,0.063360
162.470,77.3859,0.063360
162.502,77.3795,0.063360
162.532,77.3738,0.063266
162.563,77.3672,0.063266
162.595,77.3611,0.063266
162.625,77.3549,0.063266
162.656,77.3490,0.063266
162.686,77.3426,0.063266
162.718,77.3364,0.063266
162.750,77.3300,0.063266
162.780,77.3240,0.063219
162.812,77.3175,0.063219
162.843,77.3114,0.063219
162.874,77.3052,0.063219
162.906,77.2987,0.063219
162.937,77.2925,0.063219
162.968,77.2864,0.063219
162.999,77.2801,0.063219
163.029,77.2739,0.063144
163.060,77.2680,0.063144
163.091,77.2621,0.063144
163.122,77.2568,0.063144
163.152,77.2523,0.063144
163.184,77.2485,0.063144
163.216,77.2453,0.063144
163.247,77.2429,0.063144
163.278,77.2413,0.063030
163.309,77.2404,0.063030
163.340,77.2403,0.063030
163.370,77.2403,0.063030
163.401,77.2403,0.063030
163.432,77.2403,0.063030
163.463,77.2403,0.063030
163.494,77.2403,0.063030
163.526,77.2403,0.063030
163.556,77.2403,0.063030
163.587,77.2403,0.063030
163.617,77.2403,0.063030
163.649,77.2403,0.063030
163.680,77.2403,0.063030
163.712,77.2403,0.063030
163.744,77.2403,0.063030
163.776,77.2403,0.063030
163.806,77.2403,0.063030
163.836,77.2403,0.063030
163.867,77.2403,0.063030
163.898,77.2406,0.063030
163.929,77.2417,0.063030
163.960,77.2434,0.063030
163.991,77.2459,0.063030
164.023,77.2491,0.063030
164.053,77.2530,0.063030
164.084,77.2577,0.062927
164.115,77.2630,0.062927
164.147,77.2692,0.062927
164.177,77.2752,0.062927
164.209,77.2815,0.062927
164.239,77.2877,0.062927
164.270,77.2939,0.062927
164.302,77.3002,0.062861
164.333,77.3065,0.062861
164.364,77.3126,0.062861
164.395,77.3189,0.062861
164.425,77.3250,0.062861
164.456,77.3311,0.062861
164.487,77.3372,0.062861
164.518,77.3436,0.062861
164.550,77.3498,0.062823
164.581,77.3561,0.062823
164.612,77.3622,0.062823
164.643,77.3685,0.062823
164.674,77.3746,0.062823
164.705,77.3811,0.062823
164.736,77.3870,0.062823
164.768,77.3935,0.062823
164.799,77.3996,0.062786
164.830,77.4059,0.062786
164.861,77.4121,0.062786
164.892,77.4183,0.062786
164.924,77.4246,0.062786
164.956,77.4312,0.062786
164.987,77.4371,0.062786
165.018,77.4437,0.062786
165.049,77.4495,0.062757
165.080,77.4559,0.062757
165.111,77.4619,0.062757
165.142,77.4683,0.062757
165.174,77.4746,0.062757
165.204,77.4808,0.062757
165.236,77.4871,0.062757
165.267,77.4932,0.062748
165.299,77.4998,0.062748
165.329,77.5057,0.062748
165.360,77.5120,0.062748
165.392,77.5182,0.062748
165.423,77.5246,0.062748
165.454,77.5308,0.062748
165.485,77.5370,0.062748
165.517,77.5432,0.062748
165.549,77.5497,0.062767
165.580,77.5558,0.062767
165.610,77.5620,0.062767
165.642,77.5684,0.062767
165.673,77.5746,0.062767
165.703,77.5805,0.062767
165.734,77.5866,0.062767
165.765,77.5929,0.062748
165.796,77.5991,0.062748
165.827,77.6054,0.062748
165.858,77.6115,0.062748
165.889,77.6177,0.062748
165.920,77.6238,0.062748
165.951,77.6301,0.062748
165.982,77.6362,0.062748
166.013,77.6426,0.062748
166.045,77.6487,0.062710
166.076,77.6550,0.062710
166.107,77.6611,0.062710
166.137,77.6673,0.062710
166.168,77.6734,0.062710
166.199,77.6796,0.062710
166.230,77.6859,0.062710
166.263,77.6924,0.062710
166.293,77.6983,0.062720
166.324,77.7047,0.062720
166.355,77.7109,0.062720
166.387,77.7173,0.062720
166.418,77.7233,0.062720
166.448,77.7296,0.062720
166.480,77.7357,0.062720
166.511,77.7420,0.062720
166.542,77.7483,0.062654
166.573,77.7544,0.062654
166.603,77.7605,0.062654
166.634,77.7665,0.062654
166.665,77.7730,0.062654
166.697,77.7793,0.062654
166.729,77.7856,0.062654
166.759,77.7916,0.062654
166.790,77.7978,0.062682
166.820,77.8037,0.062682
166.851,77.8102,0.062682
166.881,77.8161,0.062682
166.912,77.8224,0.062682
166.943,77.8283,0.062682
166.973,77.8346,0.062682
167.005,77.8407,0.062682
167.036,77.8470,0.062682
167.067,77.8534,0.062720
167.099,77.8597,0.062720
167.130,77.8659,0.062720
167.161,77.8721,0.062720
167.192,77.8783,0.062720
167.223,77.8846,0.062720
167.253,77.8904,0.062720
167.285,77.8969,0.062720
167.316,77.9030,0.062691
167.346,77.9092,0.062691
167.377,77.9152,0.062691
167.409,77.9217,0.062691
167.440,77.9278,0.062691
167.471,77.9342,0.062691
167.502,77.9402,0.062691
167.534,77.9466,0.062691
167.564,77.9526,0.062720
167.595,77.9590,0.062720
167.626,77.9650,0.062720
167.657,77.9713,0.062720
167.688,77.9774,0.062720
167.719,77.9837,0.062720
167.750,77.9898,0.062720
167.781,77.9961,0.062720
167.813,78.0024,0.062691
167.844,78.0088,0.062691
167.875,78.0150,0.062691
167.907,78.0213,0.062691
167.937,78.0272,0.062691
167.968,78.0334,0.062691
167.998,78.0394,0.062691
168.029,78.0456,0.062691
168.059,78.0517,0.062682
168.090,78.0577,0.062682
168.122,78.0642,0.062682
168.153,78.0704,0.062682
168.184,78.0767,0.062682
168.215,78.0829,0.062682
168.246,78.0890,0.062682
168.277,78.0952,0.062701
168.308,78.1014,0.062701
168.339,78.1076,0.062701
168.371,78.1141,0.062701
168.402,78.1201,0.062701
168.433,78.1263,0.062701
168.464,78.1325,0.062701
168.494,78.1387,0.062701
168.526,78.1449,0.062710
168.557,78.1513,0.062710
168.588,78.1573,0.062710
168.618,78.1635,0.062710
168.649,78.1696,0.062710
168.680,78.1759,0.062710
168.711,78.1820,0.062710
168.742,78.1882,0.062710
168.773,78.1947,0.062691
168.805,78.2007,0.062691
168.836,78.2069,0.062691
168.867,78.2134,0.062691
168.898,78.2196,0.062691
168.929,78.2258,0.062691
168.961,78.2320,0.062691
168.991,78.2381,0.062691
169.023,78.2443,0.062691
169.054,78.2506,0.062672
169.084,78.2567,0.062672
169.115,78.2629,0.062672
169.146,78.2691,0.062672
169.178,78.2755,0.062672
169.209,78.2816,0.062672
169.240,78.2879,0.062672
169.270,78.2939,0.062672
169.301,78.3000,0.062710
169.332,78.3062,0.062710
169.363,78.3122,0.062710
169.394,78.3187,0.062710
169.425,78.3248,0.062710
169.455,78.3308,0.062710
169.486,78.3369,0.062710
169.517,78.3431,0.062710
169.547,78.3492,0.062710
169.579,78.3555,0.062729
169.609,78.3615,0.062729
169.639,78.3676,0.062729
169.670,78.3739,0.062729
169.701,78.3802,0.062729
169.733,78.3863,0.062729
169.763,78.3925,0.062729
169.794,78.3986,0.062672
169.826,78.4050,0.062672
169.856,78.4112,0.062672
169.888,78.4173,0.062672
169.918,78.4234,0.062672
169.949,78.4298,0.062672
169.981,78.4360,0.062672
170.012,78.4422,0.062672
170.042,78.4483,0.062663
170.073,78.4545,0.062663
170.104,78.4605,0.062663
170.136,78.4669,0.062663
170.166,78.4730,0.062663
170.196,78.4792,0.062663
170.227,78.4851,0.062663
170.258,78.4915,0.062663
170.288,78.4974,0.062691
170.320,78.5039,0.062691
170.351,78.5099,0.062691
170.382,78.5163,0.062691
170.413,78.5223,0.062691
170.445,78.5290,0.062691
170.476,78.5349,0.062691
170.507,78.5413,0.062691
170.538,78.5473,0.062672
170.568,78.5536,0.062672
170.601,78.5600,0.062672
170.632,78.5661,0.062672
170.662,78.5722,0.062672
170.693,78.5784,0.062672
170.725,78.5847,0.062672
170.756,78.5910,0.062672
170.786,78.5970,0.062682
170.817,78.6032,0.062682
170.849,78.6095,0.062682
170.879,78.6157,0.062682
170.911,78.6219,0.062682
170.941,78.6283,0.062682
170.973,78.6345,0.062682
171.004,78.6408,0.062682
171.036,78.6470,0.062663
171.067,78.6532,0.062663
171.097,78.6593,0.062663
171.129,78.6656,0.062663
171.160,78.6717,0.062663
171.191,78.6780,0.062663
171.222,78.6842,0.062663
171.253,78.6904,0.062663
171.284,78.6966,0.062672
171.316,78.7030,0.062672
171.346,78.7090,0.062672
171.378,78.7156,0.062672
171.409,78.7216,0.062672
171.441,78.7280,0.062672
171.471,78.7340,0.062672
171.503,78.7404,0.062672
171.533,78.7463,0.062720
171.564,78.7525,0.062720
171.595,78.7587,0.062720
171.626,78.7651,0.062720
171.657,78.7711,0.062720
171.688,78.7776,0.062720
171.719,78.7835,0.062720
171.751,78.7899,0.062720
171.782,78.7961,0.062729
171.813,78.8024,0.062729
171.844,78.8086,0.062729
171.875,78.8149,0.062729
171.906,78.8211,0.062729
171.937,78.8272,0.062729
171.968,78.8334,0.062729
171.998,78.8395,0.062729
172.031,78.8459,0.062710
172.060,78.8519,0.062710
172.091,78.8582,0.062710
172.123,78.8646,0.062710
172.154,78.8708,0.062710
172.185,78.8769,0.062710
172.217,78.8831,0.062710
172.247,78.8892,0.062710
172.278,78.8953,0.062682
172.309,78.9017,0.062682
172.339,78.9074,0.062682
172.371,78.9139,0.062682
172.402,78.9203,0.062682
172.434,78.9267,0.062682
172.465,78.9327,0.062682
172.497,78.9391,0.062682
172.527,78.9451,0.062682
172.558,78.9515,0.062691
172.588,78.9574,0.062691
172.620,78.9639,0.062691
172.651,78.9699,0.062691
172.682,78.9761,0.062691
172.713,78.9825,0.062691
172.743,78.9885,0.062691
172.774,78.9946,0.062691
172.806,79.0012,0.062710
172.838,79.0074,0.062710
172.869,79.0137,0.062710
172.900,79.0198,0.062710
172.931,79.0261,0.062710
172.963,79.0323,0.062710
172.994,79.0386,0.062710
173.025,79.0447,0.062710
173.056,79.0511,0.062786
173.087,79.0573,0.062786
173.119,79.0636,0.062786
173.150,79.0699,0.062786
173.180,79.0760,0.062786
173.211,79.0819,0.062786
173.243,79.0883,0.062786
173.273,79.0945,0.062786
173.304,79.1005,0.062786
173.334,79.1069,0.062795
173.365,79.1128,0.062795
173.397,79.1193,0.062795
173.429,79.1256,0.062795
173.460,79.1319,0.062795
173.491,79.1379,0.062795
173.521,79.1442,0.062795
173.553,79.1503,0.062757
173.584,79.1566,0.062757
173.614,79.1625,0.062757
173.646,79.1690,0.062757
173.676,79.1750,0.062757
173.706,79.1810,0.062757
173.737,79.1874,0.062757
173.768,79.1934,0.062757
173.799,79.1996,0.062776
173.828,79.2055,0.062776
173.859,79.2117,0.062776
173.891,79.2179,0.062776
173.921,79.2241,0.062776
173.952,79.2301,0.062776
173.982,79.2362,0.062776
174.013,79.2425,0.062776
174.044,79.2486,0.062776
174.076,79.2549,0.062776
174.107,79.2611,0.062776
174.139,79.2676,0.062776
174.169,79.2734,0.062776
174.200,79.2799,0.062776
174.231,79.2860,0.062776
174.262,79.2922,0.062776
174.294,79.2985,0.062786
174.325,79.3048,0.062786
174.356,79.3110,0.062786
174.388,79.3173,0.062786
174.419,79.3235,0.062786
174.449,79.3296,0.062786
174.480,79.3358,0.062786
174.511,79.3421,0.062786
174.542,79.3482,0.062814
174.573,79.3544,0.062814
174.604,79.3606,0.062814
174.635,79.3669,0.062814
174.666,79.3730,0.062814
174.697,79.3792,0.062814
174.728,79.3853,0.062814
174.759,79.3917,0.062814
174.790,79.3977,0.062851
174.821,79.4039,0.062851
174.851,79.4100,0.062851
174.881,79.4161,0.062851
174.912,79.4223,0.062851
174.944,79.4287,0.062851
174.975,79.4348,0.062851
175.007,79.4412,0.062851
175.037,79.4472,0.062851
175.068,79.4535,0.062823
175.099,79.4596,0.062823
175.129,79.4657,0.062823
175.159,79.4715,0.062823
175.190,79.4778,0.062823
175.221,79.4839,0.062823
175.252,79.4903,0.062823
175.283,79.4964,0.062842
175.315,79.5027,0.062842
175.346,79.5089,0.062842
175.378,79.5154,0.062842
175.409,79.5215,0.062842
175.441,79.5280,0.062842
175.471,79.5339,0.062842
175.503,79.5404,0.062842
175.532,79.5463,0.062917
175.563,79.5524,0.062917
175.594,79.5586,0.062917
175.625,79.5648,0.062917
175.655,79.5707,0.062917
175.686,79.5769,0.062917
175.717,79.5832,0.062917
175.749,79.5897,0.062917
175.779,79.5956,0.062974
175.811,79.6020,0.062974
175.841,79.6078,0.062974
175.871,79.6141,0.062974
175.902,79.6201,0.062974
175.933,79.6265,0.062974
175.964,79.6326,0.062974
175.995,79.6389,0.062974
176.027,79.6452,0.062974
176.058,79.6513,0.062974
176.089,79.6576,0.062974
176.120,79.6637,0.062974
176.151,79.6699,0.062974
176.182,79.6763,0.062974
176.213,79.6823,0.062974
176.244,79.6888,0.062974
176.275,79.6947,0.063021
176.305,79.7009,0.063021
176.337,79.7071,0.063021
176.368,79.7133,0.063021
176.399,79.7197,0.063021
176.431,79.7259,0.063021
176.461,79.7318,0.063021
176.492,79.7383,0.063021
176.523,79.7443,0.063021
176.554,79.7505,0.063106
176.585,79.7566,0.063106
176.616,79.7631,0.063106
176.647,79.7691,0.063106
176.679,79.7756,0.063106
176.708,79.7813,0.063106
176.741,79.7880,0.063106
176.771,79.7941,0.063106
176.802,79.8002,0.063106
176.834,79.8066,0.063106
176.864,79.8127,0.063106
176.895,79.8189,0.063106
176.927,79.8252,0.063106
176.957,79.8312,0.063106
176.988,79.8375,0.063106
177.018,79.8434,0.063106
177.050,79.8498,0.063106
177.081,79.8558,0.063087
177.112,79.8623,0.063087
177.143,79.8684,0.063087
177.174,79.8747,0.063087
177.206,79.8810,0.063087
177.237,79.8872,0.063087
177.269,79.8935,0.063087
177.299,79.8997,0.063087
177.331,79.9059,0.063134
177.364,79.9125,0.063134
177.394,79.9186,0.063134
177.425,79.9249,0.063134
177.456,79.9310,0.063134
177.488,79.9376,0.063134
177.519,79.9435,0.063134
177.550,79.9497,0.063181
177.581,79.9558,0.063181
177.611,79.9619,0.063181
177.641,79.9681,0.063181
177.671,79.9740,0.063181
177.702,79.9802,0.063181
177.733,79.9864,0.063181
177.765,79.9928,0.063181
177.794,79.9986,0.063238
177.825,80.0048,0.063238
177.856,80.0110,0.063238
177.888,80.0174,0.063238
177.919,80.0236,0.063238
177.950,80.0298,0.063238
177.981,80.0359,0.063238
178.013,80.0425,0.063238
178.043,80.0484,0.063304
178.075,80.0548,0.063304
178.105,80.0608,0.063304
178.135,80.0669,0.063304
178.166,80.0730,0.063304
178.198,80.0793,0.063304
178.229,80.0855,0.063304
178.259,80.0917,0.063304
178.291,80.0981,0.063370
178.321,80.1040,0.063370
178.352,80.1102,0.063370
178.383,80.1163,0.063370
178.415,80.1227,0.063370
178.446,80.1288,0.063370
178.478,80.1354,0.063370
178.509,80.1417,0.063370
178.540,80.1478,0.063464
178.571,80.1540,0.063464
178.602,80.1602,0.063464
178.634,80.1664,0.063464
178.666,80.1730,0.063464
178.696,80.1790,0.063464
178.727,80.1852,0.063464
178.758,80.1913,0.063464
178.790,80.1978,0.063492
178.819,80.2037,0.063492
178.852,80.2100,0.063492
178.881,80.2160,0.063492
178.912,80.2216,0.063492
178.943,80.2263,0.063492
178.973,80.2305,0.063492
179.004,80.2339,0.063492
179.034,80.2365,0.063586
179.065,80.2385,0.063586
179.097,80.2398,0.063586
179.128,80.2403,0.063586
179.159,80.2403,0.063586
179.190,80.2403,0.063586
179.221,80.2403,0.063586
179.252,80.2403,0.063586
179.283,80.2403,0.063794
179.314,80.2403,0.063794
179.345,80.2403,0.063794
179.376,80.2403,0.063794
179.408,80.2403,0.063794
179.440,80.2403,0.063794
179.470,80.2403,0.063794
179.502,80.2403,0.063794
179.532,80.2403,0.063888
179.563,80.2403,0.063888
179.594,80.2403,0.063888
179.625,80.2403,0.063888
179.657,80.2403,0.063888
179.688,80.2403,0.063888
179.719,80.2403,0.063888
179.751,80.2403,0.063888
179.780,80.2403,0.063944
179.812,80.2403,0.063944
179.844,80.2403,0.063944
179.876,80.2403,0.063944
179.906,80.2403,0.063944
179.936,80.2403,0.063944
179.967,80.2403,0.063944
179.998,80.2403,0.063944
180.029,80.2403,0.064020
180.061,80.2403,0.064020
180.093,80.2403,0.064020
180.122,80.2403,0.064020
180.153,80.2403,0.064020
180.186,80.2403,0.064020
180.217,80.2403,0.064020
180.248,80.2403,0.064020
180.281,80.2403,0.064086
180.310,80.2403,0.064086
180.342,80.2403,0.064086
180.373,80.2403,0.064086
180.405,80.2403,0.064086
180.436,80.2403,0.064086
180.466,80.2403,0.064086
180.498,80.2403,0.064086
180.529,80.2403,0.064171
180.560,80.2403,0.064171
180.591,80.2403,0.064171
180.622,80.2403,0.064171
180.653,80.2403,0.064171
180.684,80.2403,0.064171
180.715,80.2403,0.064171
180.746,80.2403,0.064171
180.777,80.2403,0.064274
180.808,80.2403,0.064274
180.839,80.2403,0.064274
180.870,80.2403,0.064274
180.902,80.2403,0.064274
180.931,80.2403,0.064274
180.963,80.2403,0.064274
180.993,80.2403,0.064274
181.025,80.2403,0.064274
181.056,80.2403,0.064340
181.087,80.2403,0.064340
181.119,80.2403,0.064340
181.150,80.2403,0.064340
181.181,80.2403,0.064340
181.212,80.2403,0.064340
181.242,80.2403,0.064340
181.273,80.2403,0.064340
181.304,80.2403,0.064340
181.334,80.2403,0.064378
181.365,80.2403,0.064378
181.396,80.2403,0.064378
181.427,80.2403,0.064378
181.458,80.2403,0.064378
181.490,80.2403,0.064378
181.521,80.2403,0.064378
181.553,80.2403,0.064378
181.583,80.2403,0.064510
181.615,80.2403,0.064510
181.646,80.2403,0.064510
181.677,80.2403,0.064510
181.708,80.2403,0.064510
181.739,80.2403,0.064510
181.771,80.2403,0.064510
181.801,80.2403,0.064510
181.833,80.2403,0.064547
181.864,80.2403,0.064547
181.896,80.2403,0.064547
181.926,80.2403,0.064547
181.957,80.2403,0.064547
181.988,80.2403,0.064547
182.019,80.2403,0.064547
182.051,80.2403,0.064566
182.081,80.2403,0.064566
182.112,80.2403,0.064566
182.143,80.2403,0.064566
182.174,80.2403,0.064566
182.206,80.2403,0.064566
182.236,80.2403,0.064566
182.268,80.2403,0.064566
182.298,80.2403,0.064566
182.329,80.2403,0.064642
182.360,80.2403,0.064642
182.390,80.2403,0.064642
182.421,80.2403,0.064642
182.452,80.2403,0.064642
182.484,80.2403,0.064642
182.515,80.2403,0.064642
182.545,80.2403,0.064698
182.577,80.2403,0.064698
182.609,80.2403,0.064698
182.640,80.2403,0.064698
182.670,80.2403,0.064698
182.701,80.2403,0.064698
182.733,80.2403,0.064698
182.763,80.2403,0.064698
182.794,80.2403,0.064726
182.825,80.2403,0.064726
182.856,80.2403,0.064726
182.888,80.2403,0.064726
182.918,80.2403,0.064726
182.951,80.2403,0.064726
182.981,80.2403,0.064726
183.012,80.2403,0.064726
183.043,80.2403,0.064726
183.074,80.2403,0.064811
183.105,80.2403,0.064811
183.136,80.2403,0.064811
183.167,80.2403,0.064811
183.199,80.2403,0.064811
183.230,80.2403,0.064811
183.262,80.2403,0.064811
183.292,80.2403,0.064924
183.323,80.2403,0.064924
183.354,80.2403,0.064924
183.385,80.2403,0.064924
183.416,80.2397,0.064924
183.447,80.2385,0.064924
183.478,80.2365,0.064924
183.508,80.2337,0.064924
183.539,80.2304,0.064981
183.570,80.2263,0.064981
183.602,80.2212,0.064981
183.634,80.2154,0.064981
183.665,80.2091,0.064981
183.697,80.2026,0.064981
183.729,80.1964,0.064981
183.760,80.1901,0.064981
183.791,80.1840,0.065103
183.821,80.1778,0.065103
183.853,80.1715,0.065103
183.885,80.1650,0.065103
183.916,80.1590,0.065103
183.947,80.1526,0.065103
183.979,80.1464,0.065103
184.009,80.1401,0.065103
184.041,80.1340,0.065235
184.072,80.1277,0.065235
184.103,80.1215,0.065235
184.135,80.1150,0.065235
184.165,80.1092,0.065235
184.196,80.1029,0.065235
184.226,80.0969,0.065235
184.259,80.0904,0.065235
184.288,80.0845,0.065320
184.321,80.0780,0.065320
184.351,80.0719,0.065320
184.381,80.0658,0.065320
184.413,80.0596,0.065320
184.443,80.0535,0.065320
184.474,80.0471,0.065320
184.506,80.0410,0.065320
184.538,80.0346,0.065311
184.568,80.0284,0.065311
184.598,80.0224,0.065311
184.630,80.0162,0.065311
184.661,80.0100,0.065311
184.691,80.0039,0.065311
184.722,79.9977,0.065311
184.753,79.9915,0.065311
184.784,79.9853,0.065311
184.815,79.9791,0.065358
184.847,79.9727,0.065358
184.878,79.9665,0.065358
184.908,79.9603,0.065358
184.940,79.9541,0.065358
184.971,79.9481,0.065358
185.001,79.9418,0.065358
185.033,79.9356,0.065461
185.063,79.9295,0.065461
185.094,79.9232,0.065461
185.125,79.9170,0.065461
185.156,79.9108,0.065461
185.186,79.9050,0.065461
185.219,79.8984,0.065461
185.248,79.8925,0.065461
185.279,79.8862,0.065518
185.311,79.8800,0.065518
185.343,79.8735,0.065518
185.373,79.8675,0.065518
185.404,79.8614,0.065518
185.435,79.8551,0.065518
185.467,79.8489,0.065518
185.498,79.8424,0.065518
185.529,79.8365,0.065518
185.560,79.8303,0.065518
185.590,79.8242,0.065546
185.622,79.8178,0.065546
185.652,79.8116,0.065546
185.684,79.8051,0.065546
185.716,79.7990,0.065546
185.747,79.7927,0.065546
185.778,79.7864,0.065518
185.810,79.7802,0.065518
185.841,79.7740,0.065518
185.872,79.7677,0.065518
185.903,79.7616,0.065518
185.934,79.7554,0.065518
185.964,79.7492,0.065518
185.996,79.7429,0.065518
186.027,79.7367,0.065499
186.058,79.7305,0.065499
186.089,79.7242,0.065499
186.120,79.7179,0.065499
186.151,79.7118,0.065499
186.183,79.7054,0.065499
186.214,79.6994,0.065499
186.245,79.6930,0.065499
186.276,79.6869,0.065499
186.307,79.6806,0.065499
186.337,79.6746,0.065490
186.368,79.6684,0.065490
186.399,79.6624,0.065490
186.430,79.6562,0.065490
186.461,79.6498,0.065490
186.493,79.6434,0.065490
186.522,79.6376,0.065490
186.555,79.6311,0.065527
186.586,79.6249,0.065527
186.616,79.6187,0.065527
186.647,79.6128,0.065527
186.679,79.6063,0.065527
186.709,79.6004,0.065527
186.741,79.5939,0.065527
186.772,79.5878,0.065527
186.802,79.5816,0.065527
186.833,79.5755,0.065518
186.864,79.5692,0.065518
186.895,79.5631,0.065518
186.926,79.5569,0.065518
186.957,79.5509,0.065518
186.987,79.5448,0.065518
187.017,79.5386,0.065518
187.049,79.5324,0.065452
187.079,79.5263,0.065452
187.110,79.5200,0.065452
187.141,79.5140,0.065452
187.172,79.5077,0.065452
187.202,79.5018,0.065452
187.233,79.4954,0.065452
187.265,79.4892,0.065452
187.296,79.4829,0.065452
187.327,79.4767,0.065414
187.359,79.4704,0.065414
187.390,79.4643,0.065414
187.422,79.4577,0.065414
187.452,79.4518,0.065414
187.483,79.4454,0.065414
187.514,79.4395,0.065414
187.544,79.4333,0.065414
187.576,79.4268,0.065414
187.607,79.4208,0.065414
187.638,79.4144,0.065414
187.669,79.4084,0.065414
187.701,79.4019,0.065414
187.732,79.3958,0.065414
187.763,79.3895,0.065414
187.793,79.3836,0.065414
187.825,79.3772,0.065414
187.855,79.3712,0.065414
187.887,79.3647,0.065414
187.918,79.3586,0.065414
187.949,79.3523,0.065414
187.980,79.3462,0.065414
188.011,79.3398,0.065414
188.043,79.3335,0.065339
188.074,79.3274,0.065339
188.104,79.3213,0.065339
188.137,79.3148,0.065339
188.166,79.3089,0.065339
188.199,79.3023,0.065339
188.230,79.2962,0.065339
188.260,79.2902,0.065339
188.291,79.2840,0.065320
188.322,79.2776,0.065320
188.353,79.2713,0.065320
188.384,79.2652,0.065320
188.415,79.2590,0.065320
188.448,79.2526,0.065320
188.479,79.2464,0.065320
188.509,79.2404,0.065320
188.540,79.2340,0.065292
188.571,79.2279,0.065292
188.603,79.2216,0.065292
188.633,79.2156,0.065292
188.664,79.2093,0.065292
188.695,79.2032,0.065292
188.726,79.1970,0.065292
188.757,79.1908,0.065292
188.787,79.1847,0.065292
188.818,79.1784,0.065254
188.849,79.1725,0.065254
188.879,79.1661,0.065254
188.911,79.1599,0.065254
188.941,79.1537,0.065254
188.973,79.1475,0.065254
189.004,79.1411,0.065254
189.035,79.1351,0.065254
189.067,79.1287,0.065254
189.099,79.1224,0.065254
189.129,79.1162,0.065254
189.160,79.1102,0.065254
189.191,79.1040,0.065254
189.222,79.0977,0.065254
189.253,79.0916,0.065254
189.284,79.0852,0.065254
189.316,79.0790,0.065150
189.347,79.0728,0.065150
189.378,79.0666,0.065150
189.409,79.0604,0.065150
189.439,79.0542,0.065150
189.471,79.0480,0.065150
189.501,79.0417,0.065150
189.533,79.0355,0.065150
189.563,79.0293,0.065122
189.595,79.0230,0.065122
189.626,79.0168,0.065122
189.659,79.0104,0.065122
189.689,79.0042,0.065122
189.720,78.9981,0.065122
189.751,78.9919,0.065122
189.782,78.9857,0.065122
189.812,78.9797,0.065084
189.844,78.9733,0.065084
189.874,78.9673,0.065084
189.905,78.9611,0.065084
189.936,78.9551,0.065084
189.967,78.9487,0.065084
189.998,78.9427,0.065084
190.029,78.9363,0.065084
190.059,78.9304,0.065009
190.091,78.9239,0.065009
190.122,78.9178,0.065009
190.152,78.9116,0.065009
190.183,78.9056,0.065009
190.214,78.8991,0.065009
190.245,78.8930,0.065009
190.276,78.8868,0.065009
190.307,78.8809,0.065009
190.338,78.8747,0.065009
190.368,78.8685,0.065009
190.400,78.8622,0.065009
190.430,78.8562,0.065009
190.462,78.8496,0.065009
190.492,78.8438,0.065009
190.523,78.8375,0.065009
190.554,78.8314,0.064971
190.587,78.8248,0.064971
190.617,78.8186,0.064971
190.649,78.8123,0.064971
190.680,78.8062,0.064971
190.712,78.7997,0.064971
190.743,78.7937,0.064971
190.775,78.7873,0.064971
190.804,78.7814,0.064953
190.835,78.7751,0.064953
190.865,78.7691,0.064953
190.896,78.7629,0.064953
190.927,78.7567,0.064953
190.959,78.7503,0.064953
190.990,78.7442,0.064953
191.021,78.7379,0.064953
191.052,78.7318,0.064858
191.084,78.7254,0.064858
191.114,78.7194,0.064858
191.145,78.7131,0.064858
191.177,78.7069,0.064858
191.208,78.7006,0.064858
191.240,78.6942,0.064858
191.271,78.6880,0.064858
191.302,78.6818,0.064755
191.333,78.6754,0.064755
191.365,78.6692,0.064755
191.395,78.6630,0.064755
191.426,78.6569,0.064755
191.457,78.6507,0.064755
191.488,78.6446,0.064755
191.518,78.6385,0.064755
191.550,78.6321,0.064651
191.581,78.6260,0.064651
191.612,78.6197,0.064651
191.643,78.6135,0.064651
191.674,78.6072,0.064651
191.705,78.6011,0.064651
191.736,78.5949,0.064651
191.767,78.5886,0.064651
191.799,78.5822,0.064547
191.831,78.5759,0.064547
191.861,78.5698,0.064547
191.893,78.5635,0.064547
191.923,78.5576,0.064547
191.955,78.5512,0.064547
191.985,78.5453,0.064547
192.016,78.5388,0.064547
192.047,78.5328,0.064529
192.078,78.5266,0.064529
192.108,78.5206,0.064529
192.139,78.5143,0.064529
192.170,78.5083,0.064529
192.201,78.5020,0.064529
192.231,78.4959,0.064529
192.263,78.4895,0.064529
192.293,78.4836,0.064434
192.324,78.4773,0.064434
192.356,78.4709,0.064434
192.387,78.4648,0.064434
192.418,78.4586,0.064434
192.450,78.4523,0.064434
192.480,78.4461,0.064434
192.511,78.4399,0.064434
192.542,78.4337,0.064387
192.572,78.4276,0.064387
192.604,78.4215,0.064387
192.635,78.4151,0.064387
192.665,78.4091,0.064387
192.697,78.4028,0.064387
192.727,78.3967,0.064387
192.758,78.3906,0.064387
192.789,78.3844,0.064378
192.820,78.3781,0.064378
192.851,78.3719,0.064378
192.882,78.3657,0.064378
192.913,78.3596,0.064378
192.945,78.3533,0.064378
192.975,78.3471,0.064378
193.007,78.3406,0.064378
193.037,78.3349,0.064302
193.068,78.3285,0.064302
193.099,78.3224,0.064302
193.130,78.3161,0.064302
193.161,78.3100,0.064302
193.193,78.3036,0.064302
193.224,78.2974,0.064302
193.254,78.2913,0.064302
193.285,78.2852,0.064208
193.316,78.2789,0.064208
193.347,78.2728,0.064208
193.379,78.2664,0.064208
193.409,78.2603,0.064208
193.441,78.2538,0.064208
193.472,78.2476,0.064208
193.505,78.2413,0.064208
193.535,78.2352,0.064114
193.567,78.2288,0.064114
193.597,78.2228,0.064114
193.628,78.2165,0.064114
193.659,78.2104,0.064114
193.690,78.2041,0.064114
193.721,78.1981,0.064114
193.752,78.1917,0.064114
193.783,78.1856,0.064039
193.814,78.1793,0.064039
193.845,78.1733,0.064039
193.876,78.1669,0.064039
193.907,78.1608,0.064039
193.939,78.1542,0.064039
193.969,78.1484,0.064039
194.000,78.1422,0.064039
194.031,78.1360,0.063992
194.063,78.1297,0.063992
194.094,78.1232,0.063992
194.126,78.1170,0.063992
194.156,78.1111,0.063992
194.186,78.1050,0.063992
194.217,78.0988,0.063992
194.249,78.0925,0.063992
194.280,78.0863,0.063982
194.311,78.0799,0.063982
194.343,78.0736,0.063982
194.375,78.0672,0.063982
194.405,78.0612,0.063982
194.437,78.0549,0.063982
194.468,78.0484,0.063982
194.499,78.0421,0.063982
194.530,78.0360,0.063944
194.561,78.0298,0.063944
194.592,78.0238,0.063944
194.623,78.0176,0.063944
194.654,78.0114,0.063944
194.685,78.0052,0.063944
194.716,77.9988,0.063944
194.747,77.9928,0.063944
194.778,77.9866,0.063944
194.808,77.9806,0.063869
194.840,77.9742,0.063869
194.870,77.9682,0.063869
194.901,77.9619,0.063869
194.932,77.9558,0.063869
194.964,77.9492,0.063869
194.995,77.9431,0.063869
195.026,77.9369,0.063869
195.056,77.9311,0.063737
195.087,77.9247,0.063737
195.119,77.9185,0.063737
195.150,77.9121,0.063737
195.181,77.9058,0.063737
195.212,77.8997,0.063737
195.243,77.8935,0.063737
195.275,77.8872,0.063737
195.307,77.8808,0.063718
195.336,77.8749,0.063718
195.368,77.8684,0.063718
195.400,77.8622,0.063718
195.430,77.8563,0.063718
195.461,77.8499,0.063718
195.492,77.8438,0.063718
195.524,77.8375,0.063699
195.555,77.8313,0.063699
195.587,77.8248,0.063699
195.618,77.8188,0.063699
195.649,77.8123,0.063699
195.680,77.8062,0.063699
195.712,77.7998,0.063699
195.743,77.7936,0.063699
195.774,77.7873,0.063699
195.805,77.7811,0.063605
195.836,77.7748,0.063605
195.866,77.7689,0.063605
195.897,77.7627,0.063605
195.928,77.7566,0.063605
195.959,77.7503,0.063605
195.990,77.7442,0.063605
196.021,77.7379,0.063605
196.052,77.7319,0.063568
196.084,77.7254,0.063568
196.114,77.7195,0.063568
196.146,77.7131,0.063568
196.176,77.7071,0.063568
196.207,77.7007,0.063568
196.239,77.6945,0.063568
196.270,77.6882,0.063520
196.301,77.6821,0.063520
196.332,77.6759,0.063520
196.362,77.6699,0.063520
196.394,77.6635,0.063520
196.424,77.6574,0.063520
196.455,77.6513,0.063520
196.486,77.6449,0.063520
196.518,77.6387,0.063492
196.549,77.6325,0.063492
196.580,77.6261,0.063492
196.611,77.6201,0.063492
196.641,77.6139,0.063492
196.672,77.6078,0.063492
196.703,77.6016,0.063492
196.733,77.5955,0.063492
196.765,77.5891,0.063492
196.797,77.5829,0.063426
196.828,77.5767,0.063426
196.860,77.5701,0.063426
196.890,77.5640,0.063426
196.919,77.5583,0.063426
196.952,77.5519,0.063426
196.983,77.5455,0.063426
197.014,77.5392,0.063341
197.046,77.5330,0.063341
197.076,77.5269,0.063341
197.107,77.5208,0.063341
197.139,77.5144,0.063341
197.169,77.5083,0.063341
197.200,77.5020,0.063341
197.231,77.4960,0.063341
197.262,77.4897,0.063341
197.293,77.4836,0.063323
197.326,77.4771,0.063323
197.355,77.4712,0.063323
197.388,77.4647,0.063323
197.419,77.4585,0.063323
197.451,77.4520,0.063323
197.481,77.4459,0.063323
197.512,77.4396,0.063323
197.543,77.4337,0.063285
197.575,77.4271,0.063285
197.605,77.4213,0.063285
197.636,77.4149,0.063285
197.667,77.4090,0.063285
197.697,77.4028,0.063285
197.728,77.3963,0.063285
197.760,77.3901,0.063285
197.791,77.3839,0.063238
197.822,77.3777,0.063238
197.854,77.3714,0.063238
197.885,77.3651,0.063238
197.916,77.3590,0.063238
197.947,77.3528,0.063238
197.978,77.3467,0.063238
198.009,77.3403,0.063238
198.039,77.3344,0.063238
198.069,77.3284,0.063172
198.101,77.3218,0.063172
198.132,77.3158,0.063172
198.164,77.3094,0.063172
198.195,77.3032,0.063172
198.227,77.2969,0.063172
198.257,77.2908,0.063172
198.288,77.2846,0.063172
198.319,77.2784,0.063134
198.351,77.2719,0.063134
198.382,77.2659,0.063134
198.413,77.2598,0.063134
198.443,77.2536,0.063134
198.474,77.2474,0.063134
198.505,77.2412,0.063134
198.536,77.2349,0.063134
198.568,77.2288,0.063115
198.598,77.2227,0.063115
198.629,77.2165,0.063115
198.660,77.2105,0.063115
198.691,77.2056,0.063115
198.724,77.2010,0.063115
198.753,77.1975,0.063115
198.785,77.1945,0.063115
198.815,77.1924,0.063012
198.846,77.1909,0.063012
198.876,77.1903,0.063012
198.907,77.1902,0.063012
198.938,77.1902,0.063012
198.970,77.1902,0.063012
199.000,77.1902,0.063012
199.030,77.1906,0.063012
199.061,77.1917,0.063012
199.092,77.1936,0.062889
199.123,77.1960,0.062889
199.154,77.1994,0.062889
199.185,77.2035,0.062889
199.216,77.2082,0.062889
199.247,77.2135,0.062889
199.279,77.2200,0.062889
199.309,77.2259,0.062776
199.340,77.2324,0.062776
199.372,77.2386,0.062776
199.403,77.2448,0.062776
199.434,77.2509,0.062776
199.465,77.2573,0.062776
199.496,77.2634,0.062776
199.526,77.2695,0.062776
199.558,77.2757,0.062767
199.589,77.2820,0.062767
199.621,77.2882,0.062767
199.652,77.2945,0.062767
199.682,77.3006,0.062767
199.715,77.3070,0.062767
199.744,77.3130,0.062767
199.775,77.3192,0.062767
199.806,77.3254,0.062814
199.838,77.3317,0.062814
199.869,77.3379,0.062814
199.900,77.3442,0.062814
199.931,77.3502,0.062814
199.962,77.3565,0.062814
199.993,77.3627,0.062814
200.024,77.3692,0.062814
200.055,77.3751,0.062786
200.087,77.3816,0.062786
200.118,77.3876,0.062786
200.150,77.3942,0.062786
200.180,77.4002,0.062786
200.212,77.4065,0.062786
200.243,77.4128,0.062786
200.274,77.4189,0.062786
200.304,77.4251,0.062786
200.335,77.4313,0.062786
200.367,77.4376,0.062786
200.398,77.4437,0.062786
200.430,77.4502,0.062786
200.460,77.4562,0.062786
200.493,77.4626,0.062786
200.522,77.4685,0.062757
200.553,77.4748,0.062757
200.584,77.4810,0.062757
200.615,77.4872,0.062757
200.646,77.4933,0.062757
200.677,77.4995,0.062757
200.708,77.5058,0.062757
200.738,77.5118,0.062757
200.769,77.5181,0.062757
200.800,77.5242,0.062710
200.832,77.5305,0.062710
200.862,77.5366,0.062710
200.894,77.5428,0.062710
200.925,77.5491,0.062710
200.955,77.5552,0.062710
200.986,77.5613,0.062710
201.017,77.5676,0.062710
201.047,77.5736,0.062710
201.078,77.5796,0.062710
201.109,77.5860,0.062710
201.141,77.5923,0.062710
201.172,77.5985,0.062710
201.202,77.6047,0.062710
201.234,77.6109,0.062710
201.265,77.6173,0.062710
201.296,77.6234,0.062748
201.327,77.6297,0.062748
201.357,77.6356,0.062748
201.388,77.6419,0.062748
201.419,77.6480,0.062748
201.450,77.6543,0.062748
201.482,77.6605,0.062748
201.514,77.6669,0.062748
201.545,77.6732,0.062691
201.576,77.6795,0.062691
201.607,77.6856,0.062691
201.638,77.6916,0.062691
201.669,77.6980,0.062691
201.700,77.7042,0.062691
201.732,77.7106,0.062691
201.763,77.7167,0.062691
201.794,77.7229,0.062691
201.825,77.7291,0.062663
201.856,77.7353,0.062663
201.887,77.7415,0.062663
201.918,77.7477,0.062663
201.949,77.7539,0.062663
201.979,77.7600,0.062663
202.010,77.7662,0.062663
202.042,77.7725,0.062663
202.073,77.7787,0.062710
202.104,77.7849,0.062710
202.135,77.7911,0.062710
202.167,77.7977,0.062710
202.198,77.8039,0.062710
202.229,77.8099,0.062710
202.260,77.8160,0.062710
202.290,77.8222,0.062710
202.322,77.8284,0.062701
202.352,77.8346,0.062701
202.383,77.8408,0.062701
202.413,77.8469,0.062701
202.445,77.8531,0.062701
202.476,77.8594,0.062701
202.506,77.8655,0.062701
202.538,77.8718,0.062701
202.569,77.8779,0.062654
202.602,77.8846,0.062654
202.633,77.8908,0.062654
202.663,77.8969,0.062654
202.695,77.9032,0.062654
202.725,77.9090,0.062654
202.756,77.9154,0.062654
202.788,77.9217,0.062672
202.820,77.9280,0.062672
202.850,77.9341,0.062672
202.881,77.9403,0.062672
202.912,77.9466,0.062672
202.944,77.9529,0.062672
202.974,77.9590,0.062672
203.005,77.9651,0.062672
203.036,77.9713,0.062663
203.067,77.9776,0.062663
203.098,77.9838,0.062663
203.130,77.9903,0.062663
203.161,77.9962,0.062663
203.193,78.0027,0.062663
203.224,78.0089,0.062663
203.256,78.0153,0.062663
203.287,78.0214,0.062635
203.319,78.0279,0.062635
203.350,78.0343,0.062635
203.381,78.0403,0.062635
203.412,78.0465,0.062635
203.443,78.0528,0.062635
203.474,78.0592,0.062635
203.505,78.0652,0.062635
203.535,78.0711,0.062635
203.567,78.0777,0.062663
203.598,78.0837,0.062663
203.629,78.0900,0.062663
203.661,78.0962,0.062663
203.691,78.1025,0.062663
203.723,78.1086,0.062663
203.753,78.1149,0.062663
203.785,78.1211,0.062691
203.816,78.1274,0.062691
203.847,78.1335,0.062691
203.879,78.1401,0.062691
203.909,78.1458,0.062691
203.941,78.1523,0.062691
203.971,78.1583,0.062691
204.003,78.1647,0.062691
204.034,78.1712,0.062691
204.066,78.1773,0.062672
204.097,78.1835,0.062672
204.128,78.1896,0.062672
204.159,78.1960,0.062672
204.190,78.2021,0.062672
204.222,78.2086,0.062672
204.254,78.2149,0.062672
204.285,78.2213,0.062701
204.317,78.2274,0.062701
204.348,78.2339,0.062701
204.379,78.2399,0.062701
204.411,78.2461,0.062701
204.440,78.2522,0.062701
204.471,78.2582,0.062701
204.501,78.2645,0.062701
204.532,78.2704,0.062672
204.562,78.2768,0.062672
204.593,78.2827,0.062672
204.625,78.2892,0.062672
204.655,78.2950,0.062672
204.686,78.3015,0.062672
204.717,78.3075,0.062672
204.748,78.3137,0.062672
204.779,78.3198,0.062644
204.810,78.3263,0.062644
204.842,78.3325,0.062644
204.873,78.3385,0.062644
204.904,78.3449,0.062644
204.935,78.3512,0.062644
204.965,78.3573,0.062644
204.997,78.3636,0.062644
205.028,78.3697,0.062672
205.058,78.3757,0.062672
205.089,78.3818,0.062672
205.120,78.3881,0.062672
205.151,78.3943,0.062672
205.183,78.4005,0.062672
205.213,78.4069,0.062672
205.244,78.4130,0.062672
205.275,78.4190,0.062625
205.306,78.4252,0.062625
205.337,78.4316,0.062625
205.368,78.4376,0.062625
205.400,78.4440,0.062625
205.431,78.4504,0.062625
205.462,78.4565,0.062625
205.494,78.4628,0.062625
205.525,78.4690,0.062625
205.555,78.4753,0.062625
205.587,78.4815,0.062644
205.619,78.4879,0.062644
205.650,78.4941,0.062644
205.680,78.5003,0.062644
205.711,78.5065,0.062644
205.742,78.5125,0.062644
205.774,78.5190,0.062644
205.804,78.5249,0.062644
205.835,78.5313,0.062682
205.865,78.5372,0.062682
205.897,78.5437,0.062682
205.929,78.5500,0.062682
205.960,78.5562,0.062682
205.991,78.5624,0.062682
206.022,78.5686,0.062682
206.054,78.5749,0.062682
206.086,78.5814,0.062663
206.117,78.5875,0.062663
206.147,78.5935,0.062663
206.179,78.5999,0.062663
206.210,78.6059,0.062663
206.241,78.6124,0.062663
206.275,78.6191,0.062663
206.304,78.6250,0.062635
206.336,78.6314,0.062635
206.367,78.6374,0.062635
206.398,78.6436,0.062635
206.429,78.6500,0.062635
206.459,78.6559,0.062635
206.490,78.6620,0.062635
206.521,78.6682,0.062635
206.552,78.6744,0.062635
206.583,78.6806,0.062644
206.615,78.6870,0.062644
206.645,78.6931,0.062644
206.677,78.6994,0.062644
206.708,78.7056,0.062644
206.739,78.7120,0.062644
206.769,78.7179,0.062644
206.800,78.7241,0.062644
206.832,78.7305,0.062672
206.863,78.7368,0.062672
206.894,78.7431,0.062672
206.926,78.7493,0.062672
206.957,78.7558,0.062672
206.988,78.7617,0.062672
207.019,78.7679,0.062672
207.050,78.7741,0.062672
207.082,78.7804,0.062691
207.112,78.7865,0.062691
207.143,78.7927,0.062691
207.174,78.7989,0.062691
207.204,78.8051,0.062691
207.236,78.8112,0.062691
207.267,78.8175,0.062691
207.298,78.8236,0.062691
207.329,78.8298,0.062738
207.360,78.8361,0.062738
207.393,78.8427,0.062738
207.422,78.8485,0.062738
207.453,78.8548,0.062738
207.485,78.8610,0.062738
207.516,78.8674,0.062738
207.547,78.8734,0.062738
207.579,78.8799,0.062691
207.611,78.8862,0.062691
207.642,78.8927,0.062691
207.673,78.8985,0.062691
207.704,78.9051,0.062691
207.735,78.9110,0.062691
207.765,78.9174,0.062691
207.796,78.9233,0.062691
207.827,78.9296,0.062701
207.858,78.9357,0.062701
207.889,78.9419,0.062701
207.921,78.9482,0.062701
207.951,78.9543,0.062701
207.982,78.9606,0.062701
208.012,78.9666,0.062701
208.044,78.9729,0.062729
208.075,78.9790,0.062729
208.106,78.9853,0.062729
208.136,78.9914,0.062729
208.168,78.9976,0.062729
208.198,79.0037,0.062729
208.230,79.0102,0.062729
208.261,79.0164,0.062729
208.293,79.0228,0.062729
208.324,79.0290,0.062701
208.355,79.0352,0.062701
208.386,79.0414,0.062701
208.417,79.0475,0.062701
208.448,79.0537,0.062701
208.479,79.0600,0.062701
208.510,79.0661,0.062701
208.541,79.0723,0.062682
208.571,79.0783,0.062682
208.602,79.0845,0.062682
208.634,79.0910,0.062682
208.665,79.0972,0.062682
208.696,79.1033,0.062682
208.726,79.1095,0.062682
208.758,79.1157,0.062682
208.789,79.1221,0.062682
208.821,79.1282,0.062663
208.853,79.1348,0.062663
208.883,79.1407,0.062663
208.914,79.1469,0.062663
208.946,79.1531,0.062663
208.977,79.1594,0.062663
209.008,79.1658,0.062663
209.039,79.1718,0.062663
209.070,79.1781,0.062720
209.101,79.1845,0.062720
209.132,79.1905,0.062720
209.164,79.1969,0.062720
209.194,79.2029,0.062720
209.225,79.2092,0.062720
209.256,79.2154,0.062720
209.286,79.2213,0.062720
209.318,79.2275,0.062833
209.349,79.2341,0.062833
209.380,79.2401,0.062833
209.412,79.2465,0.062833
209.444,79.2528,0.062833
209.475,79.2590,0.062833
209.506,79.2652,0.062833
209.537,79.2717,0.062833
209.568,79.2776,0.062851
209.599,79.2840,0.062851
209.630,79.2899,0.062851
209.662,79.2965,0.062851
209.693,79.3026,0.062851
209.723,79.3086,0.062851
209.754,79.3150,0.062851
209.785,79.3210,0.062851
209.817,79.3276,0.062823
209.848,79.3336,0.062823
209.879,79.3399,0.062823
209.910,79.3462,0.062823
209.941,79.3524,0.062823
209.972,79.3586,0.062823
210.005,79.3652,0.062823
210.035,79.3712,0.062823
210.066,79.3774,0.062786
210.098,79.3837,0.062786
210.129,79.3899,0.062786
210.160,79.3961,0.062786
210.190,79.4022,0.062786
210.221,79.4084,0.062786
210.252,79.4146,0.062786
210.283,79.4205,0.062786
210.313,79.4267,0.062814
210.345,79.4332,0.062814
210.376,79.4392,0.062814
210.406,79.4453,0.062814
210.437,79.4515,0.062814
210.468,79.4577,0.062814
210.499,79.4638,0.062814
210.532,79.4704,0.062814
210.562,79.4765,0.062842
210.593,79.4827,0.062842
210.624,79.4890,0.062842
210.656,79.4953,0.062842
210.687,79.5015,0.062842
210.718,79.5076,0.062842
210.748,79.5135,0.062842
210.778,79.5199,0.062851
210.809,79.5259,0.062851
210.841,79.5323,0.062851
210.871,79.5382,0.062851
210.903,79.5447,0.062851
210.934,79.5509,0.062851
210.964,79.5571,0.062851
210.996,79.5633,0.062851
211.027,79.5696,0.062851
211.059,79.5759,0.062908
211.090,79.5821,0.062908
211.120,79.5883,0.062908
211.151,79.5943,0.062908
211.182,79.6005,0.062908
211.212,79.6066,0.062908
211.243,79.6129,0.062908
211.275,79.6190,0.062927
211.306,79.6253,0.062927
211.337,79.6315,0.062927
211.368,79.6377,0.062927
211.398,79.6436,0.062927
211.429,79.6500,0.062927
211.460,79.6560,0.062927
211.491,79.6624,0.062927
211.522,79.6684,0.062936
211.555,79.6750,0.062936
211.585,79.6811,0.062936
211.616,79.6874,0.062936
211.646,79.6932,0.062936
211.677,79.6996,0.062936
211.708,79.7058,0.062936
211.739,79.7117,0.062936
211.771,79.7183,0.062936
211.801,79.7242,0.062936
211.833,79.7306,0.062946
211.864,79.7368,0.062946
211.895,79.7432,0.062946
211.926,79.7492,0.062946
211.957,79.7555,0.062946
211.988,79.7617,0.062946
212.019,79.7680,0.062946
212.050,79.7740,0.063012
212.081,79.7804,0.063012
212.113,79.7865,0.063012
212.144,79.7928,0.063012
212.176,79.7992,0.063012
212.207,79.8055,0.063012
212.238,79.8117,0.063012
212.269,79.8179,0.063012
212.301,79.8243,0.063059
212.332,79.8304,0.063059
212.363,79.8367,0.063059
212.393,79.8427,0.063059
212.423,79.8489,0.063059
212.454,79.8548,0.063059
212.484,79.8608,0.063059
212.515,79.8670,0.063059
212.546,79.8733,0.063068
212.578,79.8798,0.063068
212.609,79.8859,0.063068
212.641,79.8922,0.063068
212.671,79.8983,0.063068
212.702,79.9046,0.063068
212.733,79.9105,0.063068
212.764,79.9169,0.063068
212.795,79.9231,0.063153
212.826,79.9293,0.063153
212.857,79.9355,0.063153
212.888,79.9417,0.063153
212.919,79.9479,0.063153
212.950,79.9542,0.063153
212.982,79.9604,0.063153
213.013,79.9667,0.063153
213.044,79.9728,0.063219
213.075,79.9791,0.063219
213.106,79.9852,0.063219
213.137,79.9915,0.063219
213.169,79.9978,0.063219
213.199,80.0039,0.063219
213.230,80.0100,0.063219
213.261,80.0163,0.063219
213.293,80.0227,0.063247
213.324,80.0290,0.063247
213.354,80.0348,0.063247
213.385,80.0411,0.063247
213.417,80.0473,0.063247
213.447,80.0535,0.063247
213.478,80.0599,0.063247
213.508,80.0657,0.063247
213.539,80.0719,0.063341
213.570,80.0781,0.063341
213.601,80.0843,0.063341
213.631,80.0904,0.063341
213.663,80.0968,0.063341
213.695,80.1030,0.063341
213.726,80.1093,0.063341
213.757,80.1157,0.063341
213.788,80.1216,0.063426
213.819,80.1278,0.063426
213.849,80.1339,0.063426
213.880,80.1402,0.063426
213.912,80.1464,0.063426
213.943,80.1529,0.063426
213.974,80.1588,0.063426
214.005,80.1650,0.063426
214.035,80.1706,0.063426
214.068,80.1758,0.063445
214.097,80.1798,0.063445
214.128,80.1833,0.063445
214.159,80.1861,0.063445
214.190,80.1882,0.063445
214.221,80.1896,0.063445
214.254,80.1902,0.063445
214.284,80.1902,0.063549
214.316,80.1902,0.063549
214.347,80.1902,0.063549
214.377,80.1902,0.063549
214.408,80.1902,0.063549
214.438,80.1902,0.063549
