Elapsed Time (s),Position (mm),Force (N)
-0.019,82.4902,0.062889
0.012,82.4902,0.062889
0.043,82.4902,0.063162
0.074,82.4902,0.063162
0.105,82.4902,0.063162
0.136,82.4902,0.063162
0.167,82.4902,0.063162
0.198,82.4902,0.063162
0.229,82.4902,0.063162
0.260,82.4902,0.063162
0.293,82.4902,0.063275
0.323,82.4902,0.063275
0.354,82.4902,0.063275
0.385,82.4902,0.063275
0.417,82.4902,0.063275
0.448,82.4902,0.063275
0.480,82.4902,0.063275
0.510,82.4902,0.063275
0.541,82.4902,0.063332
0.572,82.4902,0.063332
0.603,82.4902,0.063332
0.634,82.4902,0.063332
0.666,82.4902,0.063332
0.696,82.4902,0.063332
0.728,82.4902,0.063332
0.758,82.4902,0.063445
0.789,82.4902,0.063445
0.821,82.4902,0.063445
0.851,82.4902,0.063445
0.882,82.4902,0.063445
0.913,82.4902,0.063445
0.945,82.4902,0.063445
0.975,82.4902,0.063445
1.007,82.4902,0.063445
1.038,82.4902,0.063445
1.069,82.4902,0.063549
1.100,82.4902,0.063549
1.131,82.4902,0.063549
1.162,82.4902,0.063549
1.193,82.4902,0.063549
1.225,82.4902,0.063549
1.257,82.4902,0.063549
1.288,82.4902,0.063549
1.319,82.4902,0.063596
1.349,82.4902,0.063596
1.380,82.4902,0.063596
1.412,82.4902,0.063596
1.443,82.4902,0.063596
1.474,82.4902,0.063596
1.506,82.4902,0.063596
1.536,82.4902,0.063596
1.567,82.4902,0.063671
1.598,82.4902,0.063671
1.629,82.4902,0.063671
1.660,82.4902,0.063671
1.691,82.4902,0.063671
1.722,82.4902,0.063671
1.752,82.4902,0.063671
1.783,82.4902,0.063671
1.814,82.4902,0.063718
1.845,82.4902,0.063718
1.876,82.4902,0.063718
1.907,82.4902,0.063718
1.938,82.4902,0.063718
1.969,82.4902,0.063718
2.000,82.4902,0.063718
2.030,82.4902,0.063718
2.061,82.4902,0.063718
2.093,82.4902,0.063718
2.124,82.4902,0.063718
2.154,82.4902,0.063718
2.185,82.4902,0.063718
2.216,82.4902,0.063718
2.248,82.4902,0.063718
2.279,82.4902,0.063718
2.310,82.4902,0.063718
2.341,82.4902,0.063718
2.371,82.4902,0.063718
2.403,82.4902,0.063718
2.433,82.4902,0.063718
2.464,82.4902,0.063718
2.495,82.4902,0.063718
2.526,82.4902,0.063718
2.557,82.4902,0.063756
2.587,82.4902,0.063756
2.619,82.4902,0.063756
2.649,82.4902,0.063756
2.680,82.4902,0.063756
2.711,82.4902,0.063756
2.742,82.4902,0.063756
2.773,82.4902,0.063756
2.804,82.4902,0.063850
2.835,82.4902,0.063850
2.866,82.4902,0.063850
2.897,82.4902,0.063850
2.929,82.4902,0.063850
2.960,82.4902,0.063850
2.991,82.4902,0.063850
3.023,82.4902,0.063850
3.054,82.4902,0.063878
3.085,82.4902,0.063878
3.115,82.4902,0.063878
3.147,82.4902,0.063878
3.177,82.4902,0.063878
3.208,82.4902,0.063878
3.239,82.4902,0.063878
3.271,82.4902,0.063878
3.301,82.4902,0.063831
3.332,82.4902,0.063831
3.364,82.4902,0.063831
3.395,82.4902,0.063831
3.426,82.4902,0.063831
3.457,82.4902,0.063831
3.487,82.4902,0.063831
3.518,82.4902,0.063831
3.548,82.4902,0.063869
3.579,82.4902,0.063869
3.611,82.4902,0.063869
3.642,82.4902,0.063869
3.674,82.4902,0.063869
3.704,82.4902,0.063869
3.736,82.4902,0.063869
3.766,82.4902,0.063869
3.797,82.4902,0.063878
3.829,82.4902,0.063878
3.860,82.4902,0.063878
3.892,82.4902,0.063878
3.923,82.4902,0.063878
3.954,82.4902,0.063878
3.985,82.4902,0.063878
4.017,82.4902,0.063926
4.047,82.4902,0.063926
4.079,82.4897,0.063926
4.110,82.4885,0.063926
4.140,82.4866,0.063926
4.171,82.4840,0.063926
4.201,82.4807,0.063926
4.231,82.4768,0.063926
4.263,82.4717,0.064387
4.294,82.4663,0.064387
4.325,82.4601,0.064387
4.356,82.4540,0.064387
4.387,82.4478,0.064387
4.418,82.4416,0.064387
4.448,82.4354,0.064387
4.479,82.4292,0.064387
4.511,82.4230,0.064387
4.542,82.4166,0.065640
4.574,82.4102,0.065640
4.606,82.4039,0.065640
4.636,82.3979,0.065640
4.667,82.3916,0.065640
4.699,82.3854,0.065640
4.731,82.3790,0.065640
4.761,82.3730,0.065640
4.792,82.3666,0.066799
4.823,82.3605,0.066799
4.854,82.3543,0.066799
4.885,82.3482,0.066799
4.916,82.3419,0.066799
4.948,82.3354,0.066799
4.980,82.3291,0.066799
5.011,82.3229,0.067242
5.043,82.3166,0.067242
5.074,82.3104,0.067242
5.106,82.3039,0.067242
5.136,82.2980,0.067242
5.167,82.2918,0.067242
5.198,82.2856,0.067242
5.229,82.2793,0.067242
5.259,82.2733,0.067242
5.290,82.2670,0.067242
5.321,82.2609,0.067525
5.353,82.2545,0.067525
5.383,82.2485,0.067525
5.415,82.2420,0.067525
5.446,82.2361,0.067525
5.477,82.2298,0.067525
5.508,82.2236,0.067525
5.540,82.2171,0.067525
5.570,82.2109,0.067760
5.602,82.2048,0.067760
5.632,82.1988,0.067760
5.664,82.1923,0.067760
5.694,82.1864,0.067760
5.725,82.1800,0.067760
5.756,82.1738,0.067760
5.787,82.1678,0.067958
5.818,82.1614,0.067958
5.849,82.1554,0.067958
5.881,82.1490,0.067958
5.911,82.1430,0.067958
5.943,82.1366,0.067958
5.973,82.1304,0.067958
6.005,82.1242,0.067958
6.036,82.1180,0.068118
6.067,82.1117,0.068118
6.098,82.1055,0.068118
6.129,82.0993,0.068118
6.160,82.0932,0.068118
6.191,82.0868,0.068118
6.222,82.0808,0.068118
6.252,82.0746,0.068118
6.284,82.0685,0.068354
6.314,82.0622,0.068354
6.345,82.0560,0.068354
6.376,82.0497,0.068354
6.408,82.0435,0.068354
6.439,82.0373,0.068354
6.470,82.0312,0.068354
6.500,82.0251,0.068354
6.533,82.0187,0.068354
6.564,82.0125,0.068570
6.595,82.0060,0.068570
6.626,82.0001,0.068570
6.656,81.9939,0.068570
6.688,81.9877,0.068570
6.718,81.9815,0.068570
6.749,81.9754,0.068570
6.781,81.9691,0.068570
6.811,81.9629,0.068759
6.842,81.9567,0.068759
6.873,81.9505,0.068759
6.904,81.9444,0.068759
6.935,81.9381,0.068759
6.967,81.9319,0.068759
6.998,81.9255,0.068759
7.030,81.9192,0.068928
7.060,81.9130,0.068928
7.092,81.9067,0.068928
7.123,81.9005,0.068928
7.153,81.8945,0.068928
7.184,81.8885,0.068928
7.215,81.8821,0.068928
7.246,81.8759,0.068928
7.277,81.8697,0.069107
7.308,81.8635,0.069107
7.338,81.8573,0.069107
7.370,81.8513,0.069107
7.401,81.8448,0.069107
7.433,81.8387,0.069107
7.465,81.8322,0.069107
7.496,81.8260,0.069107
7.527,81.8197,0.069268
7.559,81.8134,0.069268
7.590,81.8070,0.069268
7.622,81.8008,0.069268
7.653,81.7944,0.069268
7.685,81.7882,0.069268
7.715,81.7823,0.069268
7.746,81.7760,0.069268
7.777,81.7699,0.069418
7.808,81.7634,0.069418
7.840,81.7572,0.069418
7.871,81.7508,0.069418
7.903,81.7446,0.069418
7.933,81.7384,0.069418
7.964,81.7324,0.069418
7.995,81.7261,0.069418
8.026,81.7200,0.069418
8.056,81.7138,0.069418
8.088,81.7076,0.069635
8.120,81.7012,0.069635
8.151,81.6950,0.069635
8.183,81.6885,0.069635
8.214,81.6825,0.069635
8.244,81.6763,0.069635
8.276,81.6701,0.069814
8.306,81.6639,0.069814
8.337,81.6577,0.069814
8.368,81.6516,0.069814
8.399,81.6454,0.069814
8.430,81.6393,0.069814
8.461,81.6331,0.069814
8.492,81.6268,0.069814
8.523,81.6206,0.069814
8.554,81.6145,0.069814
8.584,81.6083,0.069937
8.616,81.6021,0.069937
8.646,81.5959,0.069937
8.678,81.5897,0.069937
8.709,81.5834,0.069937
8.741,81.5770,0.069937
8.771,81.5710,0.069937
8.803,81.5645,0.070078
8.834,81.5584,0.070078
8.866,81.5521,0.070078
8.899,81.5455,0.070078
8.928,81.5396,0.070078
8.959,81.5333,0.070078
8.990,81.5271,0.070078
9.021,81.5210,0.070078
9.052,81.5147,0.070078
9.083,81.5086,0.070257
9.114,81.5024,0.070257
9.145,81.4962,0.070257
9.176,81.4900,0.070257
9.208,81.4836,0.070257
9.238,81.4776,0.070257
9.269,81.4714,0.070257
9.300,81.4652,0.070257
9.331,81.4590,0.070455
9.362,81.4526,0.070455
9.394,81.4463,0.070455
9.425,81.4402,0.070455
9.456,81.4340,0.070455
9.487,81.4278,0.070455
9.518,81.4215,0.070455
9.549,81.4154,0.070634
9.581,81.4089,0.070634
9.612,81.4028,0.070634
9.645,81.3962,0.070634
9.674,81.3904,0.070634
9.706,81.3839,0.070634
9.736,81.3780,0.070634
9.767,81.3717,0.070634
9.797,81.3656,0.070803
9.829,81.3594,0.070803
9.860,81.3532,0.070803
9.891,81.3470,0.070803
9.922,81.3409,0.070803
9.953,81.3344,0.070803
9.984,81.3280,0.070803
10.014,81.3223,0.070803
10.046,81.3160,0.070907
10.077,81.3098,0.070907
10.108,81.3037,0.070907
10.139,81.2974,0.070907
10.170,81.2912,0.070907
10.202,81.2848,0.070907
10.233,81.2788,0.070907
10.264,81.2723,0.070907
10.295,81.2664,0.071039
10.325,81.2602,0.071039
10.357,81.2540,0.071039
10.388,81.2476,0.071039
10.419,81.2413,0.071039
10.450,81.2352,0.071039
10.480,81.2292,0.071039
10.511,81.2229,0.071039
10.542,81.2167,0.071039
10.573,81.2104,0.071199
10.604,81.2042,0.071199
10.635,81.1983,0.071199
10.666,81.1921,0.071199
10.697,81.1859,0.071199
10.727,81.1798,0.071199
10.758,81.1736,0.071199
10.790,81.1674,0.071340
10.821,81.1609,0.071340
10.852,81.1549,0.071340
10.883,81.1485,0.071340
10.915,81.1423,0.071340
10.945,81.1361,0.071340
10.977,81.1298,0.071340
11.008,81.1236,0.071340
11.039,81.1174,0.071472
11.070,81.1112,0.071472
11.102,81.1049,0.071472
11.133,81.0986,0.071472
11.163,81.0926,0.071472
11.193,81.0865,0.071472
11.224,81.0804,0.071472
11.255,81.0741,0.071472
11.287,81.0679,0.071623
11.317,81.0617,0.071623
11.349,81.0555,0.071623
11.380,81.0491,0.071623
11.411,81.0430,0.071623
11.442,81.0367,0.071623
11.474,81.0306,0.071623
11.505,81.0243,0.071623
11.535,81.0182,0.071802
11.566,81.0120,0.071802
11.597,81.0058,0.071802
11.627,80.9998,0.071802
11.659,80.9935,0.071802
11.690,80.9873,0.071802
11.721,80.9811,0.071802
11.751,80.9749,0.071802
11.783,80.9687,0.071943
11.814,80.9624,0.071943
11.844,80.9563,0.071943
11.876,80.9501,0.071943
11.907,80.9439,0.071943
11.938,80.9376,0.071943
11.970,80.9312,0.071943
12.001,80.9250,0.071943
12.032,80.9188,0.072019
12.063,80.9125,0.072019
12.095,80.9063,0.072019
12.125,80.9002,0.072019
12.156,80.8940,0.072019
12.187,80.8878,0.072019
12.218,80.8814,0.072019
12.248,80.8756,0.072019
12.279,80.8694,0.072019
12.310,80.8633,0.072141
12.341,80.8570,0.072141
12.371,80.8510,0.072141
12.403,80.8446,0.072141
12.435,80.8384,0.072141
12.464,80.8324,0.072141
12.495,80.8263,0.072141
12.525,80.8201,0.072264
12.556,80.8139,0.072264
12.586,80.8080,0.072264
12.617,80.8019,0.072264
12.648,80.7956,0.072264
12.679,80.7895,0.072264
12.710,80.7833,0.072264
12.741,80.7771,0.072264
12.771,80.7710,0.072264
12.802,80.7647,0.072348
12.834,80.7585,0.072348
12.865,80.7523,0.072348
12.896,80.7461,0.072348
12.927,80.7399,0.072348
12.958,80.7337,0.072348
12.990,80.7271,0.072348
13.021,80.7210,0.072452
13.051,80.7149,0.072452
13.082,80.7087,0.072452
13.113,80.7027,0.072452
13.145,80.6962,0.072452
13.176,80.6900,0.072452
13.208,80.6837,0.072452
13.239,80.6775,0.072452
13.269,80.6714,0.072452
13.300,80.6651,0.072537
13.331,80.6590,0.072537
13.362,80.6526,0.072537
13.394,80.6465,0.072537
13.425,80.6402,0.072537
13.456,80.6340,0.072537
13.487,80.6276,0.072537
13.519,80.6214,0.072537
13.550,80.6151,0.072537
13.581,80.6089,0.072622
13.612,80.6026,0.072622
13.644,80.5964,0.072622
13.676,80.5899,0.072622
13.708,80.5836,0.072622
13.739,80.5773,0.072622
13.770,80.5713,0.072622
13.800,80.5651,0.072716
13.832,80.5588,0.072716
13.863,80.5525,0.072716
13.896,80.5460,0.072716
13.925,80.5401,0.072716
13.956,80.5339,0.072716
13.987,80.5278,0.072716
14.018,80.5217,0.072716
14.048,80.5155,0.072716
14.079,80.5094,0.072810
14.111,80.5031,0.072810
14.142,80.4969,0.072810
14.173,80.4907,0.072810
14.204,80.4845,0.072810
14.235,80.4782,0.072810
14.265,80.4722,0.072810
14.296,80.4660,0.072876
14.328,80.4597,0.072876
14.360,80.4533,0.072876
14.390,80.4473,0.072876
14.421,80.4411,0.072876
14.452,80.4348,0.072876
14.483,80.4286,0.072876
14.513,80.4224,0.072876
14.545,80.4163,0.072970
14.576,80.4100,0.072970
14.606,80.4040,0.072970
14.638,80.3976,0.072970
14.669,80.3915,0.072970
14.700,80.3852,0.072970
14.730,80.3792,0.072970
14.761,80.3730,0.072970
14.792,80.3669,0.073046
14.823,80.3607,0.073046
14.853,80.3544,0.073046
14.884,80.3483,0.073046
14.916,80.3421,0.073046
14.946,80.3361,0.073046
14.976,80.3297,0.073046
15.008,80.3237,0.073046
15.040,80.3171,0.073083
15.070,80.3111,0.073083
15.102,80.3049,0.073083
15.133,80.2986,0.073083
15.165,80.2923,0.073083
15.196,80.2860,0.073083
15.228,80.2798,0.073083
15.260,80.2733,0.073083
15.291,80.2669,0.073112
15.322,80.2608,0.073112
15.354,80.2545,0.073112
15.386,80.2481,0.073112
15.416,80.2420,0.073112
15.447,80.2357,0.073112
15.478,80.2298,0.073112
15.509,80.2234,0.073112
15.540,80.2172,0.073168
15.571,80.2110,0.073168
15.602,80.2047,0.073168
15.633,80.1986,0.073168
15.664,80.1923,0.073168
15.696,80.1861,0.073168
15.727,80.1797,0.073168
15.759,80.1735,0.073168
15.789,80.1674,0.073206
15.820,80.1613,0.073206
15.851,80.1549,0.073206
15.883,80.1487,0.073206
15.913,80.1426,0.073206
15.944,80.1365,0.073206
15.975,80.1302,0.073206
16.006,80.1241,0.073206
16.038,80.1177,0.073234
16.069,80.1115,0.073234
16.100,80.1051,0.073234
16.130,80.0993,0.073234
16.161,80.0931,0.073234
16.193,80.0868,0.073234
16.224,80.0804,0.073234
16.256,80.0741,0.073234
16.287,80.0679,0.073234
16.317,80.0620,0.073272
16.348,80.0556,0.073272
16.379,80.0494,0.073272
16.411,80.0430,0.073272
16.441,80.0370,0.073272
16.473,80.0306,0.073272
16.504,80.0243,0.073272
16.536,80.0181,0.073272
16.567,80.0119,0.073281
16.598,80.0055,0.073281
16.629,79.9995,0.073281
16.660,79.9933,0.073281
16.692,79.9868,0.073281
16.722,79.9809,0.073281
16.752,79.9748,0.073281
16.784,79.9686,0.073281
16.814,79.9625,0.073262
16.845,79.9563,0.073262
16.876,79.9501,0.073262
16.907,79.9436,0.073262
16.938,79.9377,0.073262
16.969,79.9314,0.073262
17.001,79.9252,0.073262
17.032,79.9188,0.073262
17.063,79.9125,0.073244
17.094,79.9064,0.073244
17.125,79.9004,0.073244
17.156,79.8942,0.073244
17.187,79.8880,0.073244
17.218,79.8818,0.073244
17.249,79.8754,0.073244
17.280,79.8691,0.073244
17.312,79.8629,0.073225
17.342,79.8568,0.073225
17.373,79.8506,0.073225
17.404,79.8444,0.073225
17.435,79.8384,0.073225
17.466,79.8320,0.073225
17.497,79.8258,0.073225
17.528,79.8196,0.073225
17.559,79.8135,0.073206
17.590,79.8072,0.073206
17.621,79.8009,0.073206
17.653,79.7947,0.073206
17.684,79.7885,0.073206
17.715,79.7823,0.073206
17.747,79.7760,0.073206
17.777,79.7698,0.073206
17.808,79.7637,0.073159
17.839,79.7575,0.073159
17.870,79.7514,0.073159
17.901,79.7450,0.073159
17.933,79.7386,0.073159
17.964,79.7324,0.073159
17.995,79.7262,0.073159
18.026,79.7200,0.073159
18.058,79.7137,0.073036
18.090,79.7073,0.073036
18.122,79.7009,0.073036
18.153,79.6946,0.073036
18.184,79.6885,0.073036
18.216,79.6822,0.073036
18.247,79.6760,0.073036
18.278,79.6698,0.072914
18.308,79.6635,0.072914
18.339,79.6574,0.072914
18.370,79.6511,0.072914
18.401,79.6452,0.072914
18.432,79.6388,0.072914
18.462,79.6328,0.072914
18.493,79.6266,0.072914
18.523,79.6208,0.072914
18.554,79.6145,0.072867
18.586,79.6080,0.072867
18.617,79.6020,0.072867
18.647,79.5958,0.072867
18.679,79.5896,0.072867
18.710,79.5832,0.072867
18.740,79.5773,0.072867
18.772,79.5710,0.072867
18.803,79.5645,0.072867
18.834,79.5584,0.072867
18.865,79.5522,0.072867
18.896,79.5460,0.072867
18.928,79.5397,0.072867
18.958,79.5337,0.072867
18.989,79.5274,0.072867
19.021,79.5212,0.072801
19.052,79.5149,0.072801
19.082,79.5088,0.072801
19.113,79.5026,0.072801
19.145,79.4963,0.072801
19.176,79.4900,0.072801
19.207,79.4839,0.072801
19.238,79.4776,0.072801
19.269,79.4712,0.072801
19.300,79.4653,0.072678
19.332,79.4595,0.072678
19.362,79.4546,0.072678
19.394,79.4503,0.072678
19.423,79.4471,0.072678
19.455,79.4442,0.072678
19.486,79.4422,0.072678
19.516,79.4409,0.072678
19.547,79.4402,0.072462
19.578,79.4402,0.072462
19.609,79.4402,0.072462
19.639,79.4402,0.072462
19.671,79.4402,0.072462
19.701,79.4402,0.072462
19.732,79.4402,0.072462
19.764,79.4402,0.072462
19.795,79.4402,0.072141
19.826,79.4402,0.072141
19.857,79.4402,0.072141
19.888,79.4402,0.072141
19.919,79.4402,0.072141
19.950,79.4402,0.072141
19.980,79.4402,0.072141
20.011,79.4402,0.072141
20.043,79.4402,0.072009
20.074,79.4402,0.072009
20.104,79.4402,0.072009
20.135,79.4402,0.072009
20.165,79.4402,0.072009
20.197,79.4406,0.072009
20.227,79.4417,0.072009
20.259,79.4437,0.072009
20.290,79.4462,0.071981
20.322,79.4497,0.071981
20.353,79.4536,0.071981
20.384,79.4583,0.071981
20.415,79.4639,0.071981
20.446,79.4702,0.071981
20.476,79.4762,0.071981
20.507,79.4824,0.071981
20.539,79.4889,0.071727
20.570,79.4949,0.071727
20.600,79.5010,0.071727
20.631,79.5072,0.071727
20.662,79.5133,0.071727
20.693,79.5197,0.071727
20.725,79.5259,0.071727
20.756,79.5321,0.071727
20.788,79.5385,0.071435
20.820,79.5449,0.071435
20.851,79.5511,0.071435
20.883,79.5574,0.071435
20.913,79.5636,0.071435
20.944,79.5700,0.071435
20.976,79.5760,0.071435
21.007,79.5824,0.071435
21.038,79.5884,0.071435
21.069,79.5948,0.071359
21.099,79.6008,0.071359
21.131,79.6072,0.071359
21.161,79.6132,0.071359
21.192,79.6196,0.071359
21.223,79.6255,0.071359
21.254,79.6319,0.071359
21.285,79.6378,0.071331
21.316,79.6443,0.071331
21.347,79.6503,0.071331
21.378,79.6568,0.071331
21.409,79.6627,0.071331
21.440,79.6691,0.071331
21.471,79.6751,0.071331
21.502,79.6813,0.071331
21.533,79.6877,0.071303
21.565,79.6939,0.071303
21.596,79.7002,0.071303
21.627,79.7064,0.071303
21.657,79.7122,0.071303
21.688,79.7185,0.071303
21.719,79.7246,0.071303
21.751,79.7312,0.071303
21.781,79.7371,0.071274
21.813,79.7436,0.071274
21.845,79.7500,0.071274
21.875,79.7560,0.071274
21.907,79.7623,0.071274
21.938,79.7685,0.071274
21.969,79.7747,0.071274
22.000,79.7809,0.071274
22.031,79.7873,0.071274
22.061,79.7932,0.071171
22.094,79.7997,0.071171
22.124,79.8056,0.071171
22.155,79.8121,0.071171
22.186,79.8181,0.071171
22.217,79.8245,0.071171
22.248,79.8305,0.071171
22.279,79.8369,0.071171
22.310,79.8431,0.071142
22.341,79.8494,0.071142
22.373,79.8555,0.071142
22.403,79.8618,0.071142
22.435,79.8680,0.071142
22.467,79.8744,0.071142
22.499,79.8806,0.071142
22.531,79.8872,0.071058
22.561,79.8932,0.071058
22.592,79.8994,0.071058
22.623,79.9056,0.071058
22.654,79.9118,0.071058
22.687,79.9183,0.071058
22.717,79.9243,0.071058
22.747,79.9304,0.071058
22.777,79.9363,0.071058
22.808,79.9425,0.070954
22.840,79.9489,0.070954
22.872,79.9553,0.070954
22.902,79.9614,0.070954
22.933,79.9675,0.070954
22.964,79.9737,0.070954
22.995,79.9800,0.070954
23.027,79.9863,0.070954
23.058,79.9924,0.070945
23.090,79.9991,0.070945
23.122,80.0053,0.070945
23.152,80.0115,0.070945
23.183,80.0176,0.070945
23.214,80.0236,0.070945
23.244,80.0297,0.070945
23.275,80.0360,0.070888
23.306,80.0422,0.070888
23.336,80.0482,0.070888
23.367,80.0545,0.070888
23.399,80.0608,0.070888
23.430,80.0671,0.070888
23.461,80.0731,0.070888
23.493,80.0796,0.070888
23.524,80.0858,0.070888
23.555,80.0921,0.070822
23.587,80.0983,0.070822
23.618,80.1048,0.070822
23.650,80.1110,0.070822
23.682,80.1174,0.070822
23.714,80.1237,0.070822
23.744,80.1297,0.070822
23.774,80.1358,0.070766
23.806,80.1420,0.070766
23.837,80.1484,0.070766
23.868,80.1545,0.070766
23.899,80.1608,0.070766
23.931,80.1671,0.070766
23.961,80.1731,0.070766
23.991,80.1792,0.070766
24.022,80.1854,0.070766
24.053,80.1914,0.070700
24.084,80.1978,0.070700
24.114,80.2038,0.070700
24.145,80.2098,0.070700
24.176,80.2163,0.070700
24.208,80.2226,0.070700
24.239,80.2289,0.070700
24.270,80.2349,0.070615
24.301,80.2413,0.070615
24.332,80.2473,0.070615
24.364,80.2536,0.070615
24.394,80.2597,0.070615
24.425,80.2659,0.070615
24.457,80.2723,0.070615
24.488,80.2785,0.070615
24.519,80.2848,0.070615
24.550,80.2910,0.070577
24.581,80.2972,0.070577
24.612,80.3032,0.070577
24.643,80.3096,0.070577
24.675,80.3161,0.070577
24.706,80.3222,0.070577
24.737,80.3284,0.070577
24.767,80.3344,0.070577
24.799,80.3406,0.070511
24.830,80.3471,0.070511
24.862,80.3533,0.070511
24.893,80.3595,0.070511
24.924,80.3657,0.070511
24.955,80.3719,0.070511
24.986,80.3781,0.070511
25.017,80.3843,0.070408
25.048,80.3904,0.070408
25.079,80.3970,0.070408
25.110,80.4029,0.070408
25.141,80.4092,0.070408
25.173,80.4154,0.070408
25.204,80.4219,0.070408
25.236,80.4282,0.070408
25.266,80.4342,0.070408
25.298,80.4405,0.070379
25.329,80.4469,0.070379
25.361,80.4530,0.070379
25.392,80.4593,0.070379
25.423,80.4654,0.070379
25.454,80.4717,0.070379
25.485,80.4778,0.070379
25.516,80.4840,0.070304
25.548,80.4905,0.070304
25.578,80.4965,0.070304
25.609,80.5029,0.070304
25.640,80.5091,0.070304
25.671,80.5150,0.070304
25.702,80.5213,0.070304
25.733,80.5275,0.070304
25.763,80.5335,0.070304
25.794,80.5397,0.070106
25.825,80.5459,0.070106
25.856,80.5521,0.070106
25.887,80.5584,0.070106
25.920,80.5649,0.070106
25.950,80.5711,0.070106
25.983,80.5775,0.070106
26.013,80.5836,0.070106
26.045,80.5898,0.070002
26.076,80.5963,0.070002
26.107,80.6023,0.070002
26.139,80.6088,0.070002
26.170,80.6150,0.070002
26.201,80.6212,0.070002
26.232,80.6273,0.070002
26.262,80.6333,0.070002
26.294,80.6397,0.069908
26.325,80.6459,0.069908
26.356,80.6519,0.069908
26.386,80.6581,0.069908
26.418,80.6646,0.069908
26.449,80.6707,0.069908
26.481,80.6770,0.069908
26.511,80.6832,0.069908
26.543,80.6895,0.069758
26.574,80.6958,0.069758
26.604,80.7017,0.069758
26.637,80.7084,0.069758
26.669,80.7148,0.069758
26.699,80.7207,0.069758
26.730,80.7270,0.069758
26.761,80.7331,0.069626
26.792,80.7393,0.069626
26.823,80.7456,0.069626
26.854,80.7518,0.069626
26.886,80.7582,0.069626
26.917,80.7642,0.069626
26.949,80.7708,0.069626
26.979,80.7767,0.069626
27.011,80.7832,0.069626
27.042,80.7895,0.069531
27.072,80.7954,0.069531
27.103,80.8015,0.069531
27.134,80.8078,0.069531
27.165,80.8139,0.069531
27.196,80.8202,0.069531
27.227,80.8263,0.069531
27.258,80.8325,0.069531
27.289,80.8387,0.069315
27.321,80.8453,0.069315
27.352,80.8514,0.069315
27.384,80.8576,0.069315
27.414,80.8638,0.069315
27.446,80.8701,0.069315
27.477,80.8764,0.069315
27.509,80.8826,0.069315
27.540,80.8890,0.069089
27.571,80.8952,0.069089
27.601,80.9011,0.069089
27.633,80.9077,0.069089
27.664,80.9136,0.069089
27.696,80.9201,0.069089
27.725,80.9259,0.069089
27.757,80.9324,0.069089
27.788,80.9386,0.069089
27.819,80.9449,0.068910
27.850,80.9510,0.068910
27.882,80.9574,0.068910
27.914,80.9639,0.068910
27.945,80.9701,0.068910
27.977,80.9763,0.068910
28.008,80.9825,0.068910
28.039,80.9887,0.068910
28.070,80.9950,0.068712
28.101,81.0013,0.068712
28.132,81.0074,0.068712
28.163,81.0136,0.068712
28.194,81.0197,0.068712
28.225,81.0260,0.068712
28.256,81.0321,0.068712
28.287,81.0384,0.068712
28.318,81.0445,0.068523
28.349,81.0507,0.068523
28.379,81.0568,0.068523
28.412,81.0632,0.068523
28.442,81.0693,0.068523
28.474,81.0757,0.068523
28.504,81.0819,0.068523
28.535,81.0880,0.068523
28.566,81.0943,0.068288
28.597,81.1004,0.068288
28.628,81.1066,0.068288
28.660,81.1128,0.068288
28.691,81.1191,0.068288
28.722,81.1255,0.068288
28.753,81.1315,0.068288
28.785,81.1379,0.068033
28.815,81.1441,0.068033
28.846,81.1503,0.068033
28.878,81.1565,0.068033
28.909,81.1628,0.068033
28.941,81.1691,0.068033
28.973,81.1756,0.068033
29.004,81.1816,0.068033
29.036,81.1882,0.067817
29.067,81.1944,0.067817
29.099,81.2007,0.067817
29.130,81.2070,0.067817
29.161,81.2132,0.067817
29.192,81.2194,0.067817
29.224,81.2259,0.067817
29.255,81.2320,0.067817
29.287,81.2382,0.067572
29.318,81.2445,0.067572
29.349,81.2507,0.067572
29.379,81.2567,0.067572
29.411,81.2630,0.067572
29.441,81.2692,0.067572
29.473,81.2755,0.067572
29.504,81.2817,0.067572
29.535,81.2878,0.067270
29.566,81.2941,0.067270
29.597,81.3002,0.067270
29.628,81.3067,0.067270
29.659,81.3126,0.067270
29.691,81.3191,0.067270
29.722,81.3253,0.067270
29.752,81.3313,0.067270
29.783,81.3377,0.067063
29.815,81.3437,0.067063
29.845,81.3499,0.067063
29.876,81.3562,0.067063
29.906,81.3621,0.067063
29.936,81.3683,0.067063
29.968,81.3744,0.067063
29.999,81.3807,0.067063
30.030,81.3869,0.066818
30.061,81.3931,0.066818
30.092,81.3993,0.066818
30.124,81.4056,0.066818
30.154,81.4117,0.066818
30.186,81.4182,0.066818
30.217,81.4242,0.066818
30.248,81.4306,0.066818
30.280,81.4368,0.066498
30.310,81.4428,0.066498
30.342,81.4494,0.066498
30.374,81.4557,0.066498
30.405,81.4619,0.066498
30.436,81.4681,0.066498
30.467,81.4742,0.066498
30.498,81.4804,0.066498
30.530,81.4869,0.066253
30.560,81.4929,0.066253
30.591,81.4993,0.066253
30.621,81.5051,0.066253
30.653,81.5114,0.066253
30.684,81.5178,0.066253
30.717,81.5242,0.066253
30.747,81.5303,0.066253
30.779,81.5366,0.065998
30.810,81.5428,0.065998
30.840,81.5489,0.065998
30.872,81.5553,0.065998
30.903,81.5614,0.065998
30.934,81.5677,0.065998
30.965,81.5741,0.065998
30.997,81.5803,0.065998
31.029,81.5867,0.065734
31.059,81.5928,0.065734
31.091,81.5991,0.065734
31.122,81.6052,0.065734
31.153,81.6116,0.065734
31.184,81.6178,0.065734
31.215,81.6240,0.065734
31.246,81.6300,0.065734
31.276,81.6362,0.065508
31.307,81.6424,0.065508
31.339,81.6487,0.065508
31.370,81.6548,0.065508
31.401,81.6610,0.065508
31.432,81.6672,0.065508
31.463,81.6735,0.065508
31.495,81.6800,0.065508
31.526,81.6861,0.065245
31.556,81.6921,0.065245
31.587,81.6985,0.065245
31.617,81.7044,0.065245
31.649,81.7106,0.065245
31.680,81.7168,0.065245
31.711,81.7231,0.065245
31.742,81.7293,0.065245
31.774,81.7357,0.065245
31.805,81.7417,0.065245
31.836,81.7481,0.064971
31.867,81.7543,0.064971
31.899,81.7606,0.064971
31.931,81.7670,0.064971
31.963,81.7734,0.064971
31.994,81.7796,0.064971
32.025,81.7860,0.064971
32.056,81.7921,0.064971
32.087,81.7983,0.064679
32.117,81.8042,0.064679
32.149,81.8108,0.064679
32.180,81.8168,0.064679
32.210,81.8229,0.064679
32.241,81.8292,0.064679
32.272,81.8353,0.064679
32.303,81.8416,0.064387
32.334,81.8477,0.064387
32.364,81.8537,0.064387
32.395,81.8601,0.064387
32.427,81.8663,0.064387
32.458,81.8725,0.064387
32.489,81.8787,0.064387
32.519,81.8849,0.064387
32.552,81.8913,0.064387
32.583,81.8975,0.064105
32.613,81.9036,0.064105
32.645,81.9100,0.064105
32.676,81.9160,0.064105
32.708,81.9226,0.064105
32.739,81.9286,0.064105
32.770,81.9350,0.064105
32.800,81.9408,0.063888
32.832,81.9472,0.063888
32.863,81.9534,0.063888
32.893,81.9594,0.063888
32.924,81.9656,0.063888
32.955,81.9719,0.063888
32.986,81.9780,0.063888
33.016,81.9841,0.063888
33.048,81.9904,0.063624
33.079,81.9967,0.063624
33.110,82.0031,0.063624
33.141,82.0093,0.063624
33.172,82.0155,0.063624
33.203,82.0215,0.063624
33.234,82.0276,0.063624
33.265,82.0341,0.063624
33.297,82.0401,0.063332
33.328,82.0465,0.063332
33.359,82.0527,0.063332
33.390,82.0589,0.063332
33.422,82.0652,0.063332
33.452,82.0714,0.063332
33.483,82.0775,0.063332
33.515,82.0838,0.063332
33.546,82.0900,0.063049
33.577,82.0962,0.063049
33.608,82.1025,0.063049
33.640,82.1087,0.063049
33.670,82.1153,0.063049
33.702,82.1213,0.063049
33.733,82.1275,0.063049
33.764,82.1338,0.063049
33.795,82.1399,0.062748
33.826,82.1461,0.062748
33.857,82.1523,0.062748
33.888,82.1585,0.062748
33.918,82.1645,0.062748
33.948,82.1706,0.062748
33.979,82.1766,0.062748
34.010,82.1830,0.062748
34.042,82.1892,0.062484
34.073,82.1955,0.062484
34.104,82.2016,0.062484
34.134,82.2078,0.062484
34.165,82.2140,0.062484
34.196,82.2201,0.062484
34.228,82.2263,0.062484
34.259,82.2325,0.062484
34.288,82.2386,0.062484
34.320,82.2448,0.062183
34.350,82.2509,0.062183
34.381,82.2571,0.062183
34.412,82.2631,0.062183
34.443,82.2695,0.062183
34.474,82.2755,0.062183
34.504,82.2817,0.062183
34.536,82.2881,0.061928
34.567,82.2945,0.061928
34.599,82.3006,0.061928
34.630,82.3069,0.061928
34.661,82.3130,0.061928
34.692,82.3192,0.061928
34.723,82.3255,0.061928
34.753,82.3316,0.061928
34.784,82.3380,0.061655
34.814,82.3437,0.061655
34.845,82.3501,0.061655
34.876,82.3562,0.061655
34.908,82.3626,0.061655
34.939,82.3686,0.061655
34.970,82.3749,0.061655
35.001,82.3810,0.061655
35.032,82.3874,0.061335
35.062,82.3934,0.061335
35.094,82.3997,0.061335
35.124,82.4056,0.061335
35.155,82.4118,0.061335
35.187,82.4180,0.061335
35.217,82.4232,0.061335
35.248,82.4280,0.061335
35.279,82.4317,0.061127
35.310,82.4349,0.061127
35.340,82.4373,0.061127
35.371,82.4390,0.061127
35.403,82.4400,0.061127
35.434,82.4402,0.061127
35.466,82.4402,0.061127
35.497,82.4402,0.061127
35.527,82.4402,0.061127
35.559,82.4402,0.061759
35.589,82.4402,0.061759
35.619,82.4402,0.061759
35.651,82.4402,0.061759
35.681,82.4402,0.061759
35.712,82.4402,0.061759
35.743,82.4402,0.061759
35.773,82.4402,0.061759
35.803,82.4402,0.062823
35.834,82.4402,0.062823
35.865,82.4402,0.062823
35.897,82.4402,0.062823
35.926,82.4402,0.062823
35.956,82.4402,0.062823
35.987,82.4402,0.062823
36.018,82.4402,0.062823
36.049,82.4402,0.063266
36.080,82.4402,0.063266
36.112,82.4402,0.063266
36.143,82.4402,0.063266
36.174,82.4402,0.063266
36.205,82.4402,0.063266
36.237,82.4402,0.063266
36.268,82.4402,0.063266
36.299,82.4402,0.063426
36.330,82.4402,0.063426
36.361,82.4402,0.063426
36.392,82.4402,0.063426
36.423,82.4402,0.063426
36.454,82.4402,0.063426
36.485,82.4402,0.063426
36.516,82.4402,0.063426
36.547,82.4402,0.063511
36.578,82.4402,0.063511
36.609,82.4402,0.063511
36.640,82.4402,0.063511
36.672,82.4402,0.063511
36.702,82.4402,0.063511
36.733,82.4402,0.063511
36.765,82.4402,0.063511
36.795,82.4402,0.063577
36.827,82.4402,0.063577
36.859,82.4402,0.063577
36.890,82.4402,0.063577
36.921,82.4402,0.063577
36.953,82.4402,0.063577
36.984,82.4402,0.063577
37.015,82.4402,0.063577
37.046,82.4402,0.063662
37.077,82.4402,0.063662
37.107,82.4402,0.063662
37.139,82.4402,0.063662
37.170,82.4402,0.063662
37.200,82.4402,0.063662
37.232,82.4402,0.063662
37.264,82.4402,0.063662
37.295,82.4402,0.063690
37.327,82.4402,0.063690
37.357,82.4402,0.063690
37.388,82.4402,0.063690
37.419,82.4402,0.063690
37.450,82.4402,0.063690
37.481,82.4402,0.063690
37.512,82.4402,0.063690
37.544,82.4402,0.063718
37.575,82.4402,0.063718
37.606,82.4402,0.063718
37.636,82.4402,0.063718
37.668,82.4402,0.063718
37.698,82.4402,0.063718
37.729,82.4402,0.063718
37.760,82.4402,0.063718
37.791,82.4402,0.063775
37.822,82.4402,0.063775
37.853,82.4402,0.063775
37.885,82.4402,0.063775
37.917,82.4402,0.063775
37.947,82.4402,0.063775
37.978,82.4402,0.063775
38.010,82.4402,0.063775
38.041,82.4402,0.063878
38.073,82.4402,0.063878
38.104,82.4402,0.063878
38.135,82.4402,0.063878
38.165,82.4402,0.063878
38.196,82.4402,0.063878
38.228,82.4402,0.063878
38.258,82.4402,0.063878
38.289,82.4402,0.063897
38.320,82.4402,0.063897
38.352,82.4402,0.063897
38.385,82.4402,0.063897
38.414,82.4402,0.063897
38.445,82.4402,0.063897
38.477,82.4402,0.063897
38.508,82.4402,0.063897
38.538,82.4402,0.063926
38.569,82.4402,0.063926
38.600,82.4402,0.063926
38.632,82.4402,0.063926
38.663,82.4402,0.063926
38.694,82.4402,0.063926
38.725,82.4402,0.063926
38.756,82.4402,0.063926
38.787,82.4402,0.063926
38.818,82.4402,0.063954
38.849,82.4402,0.063954
38.880,82.4402,0.063954
38.912,82.4402,0.063954
38.942,82.4402,0.063954
38.973,82.4402,0.063954
39.006,82.4402,0.063954
39.037,82.4402,0.063982
39.067,82.4402,0.063982
39.097,82.4402,0.063982
39.129,82.4402,0.063982
39.161,82.4402,0.063982
39.191,82.4402,0.063982
39.222,82.4402,0.063982
39.253,82.4402,0.063982
39.283,82.4402,0.064020
39.315,82.4402,0.064020
39.346,82.4402,0.064020
39.377,82.4402,0.064020
39.408,82.4402,0.064020
39.439,82.4402,0.064020
39.471,82.4402,0.064020
39.501,82.4402,0.064020
39.532,82.4402,0.064039
39.563,82.4402,0.064039
39.593,82.4402,0.064039
39.625,82.4402,0.064039
39.656,82.4402,0.064039
39.687,82.4402,0.064039
39.718,82.4402,0.064039
39.749,82.4402,0.064039
39.780,82.4402,0.064039
39.811,82.4402,0.064039
39.842,82.4402,0.064039
39.873,82.4402,0.064039
39.904,82.4402,0.064039
39.935,82.4402,0.064039
39.966,82.4402,0.064039
39.997,82.4402,0.064039
40.028,82.4402,0.064039
40.059,82.4396,0.064020
40.090,82.4384,0.064020
40.121,82.4364,0.064020
40.152,82.4337,0.064020
40.183,82.4302,0.064020
40.214,82.4261,0.064020
40.244,82.4213,0.064020
40.276,82.4154,0.064020
40.308,82.4092,0.064529
40.338,82.4032,0.064529
40.369,82.3970,0.064529
40.400,82.3908,0.064529
40.430,82.3847,0.064529
40.462,82.3784,0.064529
40.493,82.3722,0.064529
40.523,82.3659,0.064529
40.555,82.3599,0.065942
40.586,82.3535,0.065942
40.617,82.3475,0.065942
40.648,82.3410,0.065942
40.680,82.3347,0.065942
40.710,82.3286,0.065942
40.742,82.3224,0.065942
40.773,82.3161,0.065942
40.804,82.3100,0.066931
40.835,82.3038,0.066931
40.865,82.2977,0.066931
40.896,82.2915,0.066931
40.927,82.2853,0.066931
40.958,82.2791,0.066931
40.990,82.2728,0.066931
41.020,82.2666,0.066931
41.052,82.2602,0.067204
41.083,82.2542,0.067204
41.114,82.2480,0.067204
41.146,82.2416,0.067204
41.177,82.2355,0.067204
41.208,82.2292,0.067204
41.239,82.2228,0.067204
41.270,82.2167,0.067515
41.300,82.2107,0.067515
41.331,82.2046,0.067515
41.362,82.1983,0.067515
41.394,82.1919,0.067515
41.425,82.1857,0.067515
41.456,82.1797,0.067515
41.487,82.1732,0.067515
41.517,82.1673,0.067515
41.549,82.1609,0.067798
41.580,82.1546,0.067798
41.612,82.1483,0.067798
41.644,82.1421,0.067798
41.674,82.1358,0.067798
41.706,82.1297,0.067798
41.736,82.1236,0.067798
41.768,82.1172,0.067798
41.800,82.1108,0.068052
41.830,82.1046,0.068052
41.861,82.0984,0.068052
41.892,82.0924,0.068052
41.925,82.0858,0.068052
41.955,82.0798,0.068052
41.986,82.0736,0.068052
42.018,82.0672,0.068052
42.048,82.0612,0.068052
42.079,82.0548,0.068241
42.110,82.0488,0.068241
42.141,82.0426,0.068241
42.172,82.0363,0.068241
42.204,82.0300,0.068241
42.235,82.0238,0.068241
42.267,82.0174,0.068241
42.297,82.0112,0.068241
42.329,82.0049,0.068467
42.360,81.9986,0.068467
42.391,81.9924,0.068467
42.422,81.9864,0.068467
42.452,81.9804,0.068467
42.483,81.9743,0.068467
42.514,81.9680,0.068467
42.544,81.9619,0.068467
42.574,81.9558,0.068646
42.606,81.9496,0.068646
42.637,81.9433,0.068646
42.668,81.9372,0.068646
42.700,81.9308,0.068646
42.731,81.9245,0.068646
42.764,81.9180,0.068646
42.794,81.9120,0.068834
42.825,81.9056,0.068834
42.857,81.8992,0.068834
42.888,81.8930,0.068834
42.919,81.8870,0.068834
42.950,81.8806,0.068834
42.981,81.8744,0.068834
43.013,81.8681,0.068834
43.042,81.8622,0.068985
43.074,81.8558,0.068985
43.104,81.8500,0.068985
43.134,81.8438,0.068985
43.166,81.8376,0.068985
43.197,81.8313,0.068985
43.228,81.8251,0.068985
43.259,81.8189,0.068985
43.291,81.8127,0.068985
43.322,81.8062,0.069136
43.353,81.8000,0.069136
43.385,81.7937,0.069136
43.417,81.7873,0.069136
43.447,81.7812,0.069136
43.479,81.7750,0.069136
43.510,81.7688,0.069136
43.541,81.7627,0.069136
43.572,81.7564,0.069381
43.603,81.7500,0.069381
43.634,81.7438,0.069381
43.666,81.7375,0.069381
43.696,81.7316,0.069381
43.727,81.7254,0.069381
43.758,81.7189,0.069381
43.788,81.7131,0.069381
43.821,81.7065,0.069522
43.851,81.7006,0.069522
43.881,81.6945,0.069522
43.913,81.6882,0.069522
43.944,81.6820,0.069522
43.975,81.6759,0.069522
44.006,81.6696,0.069522
44.037,81.6635,0.069663
44.069,81.6569,0.069663
44.099,81.6510,0.069663
44.130,81.6448,0.069663
44.161,81.6386,0.069663
44.192,81.6324,0.069663
44.223,81.6260,0.069663
44.255,81.6198,0.069663
44.285,81.6136,0.069663
44.317,81.6073,0.069871
44.349,81.6008,0.069871
44.380,81.5948,0.069871
44.411,81.5884,0.069871
44.442,81.5824,0.069871
44.474,81.5759,0.069871
44.506,81.5697,0.069871
44.537,81.5633,0.069871
44.567,81.5573,0.070068
44.598,81.5512,0.070068
44.630,81.5447,0.070068
44.661,81.5385,0.070068
44.692,81.5323,0.070068
44.724,81.5259,0.070068
44.755,81.5196,0.070068
44.785,81.5138,0.070210
44.816,81.5075,0.070210
44.847,81.5013,0.070210
44.878,81.4952,0.070210
44.908,81.4891,0.070210
44.939,81.4830,0.070210
44.971,81.4766,0.070210
45.003,81.4701,0.070210
45.033,81.4642,0.070210
45.065,81.4578,0.070342
45.096,81.4515,0.070342
45.127,81.4454,0.070342
45.158,81.4391,0.070342
45.190,81.4328,0.070342
45.222,81.4262,0.070342
45.252,81.4204,0.070342
45.283,81.4139,0.070342
45.315,81.4079,0.070521
45.345,81.4018,0.070521
45.376,81.3956,0.070521
45.406,81.3895,0.070521
45.437,81.3832,0.070521
45.468,81.3774,0.070521
45.500,81.3708,0.070521
45.530,81.3648,0.070681
45.562,81.3584,0.070681
45.592,81.3523,0.070681
45.625,81.3457,0.070681
45.655,81.3398,0.070681
45.687,81.3332,0.070681
45.718,81.3271,0.070681
45.749,81.3209,0.070681
45.780,81.3147,0.070681
45.811,81.3085,0.070832
45.842,81.3023,0.070832
45.873,81.2962,0.070832
45.904,81.2900,0.070832
45.934,81.2838,0.070832
45.966,81.2776,0.070832
45.997,81.2713,0.070832
46.029,81.2651,0.070945
46.059,81.2588,0.070945
46.091,81.2526,0.070945
46.123,81.2461,0.070945
46.154,81.2399,0.070945
46.186,81.2335,0.070945
46.217,81.2273,0.070945
46.248,81.2211,0.070945
46.280,81.2149,0.071067
46.311,81.2086,0.071067
46.341,81.2025,0.071067
46.372,81.1963,0.071067
46.403,81.1902,0.071067
46.434,81.1839,0.071067
46.466,81.1777,0.071067
46.497,81.1712,0.071067
46.527,81.1654,0.071312
46.559,81.1590,0.071312
46.589,81.1529,0.071312
46.620,81.1466,0.071312
46.651,81.1406,0.071312
46.683,81.1341,0.071312
46.714,81.1279,0.071312
46.747,81.1214,0.071312
46.778,81.1152,0.071453
46.808,81.1092,0.071453
46.840,81.1028,0.071453
46.871,81.0966,0.071453
46.902,81.0905,0.071453
46.933,81.0840,0.071453
46.965,81.0777,0.071453
46.995,81.0718,0.071453
47.026,81.0654,0.071595
47.058,81.0592,0.071595
47.088,81.0530,0.071595
47.120,81.0467,0.071595
47.151,81.0405,0.071595
47.181,81.0346,0.071595
47.213,81.0281,0.071595
47.244,81.0219,0.071595
47.274,81.0158,0.071717
47.305,81.0099,0.071717
47.337,81.0036,0.071717
47.368,80.9972,0.071717
47.398,80.9911,0.071717
47.429,80.9848,0.071717
47.460,80.9787,0.071717
47.491,80.9725,0.071717
47.521,80.9666,0.071717
47.552,80.9605,0.071717
47.582,80.9544,0.071717
47.613,80.9482,0.071717
47.644,80.9418,0.071717
47.676,80.9356,0.071717
47.707,80.9295,0.071717
47.737,80.9233,0.071717
47.768,80.9171,0.071717
47.798,80.9112,0.071868
47.829,80.9050,0.071868
47.861,80.8986,0.071868
47.892,80.8924,0.071868
47.924,80.8861,0.071868
47.954,80.8800,0.071868
47.985,80.8736,0.071868
48.017,80.8675,0.071868
48.048,80.8612,0.072028
48.078,80.8551,0.072028
48.109,80.8489,0.072028
48.140,80.8428,0.072028
48.172,80.8364,0.072028
48.203,80.8302,0.072028
48.234,80.8238,0.072028
48.265,80.8179,0.072028
48.295,80.8118,0.072151
48.326,80.8056,0.072151
48.357,80.7994,0.072151
48.390,80.7928,0.072151
48.420,80.7869,0.072151
48.451,80.7807,0.072151
48.482,80.7744,0.072151
48.513,80.7683,0.072151
48.544,80.7621,0.072151
48.575,80.7559,0.072264
48.606,80.7497,0.072264
48.636,80.7435,0.072264
48.667,80.7374,0.072264
48.698,80.7312,0.072264
48.729,80.7250,0.072264
48.760,80.7188,0.072264
48.791,80.7127,0.072348
48.822,80.7064,0.072348
48.853,80.6999,0.072348
48.885,80.6939,0.072348
48.915,80.6878,0.072348
48.946,80.6816,0.072348
48.977,80.6755,0.072348
49.008,80.6691,0.072348
49.039,80.6630,0.072462
49.070,80.6567,0.072462
49.101,80.6507,0.072462
49.132,80.6443,0.072462
49.164,80.6381,0.072462
49.195,80.6319,0.072462
49.226,80.6258,0.072462
49.256,80.6195,0.072462
49.287,80.6135,0.072575
49.318,80.6070,0.072575
49.349,80.6011,0.072575
49.379,80.5948,0.072575
49.410,80.5888,0.072575
49.441,80.5825,0.072575
49.473,80.5763,0.072575
49.503,80.5701,0.072575
49.534,80.5638,0.072650
49.565,80.5577,0.072650
49.597,80.5515,0.072650
49.628,80.5453,0.072650
49.658,80.5392,0.072650
49.689,80.5329,0.072650
49.722,80.5264,0.072650
49.752,80.5205,0.072650
49.783,80.5143,0.072650
49.814,80.5081,0.072650
49.844,80.5020,0.072650
49.875,80.4958,0.072650
49.907,80.4895,0.072650
49.937,80.4833,0.072650
49.969,80.4771,0.072650
50.001,80.4705,0.072650
50.031,80.4645,0.072735
50.062,80.4583,0.072735
50.094,80.4520,0.072735
50.125,80.4458,0.072735
50.157,80.4394,0.072735
50.187,80.4334,0.072735
50.218,80.4272,0.072735
50.249,80.4209,0.072735
50.280,80.4147,0.072857
50.311,80.4085,0.072857
50.342,80.4024,0.072857
50.373,80.3962,0.072857
50.404,80.3900,0.072857
50.435,80.3838,0.072857
50.466,80.3777,0.072857
50.496,80.3715,0.072857
50.527,80.3655,0.072933
50.558,80.3590,0.072933
50.589,80.3529,0.072933
50.621,80.3467,0.072933
50.651,80.3406,0.072933
50.682,80.3344,0.072933
50.713,80.3280,0.072933
50.744,80.3219,0.072933
50.775,80.3157,0.072933
50.806,80.3095,0.073102
50.838,80.3032,0.073102
50.868,80.2972,0.073102
50.898,80.2910,0.073102
50.929,80.2851,0.073102
50.960,80.2788,0.073102
50.990,80.2728,0.073102
51.021,80.2665,0.073102
51.052,80.2605,0.073149
51.084,80.2541,0.073149
51.115,80.2478,0.073149
51.146,80.2417,0.073149
51.177,80.2356,0.073149
51.207,80.2294,0.073149
51.238,80.2233,0.073149
51.268,80.2171,0.073149
51.300,80.2109,0.073149
51.332,80.2043,0.073083
51.363,80.1984,0.073083
51.393,80.1922,0.073083
51.424,80.1861,0.073083
51.455,80.1799,0.073083
51.486,80.1736,0.073083
51.517,80.1674,0.073083
51.548,80.1612,0.073102
51.580,80.1549,0.073102
51.612,80.1485,0.073102
51.642,80.1423,0.073102
51.673,80.1363,0.073102
51.704,80.1299,0.073102
51.734,80.1240,0.073102
51.765,80.1178,0.073102
51.796,80.1117,0.073140
51.827,80.1055,0.073140
51.858,80.0993,0.073140
51.889,80.0930,0.073140
51.920,80.0868,0.073140
51.952,80.0804,0.073140
51.983,80.0742,0.073140
52.015,80.0679,0.073140
52.045,80.0618,0.073178
52.076,80.0556,0.073178
52.107,80.0494,0.073178
52.137,80.0434,0.073178
52.169,80.0372,0.073178
52.200,80.0307,0.073178
52.231,80.0246,0.073178
52.262,80.0184,0.073178
52.292,80.0124,0.073234
52.324,80.0060,0.073234
52.356,79.9997,0.073234
52.387,79.9935,0.073234
52.418,79.9872,0.073234
52.449,79.9810,0.073234
52.480,79.9748,0.073234
52.511,79.9686,0.073234
52.543,79.9621,0.073253
52.574,79.9560,0.073253
52.606,79.9496,0.073253
52.637,79.9435,0.073253
52.667,79.9373,0.073253
52.698,79.9312,0.073253
52.729,79.9248,0.073253
52.760,79.9187,0.073253
52.792,79.9123,0.073215
52.823,79.9062,0.073215
52.854,79.9000,0.073215
52.884,79.8940,0.073215
52.914,79.8881,0.073215
52.944,79.8818,0.073215
52.975,79.8758,0.073215
53.008,79.8692,0.073159
53.037,79.8634,0.073159
53.069,79.8570,0.073159
53.100,79.8509,0.073159
53.132,79.8443,0.073159
53.163,79.8384,0.073159
53.194,79.8319,0.073159
53.225,79.8259,0.073159
53.256,79.8196,0.073159
53.288,79.8133,0.073121
53.317,79.8072,0.073121
53.349,79.8011,0.073121
53.380,79.7948,0.073121
53.411,79.7885,0.073121
53.442,79.7824,0.073121
53.474,79.7761,0.073121
53.504,79.7700,0.073121
53.535,79.7637,0.073130
53.566,79.7575,0.073130
53.597,79.7514,0.073130
53.628,79.7451,0.073130
53.660,79.7389,0.073130
53.691,79.7326,0.073130
53.721,79.7267,0.073130
53.752,79.7203,0.073130
53.783,79.7141,0.073130
53.814,79.7079,0.073055
53.846,79.7016,0.073055
53.877,79.6955,0.073055
53.908,79.6893,0.073055
53.938,79.6832,0.073055
53.969,79.6770,0.073055
54.000,79.6709,0.073055
54.031,79.6646,0.072933
54.062,79.6584,0.072933
54.092,79.6524,0.072933
54.123,79.6462,0.072933
54.154,79.6402,0.072933
54.185,79.6338,0.072933
54.216,79.6278,0.072933
54.247,79.6216,0.072933
54.278,79.6152,0.072838
54.309,79.6090,0.072838
54.340,79.6030,0.072838
54.371,79.5966,0.072838
54.402,79.5904,0.072838
54.433,79.5841,0.072838
54.465,79.5778,0.072838
54.496,79.5716,0.072838
54.526,79.5656,0.072772
54.557,79.5593,0.072772
54.589,79.5531,0.072772
54.620,79.5469,0.072772
54.650,79.5406,0.072772
54.681,79.5345,0.072772
54.713,79.5283,0.072772
54.744,79.5221,0.072772
54.775,79.5159,0.072697
54.806,79.5096,0.072697
54.837,79.5035,0.072697
54.869,79.4970,0.072697
54.900,79.4908,0.072697
54.932,79.4844,0.072697
54.962,79.4784,0.072697
54.993,79.4720,0.072697
55.025,79.4659,0.072622
55.056,79.4597,0.072622
55.087,79.4535,0.072622
55.118,79.4472,0.072622
55.149,79.4411,0.072622
55.180,79.4349,0.072622
55.211,79.4288,0.072622
55.242,79.4225,0.072622
55.274,79.4162,0.072622
55.304,79.4105,0.072622
55.335,79.4054,0.072518
55.366,79.4010,0.072518
55.397,79.3974,0.072518
55.427,79.3946,0.072518
55.461,79.3924,0.072518
55.490,79.3910,0.072518
55.520,79.3904,0.072518
55.552,79.3903,0.072254
55.582,79.3903,0.072254
55.613,79.3903,0.072254
55.644,79.3903,0.072254
55.675,79.3903,0.072254
55.706,79.3903,0.072254
55.737,79.3903,0.072254
55.768,79.3903,0.072254
55.799,79.3903,0.072019
55.829,79.3903,0.072019
55.861,79.3903,0.072019
55.893,79.3903,0.072019
55.924,79.3903,0.072019
55.956,79.3903,0.072019
55.986,79.3903,0.072019
56.017,79.3903,0.072019
56.049,79.3903,0.071934
56.080,79.3906,0.071934
56.111,79.3917,0.071934
56.142,79.3936,0.071934
56.173,79.3961,0.071934
56.204,79.3994,0.071934
56.235,79.4033,0.071934
56.266,79.4081,0.071934
56.298,79.4137,0.071727
56.329,79.4199,0.071727
56.360,79.4260,0.071727
56.390,79.4321,0.071727
56.421,79.4381,0.071727
56.451,79.4443,0.071727
56.482,79.4505,0.071727
56.513,79.4569,0.071727
56.544,79.4629,0.071463
56.574,79.4690,0.071463
56.605,79.4752,0.071463
56.637,79.4814,0.071463
56.667,79.4875,0.071463
56.699,79.4939,0.071463
56.729,79.5000,0.071463
56.762,79.5066,0.071463
56.792,79.5124,0.071463
56.823,79.5189,0.071312
56.855,79.5252,0.071312
56.885,79.5313,0.071312
56.916,79.5373,0.071312
56.947,79.5435,0.071312
56.977,79.5495,0.071312
57.010,79.5561,0.071312
57.039,79.5619,0.071265
57.070,79.5682,0.071265
57.102,79.5744,0.071265
57.133,79.5808,0.071265
57.163,79.5867,0.071265
57.194,79.5928,0.071265
57.224,79.5991,0.071265
57.255,79.6051,0.071265
57.286,79.6114,0.071208
57.317,79.6176,0.071208
57.348,79.6238,0.071208
57.380,79.6301,0.071208
57.411,79.6362,0.071208
57.443,79.6426,0.071208
57.473,79.6486,0.071208
57.504,79.6548,0.071208
57.534,79.6610,0.071124
57.566,79.6672,0.071124
57.596,79.6733,0.071124
57.627,79.6795,0.071124
57.659,79.6859,0.071124
57.690,79.6921,0.071124
57.721,79.6982,0.071124
57.752,79.7045,0.071124
57.783,79.7106,0.071077
57.813,79.7167,0.071077
57.844,79.7231,0.071077
57.875,79.7292,0.071077
57.906,79.7353,0.071077
57.937,79.7415,0.071077
57.968,79.7477,0.071077
57.999,79.7539,0.071077
58.029,79.7600,0.070992
58.060,79.7663,0.070992
58.091,79.7722,0.070992
58.122,79.7786,0.070992
58.154,79.7848,0.070992
58.185,79.7911,0.070992
58.216,79.7972,0.070992
58.246,79.8034,0.070992
58.277,79.8095,0.070945
58.308,79.8158,0.070945
58.339,79.8219,0.070945
58.370,79.8279,0.070945
58.400,79.8343,0.070945
58.431,79.8403,0.070945
58.462,79.8465,0.070945
58.493,79.8529,0.070945
58.524,79.8588,0.070916
58.555,79.8651,0.070916
58.586,79.8712,0.070916
58.616,79.8774,0.070916
58.647,79.8835,0.070916
58.678,79.8898,0.070916
58.710,79.8960,0.070916
58.741,79.9025,0.070916
58.773,79.9087,0.070860
58.804,79.9150,0.070860
58.836,79.9212,0.070860
58.866,79.9274,0.070860
58.898,79.9336,0.070860
58.929,79.9399,0.070860
58.960,79.9463,0.070860
58.992,79.9525,0.070860
59.023,79.9589,0.070832
59.055,79.9652,0.070832
59.087,79.9714,0.070832
59.118,79.9776,0.070832
59.148,79.9837,0.070832
59.179,79.9899,0.070832
59.210,79.9961,0.070832
59.242,80.0024,0.070832
59.273,80.0086,0.070832
59.304,80.0147,0.070832
59.335,80.0210,0.070766
59.366,80.0274,0.070766
59.398,80.0336,0.070766
59.429,80.0399,0.070766
59.461,80.0463,0.070766
59.492,80.0525,0.070766
59.523,80.0589,0.070766
59.553,80.0648,0.070728
59.585,80.0710,0.070728
59.616,80.0773,0.070728
59.647,80.0837,0.070728
59.678,80.0896,0.070728
59.709,80.0958,0.070728
59.740,80.1019,0.070728
59.771,80.1084,0.070728
59.802,80.1144,0.070728
59.833,80.1208,0.070653
59.864,80.1270,0.070653
59.896,80.1332,0.070653
59.928,80.1396,0.070653
59.957,80.1456,0.070653
59.989,80.1519,0.070653
60.020,80.1581,0.070653
60.051,80.1642,0.070615
60.082,80.1705,0.070615
60.113,80.1769,0.070615
60.143,80.1828,0.070615
60.177,80.1893,0.070615
60.207,80.1957,0.070615
60.239,80.2019,0.070615
60.270,80.2082,0.070615
60.302,80.2144,0.070587
60.332,80.2203,0.070587
60.363,80.2267,0.070587
60.393,80.2326,0.070587
60.425,80.2391,0.070587
60.456,80.2451,0.070587
60.486,80.2513,0.070587
60.517,80.2574,0.070587
60.549,80.2639,0.070587
60.579,80.2698,0.070455
60.611,80.2763,0.070455
60.642,80.2825,0.070455
60.674,80.2889,0.070455
60.706,80.2951,0.070455
60.737,80.3015,0.070455
60.768,80.3075,0.070455
60.799,80.3139,0.070408
60.830,80.3201,0.070408
60.861,80.3263,0.070408
60.893,80.3327,0.070408
60.923,80.3387,0.070408
60.954,80.3450,0.070408
60.985,80.3511,0.070408
61.016,80.3571,0.070408
61.047,80.3633,0.070408
61.077,80.3694,0.070379
61.107,80.3756,0.070379
61.140,80.3821,0.070379
61.170,80.3880,0.070379
61.201,80.3945,0.070379
61.232,80.4005,0.070379
61.263,80.4066,0.070379
61.294,80.4130,0.070247
61.325,80.4190,0.070247
61.356,80.4252,0.070247
61.387,80.4314,0.070247
61.418,80.4376,0.070247
61.449,80.4440,0.070247
61.480,80.4499,0.070247
61.511,80.4564,0.070247
61.542,80.4624,0.070247
61.574,80.4689,0.070144
61.604,80.4748,0.070144
61.634,80.4810,0.070144
61.666,80.4874,0.070144
61.698,80.4937,0.070144
61.729,80.4999,0.070144
61.761,80.5063,0.070144
61.793,80.5127,0.070144
61.823,80.5187,0.070125
61.854,80.5249,0.070125
61.886,80.5313,0.070125
61.917,80.5375,0.070125
61.948,80.5435,0.070125
61.979,80.5499,0.070125
62.010,80.5560,0.070125
62.040,80.5620,0.070125
62.071,80.5681,0.070040
62.102,80.5744,0.070040
62.133,80.5806,0.070040
62.165,80.5871,0.070040
62.196,80.5933,0.070040
62.227,80.5995,0.070040
62.259,80.6057,0.070040
62.290,80.6120,0.070040
62.321,80.6182,0.069908
62.351,80.6243,0.069908
62.382,80.6306,0.069908
62.413,80.6368,0.069908
62.446,80.6433,0.069908
62.476,80.6493,0.069908
62.507,80.6557,0.069908
62.538,80.6616,0.069720
62.569,80.6678,0.069720
62.601,80.6741,0.069720
62.630,80.6801,0.069720
62.661,80.6864,0.069720
62.691,80.6923,0.069720
62.722,80.6985,0.069720
62.753,80.7047,0.069720
62.783,80.7107,0.069720
62.815,80.7172,0.069588
62.845,80.7230,0.069588
62.878,80.7296,0.069588
62.908,80.7358,0.069588
62.939,80.7417,0.069588
62.970,80.7481,0.069588
63.002,80.7544,0.069588
63.033,80.7606,0.069513
63.064,80.7669,0.069513
63.095,80.7730,0.069513
63.126,80.7792,0.069513
63.158,80.7855,0.069513
63.189,80.7920,0.069513
63.220,80.7982,0.069513
63.251,80.8042,0.069513
63.282,80.8106,0.069334
63.314,80.8168,0.069334
63.345,80.8231,0.069334
63.376,80.8292,0.069334
63.406,80.8356,0.069334
63.438,80.8416,0.069334
63.468,80.8478,0.069334
63.498,80.8537,0.069334
63.530,80.8599,0.069136
63.561,80.8664,0.069136
63.592,80.8723,0.069136
63.623,80.8787,0.069136
63.654,80.8849,0.069136
63.685,80.8911,0.069136
63.716,80.8971,0.069136
63.747,80.9035,0.069136
63.779,80.9098,0.068919
63.811,80.9162,0.068919
63.841,80.9223,0.068919
63.872,80.9285,0.068919
63.903,80.9347,0.068919
63.934,80.9409,0.068919
63.964,80.9469,0.068919
63.995,80.9531,0.068919
64.027,80.9594,0.068740
64.058,80.9655,0.068740
64.088,80.9717,0.068740
64.119,80.9780,0.068740
64.150,80.9840,0.068740
64.181,80.9903,0.068740
64.212,80.9964,0.068740
64.243,81.0027,0.068740
64.274,81.0088,0.068552
64.304,81.0150,0.068552
64.335,81.0210,0.068552
64.366,81.0274,0.068552
64.397,81.0334,0.068552
64.428,81.0396,0.068552
64.459,81.0460,0.068552
64.489,81.0518,0.068552
64.519,81.0582,0.068552
64.551,81.0643,0.068288
64.581,81.0703,0.068288
64.613,81.0765,0.068288
64.643,81.0827,0.068288
64.674,81.0889,0.068288
64.705,81.0951,0.068288
64.736,81.1014,0.068288
64.768,81.1076,0.068062
64.799,81.1139,0.068062
64.830,81.1200,0.068062
64.861,81.1263,0.068062
64.893,81.1325,0.068062
64.924,81.1387,0.068062
64.955,81.1451,0.068062
64.986,81.1513,0.068062
65.018,81.1577,0.068062
65.049,81.1639,0.068062
65.080,81.1702,0.067845
65.111,81.1763,0.067845
65.143,81.1826,0.067845
65.172,81.1885,0.067845
65.203,81.1947,0.067845
65.233,81.2006,0.067845
65.264,81.2070,0.067845
65.295,81.2130,0.067628
65.327,81.2194,0.067628
65.357,81.2254,0.067628
65.389,81.2319,0.067628
65.420,81.2381,0.067628
65.450,81.2440,0.067628
65.481,81.2502,0.067628
65.513,81.2567,0.067628
65.543,81.2626,0.067355
65.574,81.2688,0.067355
65.605,81.2749,0.067355
65.636,81.2812,0.067355
65.666,81.2872,0.067355
65.697,81.2934,0.067355
65.728,81.2995,0.067355
65.760,81.3059,0.067355
65.790,81.3119,0.067054
65.821,81.3184,0.067054
65.853,81.3245,0.067054
65.884,81.3310,0.067054
65.915,81.3371,0.067054
65.947,81.3435,0.067054
65.977,81.3495,0.067054
66.008,81.3558,0.067054
66.040,81.3620,0.066809
66.071,81.3682,0.066809
66.102,81.3744,0.066809
66.133,81.3807,0.066809
66.164,81.3868,0.066809
66.196,81.3932,0.066809
66.226,81.3992,0.066809
66.257,81.4054,0.066809
66.287,81.4115,0.066554
66.318,81.4175,0.066554
66.349,81.4237,0.066554
66.380,81.4299,0.066554
66.411,81.4361,0.066554
66.442,81.4425,0.066554
66.473,81.4487,0.066554
66.505,81.4550,0.066554
66.536,81.4611,0.066272
66.566,81.4673,0.066272
66.598,81.4735,0.066272
66.628,81.4796,0.066272
66.659,81.4860,0.066272
66.690,81.4921,0.066272
66.722,81.4983,0.066272
66.752,81.5045,0.066272
66.784,81.5109,0.066027
66.814,81.5168,0.066027
66.845,81.5228,0.066027
66.876,81.5292,0.066027
66.907,81.5355,0.066027
66.938,81.5417,0.066027
66.970,81.5480,0.066027
67.001,81.5542,0.066027
67.033,81.5605,0.065829
67.064,81.5667,0.065829
67.095,81.5729,0.065829
67.126,81.5793,0.065829
67.156,81.5852,0.065829
67.187,81.5915,0.065829
67.218,81.5976,0.065829
67.249,81.6038,0.065829
67.280,81.6100,0.065829
67.311,81.6162,0.065537
67.343,81.6226,0.065537
67.372,81.6284,0.065537
67.403,81.6346,0.065537
67.435,81.6410,0.065537
67.466,81.6472,0.065537
67.497,81.6534,0.065537
67.528,81.6595,0.065216
67.559,81.6660,0.065216
67.591,81.6720,0.065216
67.621,81.6782,0.065216
67.652,81.6844,0.065216
67.683,81.6908,0.065216
67.714,81.6968,0.065216
67.746,81.7032,0.065216
67.777,81.7095,0.064971
67.808,81.7157,0.064971
67.839,81.7221,0.064971
67.869,81.7278,0.064971
67.902,81.7344,0.064971
67.932,81.7404,0.064971
67.964,81.7468,0.064971
67.995,81.7529,0.064971
68.026,81.7592,0.064698
68.057,81.7654,0.064698
68.089,81.7719,0.064698
68.120,81.7781,0.064698
68.152,81.7844,0.064698
68.184,81.7907,0.064698
68.216,81.7973,0.064698
68.247,81.8033,0.064698
68.279,81.8098,0.064444
68.310,81.8160,0.064444
68.341,81.8221,0.064444
68.371,81.8282,0.064444
68.402,81.8344,0.064444
68.433,81.8407,0.064444
68.464,81.8468,0.064444
68.495,81.8530,0.064444
68.526,81.8591,0.064227
68.557,81.8655,0.064227
68.587,81.8715,0.064227
68.618,81.8777,0.064227
68.648,81.8836,0.064227
68.680,81.8899,0.064227
68.711,81.8961,0.064227
68.741,81.9022,0.064227
68.772,81.9086,0.063926
68.802,81.9146,0.063926
68.833,81.9207,0.063926
68.864,81.9268,0.063926
68.895,81.9331,0.063926
68.926,81.9394,0.063926
68.957,81.9454,0.063926
68.988,81.9516,0.063926
69.018,81.9578,0.063926
69.050,81.9641,0.063605
69.081,81.9702,0.063605
69.112,81.9765,0.063605
69.143,81.9827,0.063605
69.174,81.9889,0.063605
69.205,81.9951,0.063605
69.237,82.0013,0.063605
69.267,82.0074,0.063605
69.298,82.0136,0.063370
69.330,82.0202,0.063370
69.362,82.0262,0.063370
69.393,82.0326,0.063370
69.424,82.0388,0.063370
69.455,82.0450,0.063370
69.486,82.0512,0.063370
69.517,82.0575,0.063370
69.548,82.0637,0.063153
69.580,82.0700,0.063153
69.610,82.0760,0.063153
69.642,82.0823,0.063153
69.672,82.0884,0.063153
69.704,82.0947,0.063153
69.735,82.1009,0.063153
69.766,82.1071,0.063153
69.797,82.1134,0.062823
69.829,82.1198,0.062823
69.860,82.1261,0.062823
69.892,82.1324,0.062823
69.923,82.1386,0.062823
69.955,82.1451,0.062823
69.986,82.1511,0.062823
70.016,82.1572,0.062823
70.047,82.1634,0.062522
70.078,82.1697,0.062522
70.109,82.1759,0.062522
70.140,82.1820,0.062522
70.171,82.1883,0.062522
70.202,82.1944,0.062522
70.233,82.2007,0.062522
70.264,82.2068,0.062522
70.296,82.2133,0.062277
70.327,82.2195,0.062277
70.358,82.2258,0.062277
70.389,82.2318,0.062277
70.421,82.2383,0.062277
70.453,82.2447,0.062277
70.484,82.2509,0.062277
70.516,82.2573,0.062277
70.547,82.2636,0.062022
70.578,82.2697,0.062022
70.609,82.2758,0.062022
70.640,82.2820,0.062022
70.671,82.2882,0.062022
70.702,82.2945,0.062022
70.733,82.3005,0.062022
70.764,82.3068,0.062022
70.794,82.3129,0.061759
70.827,82.3193,0.061759
70.856,82.3251,0.061759
70.888,82.3316,0.061759
70.918,82.3377,0.061759
70.949,82.3437,0.061759
70.981,82.3501,0.061759
71.013,82.3565,0.061759
71.044,82.3627,0.061448
71.074,82.3687,0.061448
71.105,82.3740,0.061448
71.137,82.3785,0.061448
71.168,82.3822,0.061448
71.199,82.3853,0.061448
71.230,82.3877,0.061448
71.261,82.3893,0.061448
71.292,82.3901,0.061495
71.323,82.3903,0.061495
71.354,82.3903,0.061495
71.385,82.3903,0.061495
71.416,82.3903,0.061495
71.448,82.3903,0.061495
71.479,82.3903,0.061495
71.511,82.3903,0.061495
71.541,82.3903,0.062362
71.573,82.3903,0.062362
71.604,82.3903,0.062362
71.634,82.3903,0.062362
71.665,82.3903,0.062362
71.696,82.3903,0.062362
71.727,82.3903,0.062362
71.758,82.3903,0.062362
71.789,82.3903,0.063200
71.820,82.3903,0.063200
71.851,82.3903,0.063200
71.883,82.3903,0.063200
71.914,82.3903,0.063200
71.946,82.3903,0.063200
71.978,82.3903,0.063200
72.009,82.3903,0.063200
72.040,82.3903,0.063407
72.073,82.3903,0.063407
72.102,82.3903,0.063407
72.133,82.3903,0.063407
72.164,82.3903,0.063407
72.195,82.3903,0.063407
72.227,82.3903,0.063407
72.257,82.3903,0.063407
72.288,82.3903,0.063407
72.319,82.3903,0.063511
72.350,82.3903,0.063511
72.382,82.3903,0.063511
72.413,82.3903,0.063511
72.445,82.3903,0.063511
72.476,82.3903,0.063511
72.507,82.3903,0.063511
72.538,82.3903,0.063568
72.568,82.3903,0.063568
72.599,82.3903,0.063568
72.630,82.3903,0.063568
72.662,82.3903,0.063568
72.694,82.3903,0.063568
72.724,82.3903,0.063568
72.755,82.3903,0.063568
72.785,82.3903,0.063662
72.816,82.3903,0.063662
72.847,82.3903,0.063662
72.878,82.3903,0.063662
72.910,82.3903,0.063662
72.941,82.3903,0.063662
72.972,82.3903,0.063662
73.003,82.3903,0.063662
73.035,82.3903,0.063747
73.065,82.3903,0.063747
73.096,82.3903,0.063747
73.127,82.3903,0.063747
73.157,82.3903,0.063747
73.188,82.3903,0.063747
73.218,82.3903,0.063747
73.250,82.3903,0.063747
73.281,82.3903,0.063747
73.312,82.3903,0.063822
73.343,82.3903,0.063822
73.374,82.3903,0.063822
73.405,82.3903,0.063822
73.435,82.3903,0.063822
73.466,82.3903,0.063822
73.497,82.3903,0.063822
73.527,82.3903,0.063822
73.558,82.3903,0.063935
73.589,82.3903,0.063935
73.620,82.3903,0.063935
73.650,82.3903,0.063935
73.681,82.3903,0.063935
73.713,82.3903,0.063935
73.743,82.3903,0.063935
73.774,82.3903,0.063935
73.806,82.3903,0.063926
73.837,82.3903,0.063926
73.867,82.3903,0.063926
73.898,82.3903,0.063926
73.930,82.3903,0.063926
73.961,82.3903,0.063926
73.992,82.3903,0.063926
74.022,82.3903,0.063926
74.054,82.3903,0.063878
74.085,82.3903,0.063878
74.116,82.3903,0.063878
74.147,82.3903,0.063878
74.178,82.3903,0.063878
74.210,82.3903,0.063878
74.242,82.3903,0.063878
74.273,82.3903,0.063878
74.304,82.3903,0.063935
74.335,82.3903,0.063935
74.366,82.3903,0.063935
74.396,82.3903,0.063935
74.427,82.3903,0.063935
74.459,82.3903,0.063935
74.489,82.3903,0.063935
74.520,82.3903,0.064010
74.551,82.3903,0.064010
74.582,82.3903,0.064010
74.613,82.3903,0.064010
74.644,82.3903,0.064010
74.675,82.3903,0.064010
74.706,82.3903,0.064010
74.737,82.3903,0.064010
74.768,82.3903,0.063982
74.800,82.3903,0.063982
74.830,82.3903,0.063982
74.862,82.3903,0.063982
74.892,82.3903,0.063982
74.924,82.3903,0.063982
74.955,82.3903,0.063982
74.986,82.3903,0.063982
75.016,82.3903,0.063982
75.047,82.3903,0.064010
75.078,82.3903,0.064010
75.109,82.3903,0.064010
75.139,82.3903,0.064010
75.170,82.3903,0.064010
75.201,82.3903,0.064010
75.232,82.3903,0.064010
75.263,82.3903,0.064010
75.295,82.3903,0.064142
75.325,82.3903,0.064142
75.357,82.3903,0.064142
75.388,82.3903,0.064142
75.419,82.3903,0.064142
75.449,82.3903,0.064142
75.480,82.3903,0.064142
75.511,82.3903,0.064142
75.542,82.3903,0.064142
75.573,82.3903,0.064114
75.604,82.3903,0.064114
75.635,82.3903,0.064114
75.666,82.3903,0.064114
75.697,82.3903,0.064114
75.727,82.3903,0.064114
75.759,82.3903,0.064114
75.789,82.3903,0.064114
75.821,82.3903,0.064114
75.851,82.3903,0.064114
75.883,82.3903,0.064114
75.913,82.3903,0.064114
75.944,82.3903,0.064114
75.975,82.3903,0.064114
76.006,82.3903,0.064114
76.037,82.3900,0.064114
76.068,82.3891,0.064161
76.099,82.3875,0.064161
76.130,82.3850,0.064161
76.161,82.3819,0.064161
76.192,82.3781,0.064161
76.224,82.3734,0.064161
76.255,82.3682,0.064161
76.287,82.3620,0.064604
76.318,82.3557,0.064604
76.350,82.3492,0.064604
76.382,82.3430,0.064604
76.413,82.3369,0.064604
76.444,82.3307,0.064604
76.474,82.3245,0.064604
76.506,82.3182,0.064604
76.536,82.3122,0.065923
76.567,82.3059,0.065923
76.598,82.2998,0.065923
76.629,82.2936,0.065923
76.660,82.2874,0.065923
76.690,82.2812,0.065923
76.721,82.2753,0.065923
76.752,82.2688,0.065923
76.783,82.2629,0.066940
76.813,82.2567,0.066940
76.845,82.2505,0.066940
76.875,82.2444,0.066940
76.906,82.2382,0.066940
76.938,82.2318,0.066940
76.969,82.2256,0.066940
77.000,82.2194,0.066940
77.030,82.2134,0.067270
77.062,82.2071,0.067270
77.093,82.2009,0.067270
77.124,82.1945,0.067270
77.155,82.1883,0.067270
77.187,82.1820,0.067270
77.218,82.1759,0.067270
77.250,82.1695,0.067270
77.280,82.1635,0.067562
77.311,82.1571,0.067562
77.342,82.1510,0.067562
77.373,82.1448,0.067562
77.404,82.1386,0.067562
77.435,82.1323,0.067562
77.466,82.1263,0.067562
77.498,82.1198,0.067562
77.528,82.1138,0.067779
77.560,82.1075,0.067779
77.590,82.1014,0.067779
77.621,82.0952,0.067779
77.652,82.0891,0.067779
77.683,82.0828,0.067779
77.713,82.0767,0.067779
77.744,82.0706,0.067779
77.774,82.0644,0.067779
77.805,82.0584,0.067996
77.836,82.0523,0.067996
77.867,82.0460,0.067996
77.898,82.0398,0.067996
77.929,82.0336,0.067996
77.961,82.0274,0.067996
77.991,82.0212,0.067996
78.023,82.0148,0.068241
78.054,82.0085,0.068241
78.086,82.0023,0.068241
78.118,81.9959,0.068241
78.150,81.9894,0.068241
78.181,81.9833,0.068241
78.212,81.9770,0.068241
78.243,81.9707,0.068241
78.273,81.9647,0.068241
78.305,81.9584,0.068241
78.338,81.9518,0.068438
78.367,81.9459,0.068438
78.399,81.9396,0.068438
78.430,81.9335,0.068438
78.461,81.9273,0.068438
78.491,81.9212,0.068438
78.523,81.9149,0.068438
78.553,81.9088,0.068438
78.583,81.9026,0.068599
78.615,81.8964,0.068599
78.647,81.8902,0.068599
78.678,81.8839,0.068599
78.709,81.8775,0.068599
78.740,81.8713,0.068599
78.771,81.8651,0.068599
78.802,81.8589,0.068797
78.833,81.8527,0.068797
78.863,81.8468,0.068797
78.895,81.8403,0.068797
78.926,81.8343,0.068797
78.957,81.8279,0.068797
78.989,81.8217,0.068797
79.020,81.8153,0.068797
79.050,81.8093,0.069004
79.081,81.8033,0.069004
79.112,81.7969,0.069004
79.144,81.7907,0.069004
79.175,81.7845,0.069004
79.206,81.7782,0.069004
79.237,81.7720,0.069004
79.268,81.7658,0.069004
79.300,81.7595,0.069004
79.331,81.7533,0.069220
79.361,81.7472,0.069220
79.393,81.7409,0.069220
79.424,81.7345,0.069220
79.455,81.7285,0.069220
79.486,81.7223,0.069220
79.517,81.7162,0.069220
79.548,81.7097,0.069371
79.579,81.7034,0.069371
79.610,81.6973,0.069371
79.641,81.6911,0.069371
79.673,81.6849,0.069371
79.705,81.6785,0.069371
79.735,81.6724,0.069371
79.765,81.6662,0.069371
79.796,81.6601,0.069371
79.828,81.6537,0.069550
79.860,81.6474,0.069550
79.890,81.6413,0.069550
79.922,81.6351,0.069550
79.953,81.6288,0.069550
79.982,81.6229,0.069550
80.014,81.6167,0.069550
80.045,81.6104,0.069729
80.075,81.6043,0.069729
80.106,81.5981,0.069729
80.137,81.5920,0.069729
80.167,81.5860,0.069729
80.197,81.5800,0.069729
80.228,81.5737,0.069729
80.259,81.5676,0.069729
80.291,81.5612,0.069927
80.322,81.5550,0.069927
80.354,81.5485,0.069927
80.385,81.5424,0.069927
80.416,81.5362,0.069927
80.448,81.5298,0.069927
80.479,81.5237,0.069927
80.511,81.5171,0.069927
80.542,81.5109,0.069927
80.573,81.5050,0.070097
80.604,81.4985,0.070097
80.634,81.4926,0.070097
80.666,81.4861,0.070097
80.696,81.4802,0.070097
80.727,81.4738,0.070097
80.760,81.4675,0.070097
80.790,81.4614,0.070097
80.821,81.4554,0.070200
80.852,81.4489,0.070200
80.882,81.4430,0.070200
80.914,81.4364,0.070200
80.947,81.4302,0.070200
80.978,81.4236,0.070200
81.010,81.4175,0.070200
81.042,81.4110,0.070398
81.073,81.4049,0.070398
81.104,81.3986,0.070398
81.135,81.3924,0.070398
81.166,81.3860,0.070398
81.198,81.3798,0.070398
81.230,81.3734,0.070398
81.261,81.3672,0.070398
81.293,81.3606,0.070398
81.325,81.3544,0.070568
81.358,81.3478,0.070568
81.389,81.3416,0.070568
81.420,81.3354,0.070568
81.451,81.3292,0.070568
81.483,81.3227,0.070568
81.515,81.3165,0.070568
81.547,81.3100,0.070568
81.578,81.3038,0.070709
81.610,81.2974,0.070709
81.639,81.2917,0.070709
81.671,81.2852,0.070709
81.702,81.2790,0.070709
81.734,81.2727,0.070709
81.765,81.2666,0.070709
81.796,81.2603,0.070898
81.827,81.2540,0.070898
81.860,81.2474,0.070898
81.891,81.2413,0.070898
81.921,81.2352,0.070898
81.952,81.2292,0.070898
81.983,81.2228,0.070898
82.014,81.2166,0.070898
82.045,81.2104,0.070898
82.077,81.2041,0.071048
82.107,81.1981,0.071048
82.138,81.1918,0.071048
82.169,81.1855,0.071048
82.200,81.1793,0.071048
82.231,81.1732,0.071048
82.262,81.1669,0.071048
82.293,81.1607,0.071048
82.325,81.1544,0.071227
82.356,81.1483,0.071227
82.388,81.1417,0.071227
82.419,81.1356,0.071227
82.450,81.1296,0.071227
82.480,81.1235,0.071227
82.511,81.1174,0.071227
82.542,81.1110,0.071369
82.573,81.1050,0.071369
82.603,81.0988,0.071369
82.634,81.0927,0.071369
82.665,81.0863,0.071369
82.696,81.0802,0.071369
82.728,81.0737,0.071369
82.759,81.0677,0.071369
82.789,81.0616,0.071444
82.821,81.0553,0.071444
82.853,81.0489,0.071444
82.884,81.0426,0.071444
82.915,81.0364,0.071444
82.946,81.0302,0.071444
82.977,81.0240,0.071444
83.009,81.0177,0.071444
83.039,81.0116,0.071557
83.071,81.0053,0.071557
83.102,80.9991,0.071557
83.133,80.9929,0.071557
83.163,80.9867,0.071557
83.195,80.9805,0.071557
83.225,80.9744,0.071557
83.257,80.9680,0.071557
83.288,80.9619,0.071698
83.320,80.9554,0.071698
83.350,80.9494,0.071698
83.382,80.9430,0.071698
83.413,80.9370,0.071698
83.443,80.9307,0.071698
83.474,80.9247,0.071698
83.505,80.9183,0.071698
83.537,80.9121,0.071840
83.568,80.9057,0.071840
83.599,80.8996,0.071840
83.630,80.8933,0.071840
83.661,80.8872,0.071840
83.692,80.8810,0.071840
83.723,80.8749,0.071840
83.754,80.8686,0.071840
83.785,80.8624,0.071943
83.816,80.8563,0.071943
83.848,80.8499,0.071943
83.877,80.8439,0.071943
83.908,80.8380,0.071943
83.939,80.8315,0.071943
83.970,80.8255,0.071943
84.001,80.8193,0.071943
84.032,80.8131,0.072075
84.063,80.8069,0.072075
84.095,80.8005,0.072075
84.126,80.7943,0.072075
84.157,80.7881,0.072075
84.187,80.7819,0.072075
84.218,80.7758,0.072075
84.250,80.7695,0.072075
84.281,80.7633,0.072198
84.312,80.7571,0.072198
84.343,80.7508,0.072198
84.375,80.7445,0.072198
84.406,80.7384,0.072198
84.437,80.7319,0.072198
84.468,80.7259,0.072198
84.499,80.7195,0.072198
84.529,80.7136,0.072245
84.560,80.7073,0.072245
84.591,80.7013,0.072245
84.622,80.6950,0.072245
84.654,80.6888,0.072245
84.685,80.6825,0.072245
84.716,80.6763,0.072245
84.747,80.6701,0.072245
84.777,80.6641,0.072330
84.810,80.6575,0.072330
84.840,80.6514,0.072330
84.871,80.6452,0.072330
84.902,80.6390,0.072330
84.933,80.6327,0.072330
84.964,80.6266,0.072330
84.996,80.6202,0.072330
85.028,80.6140,0.072462
85.059,80.6078,0.072462
85.090,80.6016,0.072462
85.121,80.5953,0.072462
85.152,80.5892,0.072462
85.183,80.5826,0.072462
85.214,80.5767,0.072462
85.246,80.5702,0.072462
85.276,80.5643,0.072593
85.308,80.5578,0.072593
85.339,80.5516,0.072593
85.370,80.5454,0.072593
85.402,80.5391,0.072593
85.433,80.5329,0.072593
85.465,80.5264,0.072593
85.496,80.5201,0.072593
85.528,80.5138,0.072659
85.559,80.5077,0.072659
85.590,80.5015,0.072659
85.621,80.4952,0.072659
85.651,80.4891,0.072659
85.682,80.4830,0.072659
85.714,80.4766,0.072659
85.745,80.4704,0.072659
85.775,80.4643,0.072659
85.806,80.4582,0.072659
85.837,80.4520,0.072782
85.868,80.4458,0.072782
85.900,80.4394,0.072782
85.931,80.4334,0.072782
85.962,80.4272,0.072782
85.992,80.4209,0.072782
86.023,80.4148,0.072782
86.055,80.4085,0.072857
86.085,80.4024,0.072857
86.116,80.3962,0.072857
86.147,80.3901,0.072857
86.178,80.3837,0.072857
86.209,80.3777,0.072857
86.241,80.3713,0.072857
86.271,80.3652,0.072857
86.303,80.3589,0.072857
86.333,80.3528,0.072838
86.365,80.3465,0.072838
86.395,80.3403,0.072838
86.426,80.3343,0.072838
86.457,80.3280,0.072838
86.488,80.3218,0.072838
86.519,80.3157,0.072838
86.550,80.3095,0.072914
86.582,80.3032,0.072914
86.612,80.2970,0.072914
86.642,80.2910,0.072914
86.674,80.2846,0.072914
86.705,80.2784,0.072914
86.736,80.2721,0.072914
86.768,80.2659,0.072914
86.798,80.2597,0.072951
86.830,80.2533,0.072951
86.861,80.2471,0.072951
86.893,80.2409,0.072951
86.925,80.2345,0.072951
86.955,80.2285,0.072951
86.985,80.2225,0.072951
87.016,80.2163,0.072951
87.046,80.2103,0.072980
87.078,80.2037,0.072980
87.109,80.1978,0.072980
87.140,80.1914,0.072980
87.170,80.1855,0.072980
87.202,80.1792,0.072980
87.233,80.1728,0.072980
87.263,80.1668,0.072980
87.293,80.1608,0.073065
87.325,80.1545,0.073065
87.355,80.1484,0.073065
87.387,80.1421,0.073065
87.419,80.1356,0.073065
87.450,80.1296,0.073065
87.481,80.1232,0.073065
87.511,80.1172,0.073093
87.543,80.1108,0.073093
87.575,80.1046,0.073093
87.605,80.0984,0.073093
87.637,80.0921,0.073093
87.669,80.0857,0.073093
87.699,80.0795,0.073093
87.730,80.0735,0.073093
87.761,80.0672,0.073093
87.792,80.0611,0.073102
87.823,80.0548,0.073102
87.855,80.0486,0.073102
87.885,80.0422,0.073102
87.917,80.0360,0.073102
87.948,80.0297,0.073102
87.980,80.0236,0.073102
88.010,80.0173,0.073102
88.042,80.0111,0.073102
88.073,80.0049,0.073130
88.103,79.9988,0.073130
88.134,79.9926,0.073130
88.166,79.9862,0.073130
88.196,79.9800,0.073130
88.228,79.9739,0.073130
88.258,79.9678,0.073130
88.290,79.9615,0.073130
88.321,79.9553,0.073102
88.353,79.9490,0.073102
88.382,79.9430,0.073102
88.413,79.9368,0.073102
88.444,79.9306,0.073102
88.475,79.9244,0.073102
88.506,79.9183,0.073102
88.537,79.9120,0.073102
88.568,79.9058,0.073093
88.599,79.8997,0.073093
88.630,79.8935,0.073093
88.662,79.8871,0.073093
88.693,79.8810,0.073093
88.723,79.8747,0.073093
88.754,79.8687,0.073093
88.785,79.8624,0.073093
88.815,79.8565,0.073083
88.846,79.8503,0.073083
88.877,79.8442,0.073083
88.908,79.8377,0.073083
88.940,79.8315,0.073083
88.971,79.8251,0.073083
89.003,79.8190,0.073083
89.033,79.8128,0.073083
89.065,79.8066,0.073017
89.097,79.8000,0.073017
89.127,79.7941,0.073017
89.159,79.7877,0.073017
89.190,79.7815,0.073017
89.221,79.7753,0.073017
89.252,79.7689,0.073017
89.283,79.7628,0.073017
89.314,79.7567,0.072989
89.345,79.7505,0.072989
89.377,79.7441,0.072989
89.407,79.7380,0.072989
89.439,79.7318,0.072989
89.469,79.7256,0.072989
89.501,79.7194,0.072989
89.532,79.7132,0.072989
89.563,79.7070,0.072933
89.594,79.7007,0.072933
89.625,79.6946,0.072933
89.655,79.6883,0.072933
89.686,79.6823,0.072933
89.717,79.6760,0.072933
89.748,79.6699,0.072933
89.779,79.6637,0.072933
89.810,79.6575,0.072838
89.840,79.6514,0.072838
89.872,79.6451,0.072838
89.903,79.6388,0.072838
89.935,79.6325,0.072838
89.965,79.6265,0.072838
89.996,79.6203,0.072838
90.027,79.6141,0.072838
90.058,79.6079,0.072754
90.089,79.6017,0.072754
90.120,79.5954,0.072754
90.151,79.5892,0.072754
90.183,79.5829,0.072754
90.214,79.5767,0.072754
90.246,79.5705,0.072754
90.277,79.5641,0.072754
90.308,79.5579,0.072669
90.339,79.5516,0.072669
90.370,79.5455,0.072669
90.401,79.5393,0.072669
90.431,79.5333,0.072669
90.462,79.5269,0.072669
90.493,79.5210,0.072669
90.524,79.5147,0.072669
90.556,79.5083,0.072575
90.586,79.5022,0.072575
90.617,79.4962,0.072575
90.649,79.4896,0.072575
90.680,79.4835,0.072575
90.712,79.4769,0.072575
90.744,79.4709,0.072575
90.775,79.4644,0.072471
90.808,79.4580,0.072471
90.839,79.4518,0.072471
90.869,79.4456,0.072471
90.899,79.4396,0.072471
90.931,79.4333,0.072471
90.961,79.4273,0.072471
90.992,79.4211,0.072471
91.023,79.4148,0.072396
91.055,79.4085,0.072396
91.086,79.4024,0.072396
91.117,79.3961,0.072396
91.149,79.3898,0.072396
91.180,79.3837,0.072396
91.211,79.3772,0.072396
91.242,79.3712,0.072396
91.273,79.3650,0.072396
91.305,79.3591,0.072377
91.335,79.3545,0.072377
91.366,79.3502,0.072377
91.398,79.3467,0.072377
91.429,79.3440,0.072377
91.461,79.3420,0.072377
91.491,79.3408,0.072377
91.523,79.3403,0.072169
91.555,79.3403,0.072169
91.586,79.3403,0.072169
91.617,79.3403,0.072169
91.648,79.3403,0.072169
91.679,79.3403,0.072169
91.709,79.3403,0.072169
91.742,79.3403,0.072169
91.771,79.3403,0.072169
91.804,79.3403,0.071915
91.833,79.3403,0.071915
91.865,79.3403,0.071915
91.895,79.3403,0.071915
91.927,79.3403,0.071915
91.958,79.3403,0.071915
91.990,79.3403,0.071915
92.022,79.3403,0.071915
92.054,79.3404,0.071793
92.085,79.3411,0.071793
92.115,79.3426,0.071793
92.146,79.3447,0.071793
92.178,79.3478,0.071793
92.209,79.3516,0.071793
92.241,79.3560,0.071793
92.272,79.3612,0.071793
92.302,79.3669,0.071566
92.332,79.3729,0.071566
92.364,79.3792,0.071566
92.395,79.3855,0.071566
92.426,79.3916,0.071566
92.457,79.3978,0.071566
92.488,79.4040,0.071566
92.519,79.4103,0.071303
92.551,79.4168,0.071303
92.582,79.4230,0.071303
92.613,79.4292,0.071303
92.644,79.4354,0.071303
92.676,79.4417,0.071303
92.707,79.4478,0.071303
92.739,79.4545,0.071303
92.770,79.4605,0.071303
92.802,79.4670,0.071152
92.832,79.4729,0.071152
92.863,79.4792,0.071152
92.893,79.4850,0.071152
92.925,79.4916,0.071152
92.956,79.4978,0.071152
92.988,79.5041,0.071152
93.020,79.5106,0.071152
93.050,79.5164,0.071114
93.080,79.5227,0.071114
93.112,79.5288,0.071114
93.142,79.5349,0.071114
93.174,79.5413,0.071114
93.205,79.5474,0.071114
93.236,79.5536,0.071114
93.266,79.5597,0.071114
93.297,79.5659,0.071114
93.330,79.5724,0.071058
93.359,79.5783,0.071058
93.390,79.5845,0.071058
93.422,79.5908,0.071058
93.454,79.5971,0.071058
93.484,79.6033,0.071058
93.514,79.6093,0.071058
93.545,79.6155,0.071001
93.575,79.6217,0.071001
93.607,79.6278,0.071001
93.638,79.6340,0.071001
93.668,79.6402,0.071001
93.699,79.6464,0.071001
93.730,79.6526,0.071001
93.762,79.6589,0.071001
93.793,79.6650,0.070954
93.824,79.6713,0.070954
93.854,79.6774,0.070954
93.885,79.6836,0.070954
93.916,79.6898,0.070954
93.948,79.6961,0.070954
93.980,79.7024,0.070954
94.010,79.7086,0.070954
94.042,79.7148,0.070926
94.073,79.7211,0.070926
94.105,79.7274,0.070926
94.136,79.7337,0.070926
94.166,79.7399,0.070926
94.197,79.7460,0.070926
94.228,79.7522,0.070926
94.260,79.7585,0.070926
94.292,79.7648,0.070869
94.322,79.7710,0.070869
94.353,79.7770,0.070869
94.383,79.7830,0.070869
94.414,79.7892,0.070869
94.445,79.7954,0.070869
94.477,79.8018,0.070869
94.508,79.8081,0.070869
94.540,79.8144,0.070766
94.571,79.8206,0.070766
94.602,79.8267,0.070766
94.632,79.8330,0.070766
94.664,79.8391,0.070766
94.695,79.8454,0.070766
94.726,79.8516,0.070766
94.757,79.8579,0.070766
94.788,79.8640,0.070728
94.819,79.8702,0.070728
94.851,79.8767,0.070728
94.881,79.8829,0.070728
94.913,79.8890,0.070728
94.943,79.8952,0.070728
94.974,79.9014,0.070728
95.005,79.9074,0.070728
95.037,79.9138,0.070766
95.068,79.9201,0.070766
95.099,79.9263,0.070766
95.130,79.9325,0.070766
95.161,79.9387,0.070766
95.192,79.9450,0.070766
95.222,79.9510,0.070766
95.253,79.9572,0.070766
95.285,79.9635,0.070728
95.316,79.9697,0.070728
95.347,79.9758,0.070728
95.378,79.9821,0.070728
95.409,79.9882,0.070728
95.440,79.9944,0.070728
95.471,80.0007,0.070728
95.502,80.0070,0.070728
95.533,80.0131,0.070615
95.566,80.0195,0.070615
95.595,80.0255,0.070615
95.626,80.0316,0.070615
95.657,80.0378,0.070615
95.687,80.0441,0.070615
95.718,80.0501,0.070615
95.750,80.0564,0.070615
95.781,80.0627,0.070568
95.812,80.0689,0.070568
95.844,80.0754,0.070568
95.875,80.0814,0.070568
95.906,80.0875,0.070568
95.937,80.0938,0.070568
95.968,80.0999,0.070568
95.999,80.1062,0.070568
96.029,80.1123,0.070502
96.059,80.1184,0.070502
96.091,80.1247,0.070502
96.123,80.1310,0.070502
96.153,80.1371,0.070502
96.184,80.1432,0.070502
96.215,80.1495,0.070502
96.247,80.1560,0.070502
96.278,80.1622,0.070483
96.310,80.1685,0.070483
96.340,80.1745,0.070483
96.371,80.1807,0.070483
96.402,80.1870,0.070483
96.433,80.1931,0.070483
96.465,80.1994,0.070483
96.496,80.2057,0.070483
96.527,80.2119,0.070483
96.557,80.2179,0.070483
96.589,80.2243,0.070483
96.619,80.2303,0.070483
96.651,80.2366,0.070483
96.680,80.2425,0.070483
96.712,80.2487,0.070483
96.743,80.2551,0.070483
96.773,80.2613,0.070483
96.805,80.2673,0.070389
96.836,80.2735,0.070389
96.867,80.2800,0.070389
96.898,80.2860,0.070389
96.929,80.2922,0.070389
96.959,80.2984,0.070389
96.991,80.3046,0.070389
97.021,80.3108,0.070389
97.053,80.3170,0.070295
97.083,80.3233,0.070295
97.115,80.3294,0.070295
97.145,80.3356,0.070295
97.177,80.3418,0.070295
97.208,80.3480,0.070295
97.239,80.3543,0.070295
97.270,80.3605,0.070295
97.301,80.3667,0.070210
97.333,80.3731,0.070210
97.364,80.3793,0.070210
97.396,80.3857,0.070210
97.427,80.3917,0.070210
97.458,80.3981,0.070210
97.489,80.4044,0.070210
97.519,80.4103,0.070210
97.550,80.4165,0.070163
97.582,80.4227,0.070163
97.613,80.4291,0.070163
97.644,80.4352,0.070163
97.675,80.4414,0.070163
97.706,80.4477,0.070163
97.737,80.4539,0.070163
97.768,80.4601,0.070163
97.799,80.4663,0.070106
97.830,80.4726,0.070106
97.862,80.4787,0.070106
97.892,80.4849,0.070106
97.922,80.4910,0.070106
97.954,80.4973,0.070106
97.985,80.5034,0.070106
98.016,80.5096,0.070002
98.046,80.5156,0.070002
98.077,80.5217,0.070002
98.109,80.5282,0.070002
98.139,80.5342,0.070002
98.170,80.5404,0.070002
98.201,80.5465,0.070002
98.232,80.5527,0.070002
98.262,80.5589,0.070002
98.293,80.5651,0.069880
98.325,80.5715,0.069880
98.357,80.5779,0.069880
98.387,80.5839,0.069880
98.419,80.5903,0.069880
98.449,80.5963,0.069880
98.480,80.6025,0.069880
98.510,80.6085,0.069739
98.541,80.6146,0.069739
98.572,80.6211,0.069739
98.604,80.6271,0.069739
98.633,80.6331,0.069739
98.664,80.6393,0.069739
98.695,80.6455,0.069739
98.726,80.6516,0.069739
98.757,80.6578,0.069739
98.787,80.6640,0.069739
98.818,80.6699,0.069588
98.849,80.6761,0.069588
98.879,80.6823,0.069588
98.911,80.6887,0.069588
98.941,80.6947,0.069588
98.972,80.7009,0.069588
99.004,80.7071,0.069588
99.035,80.7133,0.069588
99.065,80.7197,0.069513
99.096,80.7255,0.069513
99.126,80.7318,0.069513
99.158,80.7380,0.069513
99.189,80.7441,0.069513
99.220,80.7505,0.069513
99.251,80.7566,0.069513
99.281,80.7627,0.069513
99.312,80.7689,0.069437
99.344,80.7752,0.069437
99.375,80.7813,0.069437
99.406,80.7878,0.069437
99.436,80.7937,0.069437
99.467,80.8000,0.069437
99.499,80.8061,0.069437
99.530,80.8124,0.069437
99.560,80.8185,0.069230
99.591,80.8248,0.069230
99.622,80.8309,0.069230
99.653,80.8371,0.069230
99.684,80.8433,0.069230
99.716,80.8496,0.069230
99.746,80.8557,0.069230
99.778,80.8622,0.069230
99.809,80.8681,0.069013
99.839,80.8743,0.069013
99.870,80.8804,0.069013
99.902,80.8867,0.069013
99.931,80.8927,0.069013
99.962,80.8990,0.069013
99.993,80.9050,0.069013
100.024,80.9113,0.069013
100.056,80.9176,0.068844
100.086,80.9237,0.068844
100.117,80.9298,0.068844
100.149,80.9362,0.068844
100.180,80.9424,0.068844
100.211,80.9487,0.068844
100.242,80.9548,0.068844
100.274,80.9611,0.068844
100.304,80.9672,0.068646
100.336,80.9737,0.068646
100.366,80.9796,0.068646
100.397,80.9859,0.068646
100.428,80.9920,0.068646
100.458,80.9982,0.068646
100.490,81.0043,0.068646
100.521,81.0106,0.068646
100.551,81.0166,0.068410
100.582,81.0230,0.068410
100.614,81.0292,0.068410
100.645,81.0357,0.068410
100.677,81.0419,0.068410
100.709,81.0483,0.068410
100.740,81.0544,0.068410
100.771,81.0607,0.068410
100.802,81.0668,0.068146
100.833,81.0730,0.068146
100.864,81.0791,0.068146
100.894,81.0853,0.068146
100.925,81.0915,0.068146
100.955,81.0974,0.068146
100.987,81.1039,0.068146
101.017,81.1098,0.068146
101.048,81.1162,0.067901
101.080,81.1224,0.067901
101.112,81.1288,0.067901
101.143,81.1349,0.067901
101.174,81.1412,0.067901
101.204,81.1473,0.067901
101.235,81.1534,0.067901
101.267,81.1598,0.067713
101.297,81.1659,0.067713
101.329,81.1722,0.067713
101.360,81.1785,0.067713
101.391,81.1845,0.067713
101.425,81.1913,0.067713
101.452,81.1970,0.067713
101.482,81.2031,0.067713
101.514,81.2092,0.067713
101.544,81.2154,0.067496
101.576,81.2217,0.067496
101.607,81.2279,0.067496
101.638,81.2341,0.067496
101.669,81.2403,0.067496
101.701,81.2468,0.067496
101.732,81.2528,0.067496
101.763,81.2592,0.067496
101.795,81.2654,0.067214
101.825,81.2714,0.067214
101.856,81.2776,0.067214
101.888,81.2840,0.067214
101.919,81.2902,0.067214
101.951,81.2967,0.067214
101.982,81.3028,0.067214
102.013,81.3090,0.066959
102.045,81.3153,0.066959
102.075,81.3214,0.066959
102.107,81.3279,0.066959
102.138,81.3340,0.066959
102.168,81.3402,0.066959
102.199,81.3464,0.066959
102.231,81.3528,0.066959
102.262,81.3590,0.066959
102.293,81.3650,0.066743
102.324,81.3713,0.066743
102.356,81.3776,0.066743
102.388,81.3841,0.066743
102.418,81.3900,0.066743
102.450,81.3965,0.066743
102.480,81.4025,0.066743
102.510,81.4085,0.066743
102.539,81.4143,0.066460
102.572,81.4208,0.066460
102.603,81.4271,0.066460
102.633,81.4330,0.066460
102.665,81.4394,0.066460
102.695,81.4456,0.066460
102.726,81.4516,0.066460
102.758,81.4581,0.066168
102.789,81.4642,0.066168
102.819,81.4704,0.066168
102.851,81.4766,0.066168
102.881,81.4828,0.066168
102.912,81.4890,0.066168
102.943,81.4952,0.066168
102.974,81.5011,0.066168
103.005,81.5076,0.066168
103.038,81.5139,0.066168
103.068,81.5200,0.066168
103.099,81.5262,0.065932
103.130,81.5325,0.065932
103.162,81.5388,0.065932
103.192,81.5448,0.065932
103.223,81.5510,0.065932
103.253,81.5571,0.065932
103.285,81.5635,0.065932
103.315,81.5695,0.065697
103.347,81.5757,0.065697
103.377,81.5817,0.065697
103.408,81.5882,0.065697
103.439,81.5942,0.065697
103.471,81.6006,0.065697
103.502,81.6068,0.065697
103.533,81.6131,0.065697
103.564,81.6193,0.065442
103.596,81.6257,0.065442
103.627,81.6317,0.065442
103.659,81.6382,0.065442
103.691,81.6445,0.065442
103.722,81.6510,0.065442
103.753,81.6569,0.065442
103.784,81.6631,0.065442
103.815,81.6693,0.065197
103.846,81.6758,0.065197
103.877,81.6818,0.065197
103.908,81.6879,0.065197
103.939,81.6942,0.065197
103.969,81.7003,0.065197
104.000,81.7065,0.065197
104.031,81.7127,0.065197
104.063,81.7190,0.064953
104.094,81.7254,0.064953
104.124,81.7314,0.064953
104.156,81.7376,0.064953
104.186,81.7436,0.064953
104.218,81.7500,0.064953
104.249,81.7561,0.064953
104.281,81.7628,0.064632
104.312,81.7688,0.064632
104.343,81.7749,0.064632
104.374,81.7813,0.064632
104.405,81.7873,0.064632
104.436,81.7935,0.064632
104.467,81.7998,0.064632
104.497,81.8059,0.064632
104.528,81.8119,0.064340
104.559,81.8184,0.064340
104.591,81.8247,0.064340
104.621,81.8307,0.064340
104.651,81.8366,0.064340
104.682,81.8429,0.064340
104.710,81.8484,0.064340
104.745,81.8555,0.064340
104.777,81.8619,0.064340
104.809,81.8681,0.064095
104.839,81.8743,0.064095
104.870,81.8803,0.064095
104.901,81.8867,0.064095
104.933,81.8929,0.064095
104.964,81.8992,0.064095
104.994,81.9055,0.064095
105.026,81.9115,0.064095
105.057,81.9179,0.063860
105.087,81.9238,0.063860
105.118,81.9301,0.063860
105.151,81.9365,0.063860
105.181,81.9428,0.063860
105.212,81.9489,0.063860
105.243,81.9552,0.063860
105.274,81.9613,0.063860
105.304,81.9673,0.063577
105.334,81.9733,0.063577
105.365,81.9792,0.063577
105.396,81.9857,0.063577
105.428,81.9919,0.063577
105.459,81.9982,0.063577
105.490,82.0044,0.063577
105.521,82.0107,0.063577
105.552,82.0167,0.063257
105.584,82.0233,0.063257
105.615,82.0295,0.063257
105.648,82.0359,0.063257
105.677,82.0420,0.063257
105.708,82.0481,0.063257
105.739,82.0543,0.063257
105.771,82.0609,0.063257
105.802,82.0668,0.062983
105.833,82.0729,0.062983
105.864,82.0791,0.062983
105.894,82.0853,0.062983
105.925,82.0912,0.062983
105.956,82.0976,0.062983
105.987,82.1036,0.062983
106.019,82.1103,0.062983
106.049,82.1162,0.062701
106.081,82.1227,0.062701
106.112,82.1288,0.062701
106.143,82.1350,0.062701
106.173,82.1411,0.062701
106.205,82.1474,0.062701
106.236,82.1536,0.062701
106.267,82.1599,0.062701
106.298,82.1661,0.062428
106.329,82.1722,0.062428
106.360,82.1783,0.062428
106.392,82.1846,0.062428
106.422,82.1908,0.062428
106.453,82.1970,0.062428
106.484,82.2032,0.062428
106.515,82.2094,0.062428
106.546,82.2156,0.062173
106.578,82.2221,0.062173
106.608,82.2280,0.062173
106.640,82.2344,0.062173
106.670,82.2404,0.062173
106.701,82.2466,0.062173
106.733,82.2528,0.062173
106.764,82.2593,0.062173
106.796,82.2655,0.061900
106.826,82.2718,0.061900
106.857,82.2779,0.061900
106.888,82.2841,0.061900
106.919,82.2902,0.061900
106.951,82.2966,0.061900
106.981,82.3027,0.061900
107.012,82.3089,0.061900
107.044,82.3151,0.061683
107.074,82.3207,0.061683
107.105,82.3256,0.061683
107.136,82.3299,0.061683
107.168,82.3335,0.061683
107.198,82.3362,0.061683
107.230,82.3383,0.061683
107.261,82.3397,0.061683
107.292,82.3403,0.061815
107.323,82.3403,0.061815
107.356,82.3403,0.061815
107.386,82.3403,0.061815
107.418,82.3403,0.061815
107.449,82.3403,0.061815
107.479,82.3403,0.061815
107.511,82.3403,0.061815
107.544,82.3403,0.062578
107.574,82.3403,0.062578
107.605,82.3403,0.062578
107.637,82.3403,0.062578
107.668,82.3403,0.062578
107.699,82.3403,0.062578
107.730,82.3403,0.062578
107.761,82.3403,0.063285
107.792,82.3403,0.063285
107.824,82.3403,0.063285
107.854,82.3403,0.063285
107.886,82.3403,0.063285
107.917,82.3403,0.063285
107.948,82.3403,0.063285
107.978,82.3403,0.063285
108.009,82.3403,0.063285
108.040,82.3403,0.063586
108.071,82.3403,0.063586
108.101,82.3403,0.063586
108.133,82.3403,0.063586
108.164,82.3403,0.063586
108.197,82.3403,0.063586
108.226,82.3403,0.063586
108.256,82.3403,0.063586
108.287,82.3403,0.063699
108.319,82.3403,0.063699
108.349,82.3403,0.063699
108.379,82.3403,0.063699
108.410,82.3403,0.063699
108.440,82.3403,0.063699
108.470,82.3403,0.063699
108.501,82.3403,0.063699
108.531,82.3403,0.063756
108.562,82.3403,0.063756
108.593,82.3403,0.063756
108.625,82.3403,0.063756
108.657,82.3403,0.063756
108.689,82.3403,0.063756
108.720,82.3403,0.063756
108.751,82.3403,0.063756
108.782,82.3403,0.063888
108.813,82.3403,0.063888
108.843,82.3403,0.063888
108.874,82.3403,0.063888
108.905,82.3403,0.063888
108.936,82.3403,0.063888
108.967,82.3403,0.063888
108.999,82.3403,0.063888
109.030,82.3403,0.063916
109.062,82.3403,0.063916
109.091,82.3403,0.063916
109.122,82.3403,0.063916
109.154,82.3403,0.063916
109.186,82.3403,0.063916
109.216,82.3403,0.063916
109.247,82.3403,0.063916
109.278,82.3403,0.063888
109.309,82.3403,0.063888
109.340,82.3403,0.063888
109.371,82.3403,0.063888
109.402,82.3403,0.063888
109.433,82.3403,0.063888
109.464,82.3403,0.063888
109.495,82.3403,0.063888
109.527,82.3403,0.063954
109.557,82.3403,0.063954
109.588,82.3403,0.063954
109.620,82.3403,0.063954
109.650,82.3403,0.063954
109.682,82.3403,0.063954
109.714,82.3403,0.063954
109.744,82.3403,0.063954
109.776,82.3403,0.063954
109.808,82.3403,0.064029
109.838,82.3403,0.064029
109.870,82.3403,0.064029
109.900,82.3403,0.064029
109.931,82.3403,0.064029
109.963,82.3403,0.064029
109.994,82.3403,0.064029
110.025,82.3403,0.064029
110.056,82.3403,0.064057
110.086,82.3403,0.064057
110.117,82.3403,0.064057
110.148,82.3403,0.064057
110.180,82.3403,0.064057
110.211,82.3403,0.064057
110.242,82.3403,0.064057
110.274,82.3403,0.064057
110.305,82.3403,0.064086
110.337,82.3403,0.064086
110.368,82.3403,0.064086
110.398,82.3403,0.064086
110.430,82.3403,0.064086
110.461,82.3403,0.064086
110.493,82.3403,0.064086
110.524,82.3403,0.064086
110.555,82.3403,0.064123
110.586,82.3403,0.064123
110.618,82.3403,0.064123
110.649,82.3403,0.064123
110.679,82.3403,0.064123
110.710,82.3403,0.064123
110.742,82.3403,0.064123
110.773,82.3403,0.064123
110.804,82.3403,0.064114
110.834,82.3403,0.064114
110.865,82.3403,0.064114
110.896,82.3403,0.064114
110.927,82.3403,0.064114
110.958,82.3403,0.064114
110.989,82.3403,0.064114
111.021,82.3403,0.064152
111.052,82.3403,0.064152
111.082,82.3403,0.064152
111.114,82.3403,0.064152
111.146,82.3403,0.064152
111.176,82.3403,0.064152
111.207,82.3403,0.064152
111.239,82.3403,0.064152
111.270,82.3403,0.064152
111.301,82.3403,0.064199
111.332,82.3403,0.064199
111.365,82.3403,0.064199
111.394,82.3403,0.064199
111.424,82.3403,0.064199
111.455,82.3403,0.064199
111.487,82.3403,0.064199
111.519,82.3403,0.064236
111.550,82.3403,0.064236
111.582,82.3403,0.064236
111.613,82.3403,0.064236
111.644,82.3403,0.064236
111.675,82.3403,0.064236
111.706,82.3403,0.064236
111.737,82.3403,0.064236
111.769,82.3403,0.064236
111.800,82.3403,0.064284
111.832,82.3403,0.064284
111.863,82.3403,0.064284
111.895,82.3403,0.064284
111.926,82.3403,0.064284
111.957,82.3403,0.064284
111.988,82.3403,0.064284
112.019,82.3403,0.064284
112.050,82.3403,0.064284
112.081,82.3402,0.064302
112.111,82.3394,0.064302
112.143,82.3379,0.064302
112.173,82.3358,0.064302
112.203,82.3328,0.064302
112.235,82.3294,0.064302
112.265,82.3250,0.064302
112.296,82.3199,0.064302
112.328,82.3140,0.064463
112.359,82.3077,0.064463
112.390,82.3015,0.064463
112.421,82.2954,0.064463
112.452,82.2892,0.064463
112.483,82.2831,0.064463
112.514,82.2768,0.064463
112.545,82.2706,0.065631
112.576,82.2645,0.065631
112.606,82.2583,0.065631
112.637,82.2521,0.065631
112.668,82.2460,0.065631
112.699,82.2398,0.065631
112.730,82.2335,0.065631
112.761,82.2272,0.065631
112.791,82.2213,0.066799
112.822,82.2150,0.066799
112.854,82.2088,0.066799
112.885,82.2024,0.066799
112.916,82.1962,0.066799
112.948,82.1900,0.066799
112.979,82.1836,0.066799
113.010,82.1776,0.066799
113.041,82.1712,0.067185
113.072,82.1653,0.067185
113.103,82.1587,0.067185
113.134,82.1528,0.067185
113.164,82.1466,0.067185
113.196,82.1402,0.067185
113.228,82.1338,0.067185
113.260,82.1275,0.067185
113.289,82.1217,0.067496
113.320,82.1155,0.067496
113.351,82.1093,0.067496
113.382,82.1029,0.067496
113.415,82.0966,0.067496
113.445,82.0905,0.067496
113.476,82.0843,0.067496
113.507,82.0782,0.067496
113.538,82.0720,0.067751
113.569,82.0658,0.067751
113.600,82.0595,0.067751
113.630,82.0535,0.067751
113.662,82.0472,0.067751
113.693,82.0410,0.067751
113.724,82.0348,0.067751
113.755,82.0285,0.067751
113.786,82.0223,0.067751
113.818,82.0161,0.068005
113.849,82.0098,0.068005
113.880,82.0037,0.068005
113.911,81.9975,0.068005
113.942,81.9910,0.068005
113.973,81.9851,0.068005
114.004,81.9785,0.068005
114.036,81.9723,0.068184
114.067,81.9662,0.068184
114.097,81.9600,0.068184
114.129,81.9538,0.068184
114.159,81.9477,0.068184
114.190,81.9415,0.068184
114.221,81.9353,0.068184
114.251,81.9293,0.068184
114.282,81.9231,0.068184
114.313,81.9170,0.068363
114.344,81.9107,0.068363
114.375,81.9047,0.068363
114.406,81.8983,0.068363
114.438,81.8921,0.068363
114.469,81.8857,0.068363
114.500,81.8794,0.068363
114.531,81.8733,0.068363
114.563,81.8670,0.068570
114.594,81.8608,0.068570
114.625,81.8547,0.068570
114.656,81.8484,0.068570
114.686,81.8423,0.068570
114.717,81.8361,0.068570
114.748,81.8299,0.068570
114.780,81.8236,0.068570
114.811,81.8174,0.068768
114.842,81.8113,0.068768
114.873,81.8049,0.068768
114.904,81.7985,0.068768
114.935,81.7926,0.068768
114.966,81.7863,0.068768
114.996,81.7803,0.068768
115.027,81.7740,0.068768
115.058,81.7679,0.069023
115.088,81.7620,0.069023
115.119,81.7556,0.069023
115.149,81.7496,0.069023
115.181,81.7434,0.069023
115.213,81.7370,0.069023
115.243,81.7308,0.069023
115.274,81.7247,0.069023
115.305,81.7185,0.069230
115.338,81.7120,0.069230
115.367,81.7061,0.069230
115.398,81.6999,0.069230
115.429,81.6937,0.069230
115.460,81.6874,0.069230
115.491,81.6813,0.069230
115.522,81.6751,0.069362
115.554,81.6688,0.069362
115.585,81.6625,0.069362
115.617,81.6563,0.069362
115.648,81.6498,0.069362
115.679,81.6438,0.069362
115.711,81.6374,0.069362
115.742,81.6312,0.069362
115.774,81.6249,0.069362
115.805,81.6187,0.069531
115.836,81.6124,0.069531
115.866,81.6063,0.069531
115.898,81.6000,0.069531
115.928,81.5939,0.069531
115.959,81.5877,0.069531
115.990,81.5814,0.069531
116.022,81.5753,0.069531
116.053,81.5690,0.069531
116.084,81.5626,0.069786
116.116,81.5564,0.069786
116.147,81.5501,0.069786
116.177,81.5442,0.069786
116.209,81.5378,0.069786
116.239,81.5318,0.069786
116.271,81.5253,0.069786
116.301,81.5194,0.069927
116.332,81.5132,0.069927
116.363,81.5071,0.069927
116.394,81.5008,0.069927
116.425,81.4947,0.069927
116.456,81.4880,0.069927
116.486,81.4823,0.069927
116.518,81.4758,0.069927
116.549,81.4699,0.070031
116.580,81.4636,0.070031
116.611,81.4575,0.070031
116.642,81.4512,0.070031
116.673,81.4448,0.070031
116.705,81.4387,0.070031
116.737,81.4322,0.070031
116.766,81.4263,0.070031
116.798,81.4199,0.070181
116.828,81.4139,0.070181
116.860,81.4075,0.070181
116.891,81.4013,0.070181
116.922,81.3950,0.070181
116.954,81.3889,0.070181
116.985,81.3824,0.070181
117.017,81.3761,0.070342
117.048,81.3700,0.070342
117.079,81.3638,0.070342
117.110,81.3575,0.070342
117.140,81.3514,0.070342
117.172,81.3451,0.070342
117.203,81.3390,0.070342
117.233,81.3327,0.070342
117.264,81.3268,0.070540
117.295,81.3203,0.070540
117.326,81.3142,0.070540
117.358,81.3078,0.070540
117.389,81.3017,0.070540
117.420,81.2955,0.070540
117.451,81.2893,0.070540
117.481,81.2833,0.070540
117.514,81.2767,0.070540
117.545,81.2707,0.070671
117.575,81.2645,0.070671
117.606,81.2584,0.070671
117.637,81.2521,0.070671
117.668,81.2459,0.070671
117.699,81.2396,0.070671
117.728,81.2340,0.070671
117.761,81.2273,0.070671
117.792,81.2210,0.070832
117.823,81.2149,0.070832
117.854,81.2087,0.070832
117.886,81.2024,0.070832
117.916,81.1963,0.070832
117.947,81.1901,0.070832
117.978,81.1840,0.070832
118.009,81.1777,0.070832
118.041,81.1714,0.071020
118.072,81.1652,0.071020
118.103,81.1591,0.071020
118.134,81.1526,0.071020
118.165,81.1467,0.071020
118.196,81.1402,0.071020
118.227,81.1341,0.071020
118.259,81.1277,0.071020
118.290,81.1216,0.071199
118.320,81.1154,0.071199
118.350,81.1096,0.071199
118.382,81.1030,0.071199
118.413,81.0969,0.071199
118.444,81.0907,0.071199
118.476,81.0843,0.071199
118.506,81.0785,0.071199
118.537,81.0720,0.071378
118.567,81.0662,0.071378
118.598,81.0599,0.071378
118.629,81.0538,0.071378
118.660,81.0473,0.071378
118.691,81.0415,0.071378
118.722,81.0352,0.071378
118.752,81.0292,0.071378
118.783,81.0228,0.071378
118.815,81.0167,0.071491
118.845,81.0106,0.071491
118.875,81.0045,0.071491
118.907,80.9981,0.071491
118.938,80.9920,0.071491
118.970,80.9856,0.071491
119.000,80.9796,0.071491
119.031,80.9733,0.071491
119.063,80.9671,0.071585
119.095,80.9606,0.071585
119.125,80.9546,0.071585
119.155,80.9485,0.071585
119.186,80.9423,0.071585
119.217,80.9361,0.071585
119.248,80.9301,0.071585
119.279,80.9238,0.071585
119.309,80.9179,0.071585
119.341,80.9113,0.071717
119.371,80.9054,0.071717
119.402,80.8991,0.071717
119.432,80.8932,0.071717
119.464,80.8867,0.071717
119.495,80.8808,0.071717
119.525,80.8746,0.071717
119.556,80.8684,0.071840
119.587,80.8622,0.071840
119.618,80.8560,0.071840
119.649,80.8496,0.071840
119.681,80.8434,0.071840
119.712,80.8372,0.071840
119.743,80.8310,0.071840
119.775,80.8246,0.071840
119.806,80.8183,0.071924
119.837,80.8121,0.071924
119.868,80.8060,0.071924
119.899,80.7997,0.071924
119.930,80.7937,0.071924
119.960,80.7875,0.071924
119.991,80.7814,0.071924
120.022,80.7752,0.071924
120.054,80.7688,0.072047
120.085,80.7626,0.072047
120.117,80.7561,0.072047
120.148,80.7502,0.072047
120.179,80.7438,0.072047
120.210,80.7375,0.072047
120.241,80.7314,0.072047
120.272,80.7251,0.072179
120.303,80.7189,0.072179
120.334,80.7127,0.072179
120.366,80.7063,0.072179
120.398,80.7001,0.072179
120.429,80.6939,0.072179
120.460,80.6877,0.072179
120.492,80.6812,0.072179
120.521,80.6754,0.072179
120.553,80.6691,0.072245
120.584,80.6629,0.072245
120.615,80.6567,0.072245
120.646,80.6505,0.072245
120.677,80.6440,0.072245
120.709,80.6377,0.072245
120.739,80.6317,0.072245
120.770,80.6257,0.072245
120.801,80.6195,0.072348
120.833,80.6129,0.072348
120.864,80.6068,0.072348
120.895,80.6006,0.072348
120.927,80.5943,0.072348
120.957,80.5883,0.072348
120.989,80.5816,0.072348
121.021,80.5754,0.072348
121.052,80.5691,0.072462
121.083,80.5630,0.072462
121.114,80.5568,0.072462
121.145,80.5505,0.072462
121.176,80.5443,0.072462
121.208,80.5380,0.072462
121.238,80.5319,0.072462
121.269,80.5257,0.072462
121.300,80.5196,0.072462
121.332,80.5132,0.072509
121.363,80.5070,0.072509
121.394,80.5006,0.072509
121.425,80.4947,0.072509
121.455,80.4885,0.072509
121.486,80.4824,0.072509
121.517,80.4762,0.072509
121.548,80.4700,0.072584
121.579,80.4638,0.072584
121.610,80.4574,0.072584
121.642,80.4512,0.072584
121.672,80.4451,0.072584
121.704,80.4389,0.072584
121.736,80.4324,0.072584
121.767,80.4262,0.072584
121.798,80.4199,0.072584
121.829,80.4139,0.072697
121.859,80.4079,0.072697
121.890,80.4017,0.072697
121.921,80.3953,0.072697
121.953,80.3890,0.072697
121.984,80.3827,0.072697
122.015,80.3767,0.072697
122.047,80.3703,0.072754
122.079,80.3640,0.072754
122.110,80.3575,0.072754
122.141,80.3513,0.072754
122.172,80.3452,0.072754
122.203,80.3390,0.072754
122.234,80.3328,0.072754
122.265,80.3266,0.072754
122.295,80.3204,0.072782
122.326,80.3145,0.072782
122.357,80.3080,0.072782
122.388,80.3020,0.072782
122.420,80.2956,0.072782
122.451,80.2895,0.072782
122.482,80.2831,0.072782
122.513,80.2771,0.072782
122.544,80.2707,0.072782
122.574,80.2647,0.072829
122.606,80.2582,0.072829
122.634,80.2528,0.072829
122.668,80.2459,0.072829
122.699,80.2398,0.072829
122.730,80.2334,0.072829
122.761,80.2273,0.072829
122.792,80.2212,0.072914
122.826,80.2144,0.072914
122.854,80.2088,0.072914
122.885,80.2026,0.072914
122.916,80.1964,0.072914
122.947,80.1903,0.072914
122.979,80.1839,0.072914
123.010,80.1776,0.072914
123.041,80.1714,0.072914
123.072,80.1653,0.072970
123.103,80.1590,0.072970
123.133,80.1529,0.072970
123.165,80.1465,0.072970
123.195,80.1405,0.072970
123.227,80.1341,0.072970
123.257,80.1281,0.072970
123.288,80.1219,0.072989
123.320,80.1157,0.072989
123.350,80.1096,0.072989
123.381,80.1034,0.072989
123.412,80.0972,0.072989
123.443,80.0911,0.072989
123.474,80.0849,0.072989
123.505,80.0786,0.072989
123.535,80.0725,0.072989
123.566,80.0662,0.072989
123.598,80.0601,0.072989
123.629,80.0538,0.072989
123.659,80.0477,0.072989
123.691,80.0414,0.072989
123.721,80.0354,0.072989
123.753,80.0290,0.072989
123.784,80.0229,0.073008
123.814,80.0166,0.073008
123.845,80.0106,0.073008
123.876,80.0043,0.073008
123.906,79.9983,0.073008
123.937,79.9921,0.073008
123.967,79.9861,0.073008
123.998,79.9799,0.073008
124.030,79.9734,0.073046
124.061,79.9675,0.073046
124.092,79.9611,0.073046
124.122,79.9551,0.073046
124.153,79.9489,0.073046
124.184,79.9428,0.073046
124.214,79.9367,0.073046
124.246,79.9303,0.073046
124.277,79.9242,0.073017
124.309,79.9179,0.073017
124.339,79.9118,0.073017
124.370,79.9054,0.073017
124.401,79.8994,0.073017
124.433,79.8930,0.073017
124.463,79.8871,0.073017
124.494,79.8808,0.073017
124.525,79.8748,0.072961
124.555,79.8685,0.072961
124.586,79.8625,0.072961
124.616,79.8563,0.072961
124.648,79.8500,0.072961
124.679,79.8438,0.072961
124.711,79.8374,0.072961
124.742,79.8310,0.072961
124.773,79.8250,0.072923
124.805,79.8186,0.072923
124.834,79.8128,0.072923
124.865,79.8067,0.072923
124.896,79.8005,0.072923
124.927,79.7943,0.072923
124.958,79.7881,0.072923
124.990,79.7817,0.072923
125.021,79.7753,0.072923
125.052,79.7691,0.072876
125.083,79.7629,0.072876
125.114,79.7567,0.072876
125.145,79.7507,0.072876
125.177,79.7442,0.072876
125.210,79.7376,0.072876
125.240,79.7317,0.072876
125.272,79.7251,0.072876
125.302,79.7193,0.072876
125.332,79.7132,0.072810
125.363,79.7070,0.072810
125.394,79.7008,0.072810
125.424,79.6947,0.072810
125.455,79.6884,0.072810
125.486,79.6826,0.072810
125.518,79.6760,0.072810
125.548,79.6701,0.072735
125.580,79.6637,0.072735
125.611,79.6574,0.072735
125.641,79.6514,0.072735
125.672,79.6452,0.072735
125.703,79.6390,0.072735
125.734,79.6330,0.072735
125.764,79.6266,0.072735
125.795,79.6206,0.072650
125.828,79.6140,0.072650
125.857,79.6082,0.072650
125.889,79.6018,0.072650
125.920,79.5958,0.072650
125.951,79.5896,0.072650
125.981,79.5835,0.072650
126.013,79.5770,0.072650
126.044,79.5708,0.072565
126.075,79.5646,0.072565
126.106,79.5584,0.072565
126.138,79.5520,0.072565
126.168,79.5462,0.072565
126.199,79.5398,0.072565
126.230,79.5336,0.072565
126.263,79.5271,0.072565
126.293,79.5209,0.072499
126.325,79.5147,0.072499
126.355,79.5087,0.072499
126.388,79.5021,0.072499
126.418,79.4962,0.072499
126.448,79.4898,0.072499
126.480,79.4838,0.072499
126.510,79.4776,0.072499
126.541,79.4715,0.072424
126.572,79.4650,0.072424
126.604,79.4590,0.072424
126.635,79.4526,0.072424
126.666,79.4463,0.072424
126.698,79.4400,0.072424
126.730,79.4337,0.072424
126.760,79.4275,0.072424
126.791,79.4215,0.072348
126.821,79.4153,0.072348
126.853,79.4091,0.072348
126.884,79.4028,0.072348
126.915,79.3966,0.072348
126.945,79.3905,0.072348
126.977,79.3843,0.072348
127.008,79.3781,0.072348
127.039,79.3717,0.072348
127.071,79.3656,0.072292
127.101,79.3594,0.072292
127.132,79.3533,0.072292
127.164,79.3470,0.072292
127.194,79.3409,0.072292
127.225,79.3347,0.072292
127.256,79.3285,0.072292
127.288,79.3222,0.072292
127.318,79.3158,0.072179
127.350,79.3101,0.072179
127.381,79.3052,0.072179
127.412,79.3007,0.072179
127.443,79.2972,0.072179
127.475,79.2944,0.072179
127.505,79.2924,0.072179
127.536,79.2909,0.071990
127.567,79.2903,0.071990
127.600,79.2903,0.071990
127.630,79.2903,0.071990
127.660,79.2903,0.071990
127.691,79.2903,0.071990
127.723,79.2903,0.071990
127.754,79.2903,0.071990
127.786,79.2903,0.071755
127.816,79.2903,0.071755
127.848,79.2903,0.071755
127.880,79.2903,0.071755
127.909,79.2903,0.071755
127.941,79.2903,0.071755
127.972,79.2903,0.071755
128.003,79.2903,0.071755
128.034,79.2903,0.071651
128.066,79.2903,0.071651
128.097,79.2905,0.071651
128.127,79.2915,0.071651
128.158,79.2933,0.071651
128.189,79.2957,0.071651
128.220,79.2990,0.071651
128.252,79.3028,0.071651
128.283,79.3075,0.071651
128.313,79.3127,0.071482
128.345,79.3191,0.071482
128.376,79.3253,0.071482
128.406,79.3313,0.071482
128.437,79.3373,0.071482
128.469,79.3439,0.071482
128.501,79.3502,0.071482
128.531,79.3561,0.071190
128.562,79.3623,0.071190
128.593,79.3687,0.071190
128.625,79.3750,0.071190
128.656,79.3812,0.071190
128.688,79.3875,0.071190
128.719,79.3937,0.071190
128.750,79.3999,0.071190
128.781,79.4063,0.071029
128.811,79.4122,0.071029
128.844,79.4187,0.071029
128.873,79.4245,0.071029
128.903,79.4308,0.071029
128.936,79.4373,0.071029
128.967,79.4435,0.071029
128.998,79.4497,0.071029
129.029,79.4559,0.071029
129.061,79.4622,0.071020
129.093,79.4686,0.071020
129.124,79.4748,0.071020
129.156,79.4812,0.071020
129.186,79.4872,0.071020
129.217,79.4936,0.071020
129.248,79.4996,0.071020
129.280,79.5061,0.071020
129.311,79.5122,0.071001
129.342,79.5186,0.071001
129.373,79.5246,0.071001
129.404,79.5306,0.071001
129.434,79.5369,0.071001
129.466,79.5431,0.071001
129.498,79.5495,0.071001
129.528,79.5556,0.070841
129.558,79.5615,0.070841
129.588,79.5676,0.070841
129.619,79.5737,0.070841
129.650,79.5800,0.070841
129.681,79.5863,0.070841
129.712,79.5924,0.070841
129.744,79.5987,0.070841
129.775,79.6048,0.070766
129.805,79.6110,0.070766
129.837,79.6175,0.070766
129.868,79.6234,0.070766
129.898,79.6296,0.070766
129.929,79.6359,0.070766
129.960,79.6420,0.070766
129.992,79.6483,0.070766
130.023,79.6544,0.070766
130.054,79.6607,0.070756
130.084,79.6668,0.070756
130.116,79.6733,0.070756
130.147,79.6794,0.070756
130.178,79.6857,0.070756
130.209,79.6919,0.070756
130.240,79.6981,0.070756
130.271,79.7042,0.070756
130.301,79.7104,0.070728
130.333,79.7167,0.070728
130.364,79.7226,0.070728
130.395,79.7290,0.070728
130.426,79.7352,0.070728
130.458,79.7415,0.070728
130.488,79.7474,0.070728
130.519,79.7538,0.070728
130.549,79.7597,0.070662
130.580,79.7660,0.070662
130.611,79.7721,0.070662
130.642,79.7783,0.070662
130.673,79.7844,0.070662
130.704,79.7909,0.070662
130.735,79.7969,0.070662
130.767,79.8031,0.070662
130.797,79.8093,0.070615
130.828,79.8157,0.070615
130.860,79.8220,0.070615
130.891,79.8282,0.070615
130.922,79.8344,0.070615
130.953,79.8405,0.070615
130.984,79.8467,0.070615
131.016,79.8532,0.070615
131.047,79.8592,0.070568
131.077,79.8654,0.070568
131.108,79.8717,0.070568
131.141,79.8780,0.070568
131.170,79.8840,0.070568
131.202,79.8904,0.070568
131.233,79.8964,0.070568
131.264,79.9028,0.070568
131.295,79.9089,0.070530
131.326,79.9151,0.070530
131.357,79.9213,0.070530
131.388,79.9274,0.070530
131.419,79.9336,0.070530
131.450,79.9398,0.070530
131.480,79.9460,0.070530
131.511,79.9521,0.070530
131.542,79.9584,0.070492
131.574,79.9649,0.070492
131.605,79.9709,0.070492
131.637,79.9773,0.070492
131.668,79.9835,0.070492
131.700,79.9899,0.070492
131.731,79.9961,0.070492
131.764,80.0027,0.070436
131.794,80.0086,0.070436
131.825,80.0151,0.070436
131.858,80.0214,0.070436
131.887,80.0275,0.070436
131.918,80.0334,0.070436
131.949,80.0396,0.070436
131.980,80.0458,0.070436
132.009,80.0518,0.070436
132.041,80.0580,0.070455
132.072,80.0643,0.070455
132.102,80.0704,0.070455
132.134,80.0768,0.070455
132.166,80.0830,0.070455
132.197,80.0894,0.070455
132.228,80.0955,0.070455
132.259,80.1017,0.070455
132.289,80.1079,0.070426
132.321,80.1141,0.070426
132.352,80.1203,0.070426
132.384,80.1268,0.070426
132.414,80.1328,0.070426
132.445,80.1390,0.070426
132.476,80.1449,0.070426
132.507,80.1513,0.070426
132.537,80.1572,0.070304
132.568,80.1635,0.070304
132.599,80.1697,0.070304
132.630,80.1758,0.070304
132.661,80.1823,0.070304
132.692,80.1883,0.070304
132.723,80.1947,0.070304
132.754,80.2007,0.070304
132.785,80.2068,0.070304
132.817,80.2133,0.070304
132.849,80.2196,0.070304
132.880,80.2258,0.070304
132.910,80.2321,0.070304
132.942,80.2382,0.070304
132.972,80.2444,0.070304
133.002,80.2504,0.070304
133.034,80.2567,0.070304
133.064,80.2629,0.070266
133.096,80.2691,0.070266
133.126,80.2753,0.070266
133.156,80.2811,0.070266
133.188,80.2876,0.070266
133.219,80.2939,0.070266
133.250,80.3001,0.070266
133.281,80.3062,0.070266
133.312,80.3124,0.070116
133.344,80.3188,0.070116
133.375,80.3249,0.070116
133.406,80.3311,0.070116
133.437,80.3372,0.070116
133.468,80.3436,0.070116
133.499,80.3498,0.070116
133.530,80.3561,0.070050
133.561,80.3621,0.070050
133.592,80.3683,0.070050
133.623,80.3745,0.070050
133.654,80.3808,0.070050
133.685,80.3868,0.070050
133.716,80.3931,0.070050
133.747,80.3992,0.070050
133.778,80.4055,0.070040
133.810,80.4120,0.070040
133.842,80.4183,0.070040
133.873,80.4245,0.070040
133.904,80.4306,0.070040
133.935,80.4369,0.070040
133.965,80.4430,0.070040
133.997,80.4493,0.070040
134.027,80.4552,0.070012
134.058,80.4614,0.070012
134.090,80.4678,0.070012
134.120,80.4741,0.070012
134.151,80.4800,0.070012
134.182,80.4864,0.070012
134.213,80.4923,0.070012
134.243,80.4985,0.070012
134.274,80.5047,0.070012
134.306,80.5112,0.069946
134.338,80.5174,0.069946
134.369,80.5238,0.069946
134.400,80.5300,0.069946
134.432,80.5364,0.069946
134.463,80.5426,0.069946
134.494,80.5488,0.069946
134.524,80.5548,0.069795
134.555,80.5608,0.069795
134.585,80.5670,0.069795
134.619,80.5737,0.069795
134.647,80.5795,0.069795
134.678,80.5857,0.069795
134.709,80.5918,0.069795
134.741,80.5982,0.069795
134.771,80.6042,0.069795
134.802,80.6105,0.069663
134.833,80.6165,0.069663
134.864,80.6228,0.069663
134.895,80.6290,0.069663
134.927,80.6355,0.069663
134.958,80.6414,0.069663
134.990,80.6480,0.069663
135.021,80.6542,0.069579
135.053,80.6605,0.069579
135.084,80.6667,0.069579
135.115,80.6729,0.069579
135.146,80.6791,0.069579
135.178,80.6856,0.069579
135.208,80.6916,0.069579
135.239,80.6976,0.069579
135.270,80.7039,0.069484
135.300,80.7099,0.069484
135.332,80.7162,0.069484
135.362,80.7223,0.069484
135.393,80.7286,0.069484
135.424,80.7347,0.069484
135.455,80.7410,0.069484
135.487,80.7474,0.069484
135.518,80.7534,0.069296
135.548,80.7596,0.069296
135.580,80.7659,0.069296
135.611,80.7721,0.069296
135.643,80.7784,0.069296
135.676,80.7850,0.069296
135.705,80.7910,0.069296
135.736,80.7972,0.069296
135.768,80.8035,0.069126
135.799,80.8097,0.069126
135.830,80.8160,0.069126
135.862,80.8222,0.069126
135.892,80.8283,0.069126
135.923,80.8345,0.069126
135.954,80.8407,0.069126
135.985,80.8469,0.069126
136.016,80.8531,0.069126
136.047,80.8592,0.068919
136.078,80.8655,0.068919
136.110,80.8718,0.068919
136.142,80.8782,0.068919
136.173,80.8844,0.068919
136.204,80.8908,0.068919
136.235,80.8969,0.068919
136.265,80.9030,0.068919
136.297,80.9092,0.068712
136.328,80.9155,0.068712
136.360,80.9218,0.068712
136.390,80.9280,0.068712
136.420,80.9340,0.068712
136.451,80.9401,0.068712
136.482,80.9464,0.068712
136.514,80.9526,0.068712
136.544,80.9588,0.068580
136.576,80.9650,0.068580
136.606,80.9712,0.068580
136.638,80.9775,0.068580
136.668,80.9836,0.068580
136.699,80.9898,0.068580
136.730,80.9960,0.068580
136.761,81.0021,0.068580
136.792,81.0084,0.068354
136.823,81.0145,0.068354
136.855,81.0209,0.068354
136.886,81.0272,0.068354
136.917,81.0334,0.068354
136.947,81.0394,0.068354
136.978,81.0455,0.068354
137.010,81.0519,0.068128
137.040,81.0579,0.068128
137.072,81.0643,0.068128
137.104,81.0706,0.068128
137.134,81.0766,0.068128
137.164,81.0828,0.068128
137.196,81.0890,0.068128
137.227,81.0953,0.068128
137.258,81.1015,0.068128
137.290,81.1079,0.067939
137.321,81.1141,0.067939
137.352,81.1203,0.067939
137.382,81.1262,0.067939
137.413,81.1325,0.067939
137.445,81.1387,0.067939
137.476,81.1451,0.067939
137.507,81.1515,0.067939
137.538,81.1576,0.067939
137.569,81.1637,0.067666
137.599,81.1697,0.067666
137.629,81.1757,0.067666
137.661,81.1821,0.067666
137.691,81.1881,0.067666
137.722,81.1944,0.067666
137.754,81.2007,0.067666
137.785,81.2068,0.067666
137.816,81.2130,0.067383
137.847,81.2192,0.067383
137.878,81.2253,0.067383
137.909,81.2318,0.067383
137.940,81.2378,0.067383
137.971,81.2442,0.067383
138.002,81.2504,0.067383
138.033,81.2564,0.067383
138.064,81.2628,0.067138
138.095,81.2690,0.067138
138.125,81.2750,0.067138
138.157,81.2812,0.067138
138.188,81.2876,0.067138
138.220,81.2939,0.067138
138.252,81.3003,0.067138
138.282,81.3064,0.067138
138.313,81.3125,0.066912
138.344,81.3187,0.066912
138.375,81.3249,0.066912
138.407,81.3312,0.066912
138.438,81.3373,0.066912
138.469,81.3437,0.066912
138.500,81.3498,0.066912
138.531,81.3562,0.066912
138.562,81.3622,0.066648
138.593,81.3686,0.066648
138.624,81.3748,0.066648
138.656,81.3811,0.066648
138.687,81.3873,0.066648
138.719,81.3936,0.066648
138.750,81.3998,0.066648
138.781,81.4061,0.066648
138.811,81.4121,0.066337
138.843,81.4185,0.066337
138.874,81.4246,0.066337
138.906,81.4312,0.066337
138.937,81.4373,0.066337
138.967,81.4435,0.066337
138.998,81.4495,0.066337
139.030,81.4559,0.066083
139.060,81.4618,0.066083
139.091,81.4680,0.066083
139.122,81.4743,0.066083
139.153,81.4805,0.066083
139.183,81.4865,0.066083
139.214,81.4927,0.066083
139.245,81.4989,0.066083
139.276,81.5051,0.066083
139.307,81.5114,0.066083
139.338,81.5176,0.065848
139.370,81.5238,0.065848
139.400,81.5300,0.065848
139.431,81.5361,0.065848
139.462,81.5422,0.065848
139.494,81.5488,0.065848
139.525,81.5548,0.065593
139.557,81.5613,0.065593
139.588,81.5675,0.065593
139.620,81.5739,0.065593
139.650,81.5799,0.065593
139.681,81.5861,0.065593
139.712,81.5924,0.065593
139.742,81.5984,0.065593
139.773,81.6046,0.065593
139.805,81.6110,0.065593
139.836,81.6172,0.065329
139.867,81.6233,0.065329
139.898,81.6297,0.065329
139.929,81.6357,0.065329
139.961,81.6421,0.065329
139.991,81.6481,0.065329
140.024,81.6546,0.065329
140.053,81.6605,0.065066
140.084,81.6667,0.065066
140.115,81.6729,0.065066
140.146,81.6791,0.065066
140.177,81.6853,0.065066
140.207,81.6911,0.065066
140.237,81.6975,0.065066
140.268,81.7035,0.065066
140.300,81.7100,0.065066
140.331,81.7163,0.064830
140.363,81.7225,0.064830
140.394,81.7286,0.064830
140.425,81.7350,0.064830
140.457,81.7411,0.064830
140.487,81.7474,0.064830
140.518,81.7535,0.064830
140.550,81.7600,0.064576
140.580,81.7659,0.064576
140.612,81.7722,0.064576
140.644,81.7786,0.064576
140.674,81.7847,0.064576
140.705,81.7910,0.064576
140.737,81.7972,0.064576
140.767,81.8033,0.064576
140.798,81.8095,0.064576
140.829,81.8157,0.064293
140.860,81.8219,0.064293
140.892,81.8282,0.064293
140.922,81.8343,0.064293
140.952,81.8402,0.064293
140.983,81.8467,0.064293
141.016,81.8531,0.064293
141.045,81.8591,0.063973
141.076,81.8650,0.063973
141.106,81.8712,0.063973
141.137,81.8772,0.063973
141.168,81.8835,0.063973
141.200,81.8899,0.063973
141.230,81.8959,0.063973
141.263,81.9023,0.063973
141.293,81.9083,0.063718
141.324,81.9146,0.063718
141.355,81.9208,0.063718
141.386,81.9270,0.063718
141.416,81.9331,0.063718
141.447,81.9392,0.063718
141.478,81.9455,0.063718
141.509,81.9517,0.063718
141.540,81.9579,0.063483
141.572,81.9642,0.063483
141.603,81.9704,0.063483
141.634,81.9766,0.063483
141.666,81.9831,0.063483
141.697,81.9893,0.063483
141.728,81.9955,0.063483
141.759,82.0017,0.063483
141.789,82.0076,0.063200
141.821,82.0141,0.063200
141.852,82.0203,0.063200
141.883,82.0265,0.063200
141.914,82.0326,0.063200
141.945,82.0388,0.063200
141.976,82.0451,0.063200
142.006,82.0511,0.063200
142.037,82.0575,0.063200
142.069,82.0637,0.062936
142.100,82.0699,0.062936
142.132,82.0762,0.062936
142.162,82.0823,0.062936
142.194,82.0885,0.062936
142.225,82.0948,0.062936
142.257,82.1012,0.062936
142.287,82.1074,0.062936
142.318,82.1134,0.062672
142.349,82.1199,0.062672
142.381,82.1260,0.062672
142.412,82.1323,0.062672
142.443,82.1384,0.062672
142.473,82.1446,0.062672
142.504,82.1508,0.062672
142.536,82.1571,0.062672
142.567,82.1633,0.062409
142.599,82.1696,0.062409
142.629,82.1757,0.062409
142.661,82.1820,0.062409
142.693,82.1885,0.062409
142.723,82.1944,0.062409
142.755,82.2007,0.062409
142.785,82.2067,0.062079
142.816,82.2132,0.062079
142.846,82.2191,0.062079
142.878,82.2254,0.062079
142.908,82.2315,0.062079
142.940,82.2378,0.062079
142.971,82.2443,0.062079
143.002,82.2502,0.062079
143.034,82.2567,0.061787
143.065,82.2628,0.061787
143.096,82.2688,0.061787
143.127,82.2739,0.061787
143.158,82.2785,0.061787
143.189,82.2824,0.061787
143.220,82.2853,0.061787
143.251,82.2877,0.061787
143.282,82.2893,0.061787
143.313,82.2902,0.061834
143.344,82.2903,0.061834
143.375,82.2903,0.061834
143.405,82.2903,0.061834
143.437,82.2903,0.061834
143.466,82.2903,0.061834
143.497,82.2903,0.061834
143.528,82.2903,0.062625
143.559,82.2903,0.062625
143.590,82.2903,0.062625
143.623,82.2903,0.062625
143.653,82.2903,0.062625
143.685,82.2903,0.062625
143.716,82.2903,0.062625
143.746,82.2903,0.062625
143.777,82.2903,0.062625
143.808,82.2903,0.063426
143.838,82.2903,0.063426
143.869,82.2903,0.063426
143.899,82.2903,0.063426
143.931,82.2903,0.063426
143.962,82.2903,0.063426
143.993,82.2903,0.063426
144.024,82.2903,0.063605
144.055,82.2903,0.063605
144.086,82.2903,0.063605
144.118,82.2903,0.063605
144.148,82.2903,0.063605
144.180,82.2903,0.063605
144.211,82.2903,0.063605
144.242,82.2903,0.063605
144.273,82.2903,0.063765
144.304,82.2903,0.063765
144.336,82.2903,0.063765
144.366,82.2903,0.063765
144.397,82.2903,0.063765
144.428,82.2903,0.063765
144.460,82.2903,0.063765
144.493,82.2903,0.063765
144.524,82.2903,0.063765
144.554,82.2903,0.063860
144.584,82.2903,0.063860
144.616,82.2903,0.063860
144.647,82.2903,0.063860
144.678,82.2903,0.063860
144.709,82.2903,0.063860
144.741,82.2903,0.063860
144.772,82.2903,0.063860
144.803,82.2903,0.063860
144.834,82.2903,0.063897
144.865,82.2903,0.063897
144.897,82.2903,0.063897
144.928,82.2903,0.063897
144.960,82.2903,0.063897
144.990,82.2903,0.063897
145.021,82.2903,0.063897
145.053,82.2903,0.063992
145.084,82.2903,0.063992
145.114,82.2903,0.063992
145.147,82.2903,0.063992
145.176,82.2903,0.063992
145.207,82.2903,0.063992
145.237,82.2903,0.063992
145.270,82.2903,0.063992
145.301,82.2903,0.063992
145.332,82.2903,0.064048
145.361,82.2903,0.064048
145.392,82.2903,0.064048
145.423,82.2903,0.064048
145.455,82.2903,0.064048
145.486,82.2903,0.064048
145.518,82.2903,0.064048
145.549,82.2903,0.064029
145.579,82.2903,0.064029
145.609,82.2903,0.064029
145.641,82.2903,0.064029
145.672,82.2903,0.064029
145.703,82.2903,0.064029
145.734,82.2903,0.064029
145.765,82.2903,0.064029
145.795,82.2903,0.064029
145.826,82.2903,0.064057
145.857,82.2903,0.064057
145.888,82.2903,0.064057
145.919,82.2903,0.064057
145.951,82.2903,0.064057
145.981,82.2903,0.064057
146.013,82.2903,0.064057
146.043,82.2903,0.064171
146.075,82.2903,0.064171
146.106,82.2903,0.064171
146.137,82.2903,0.064171
146.168,82.2903,0.064171
146.199,82.2903,0.064171
146.230,82.2903,0.064171
146.261,82.2903,0.064171
146.293,82.2903,0.064199
146.324,82.2903,0.064199
146.355,82.2903,0.064199
146.387,82.2903,0.064199
146.418,82.2903,0.064199
146.449,82.2903,0.064199
146.480,82.2903,0.064199
146.513,82.2903,0.064199
146.543,82.2903,0.064161
146.574,82.2903,0.064161
146.604,82.2903,0.064161
146.635,82.2903,0.064161
146.667,82.2903,0.064161
146.698,82.2903,0.064161
146.730,82.2903,0.064161
146.761,82.2903,0.064161
146.792,82.2903,0.064208
146.823,82.2903,0.064208
146.853,82.2903,0.064208
146.884,82.2903,0.064208
146.915,82.2903,0.064208
146.946,82.2903,0.064208
146.975,82.2903,0.064208
147.006,82.2903,0.064208
147.037,82.2903,0.064255
147.068,82.2903,0.064255
147.099,82.2903,0.064255
147.130,82.2903,0.064255
147.161,82.2903,0.064255
147.192,82.2903,0.064255
147.223,82.2903,0.064255
147.254,82.2903,0.064255
147.284,82.2903,0.064293
147.315,82.2903,0.064293
147.347,82.2903,0.064293
147.377,82.2903,0.064293
147.409,82.2903,0.064293
147.440,82.2903,0.064293
147.472,82.2903,0.064293
147.503,82.2903,0.064293
147.533,82.2903,0.064331
147.564,82.2903,0.064331
147.595,82.2903,0.064331
147.626,82.2903,0.064331
147.657,82.2903,0.064331
147.688,82.2903,0.064331
147.719,82.2903,0.064331
147.749,82.2903,0.064331
147.781,82.2903,0.064331
147.812,82.2903,0.064331
147.843,82.2903,0.064331
147.875,82.2903,0.064331
147.905,82.2903,0.064331
147.936,82.2903,0.064331
147.967,82.2903,0.064331
147.997,82.2903,0.064331
148.028,82.2903,0.064340
148.058,82.2903,0.064340
148.089,82.2903,0.064340
148.120,82.2899,0.064340
148.151,82.2888,0.064340
148.182,82.2869,0.064340
148.213,82.2845,0.064340
148.244,82.2811,0.064340
148.275,82.2771,0.064340
148.306,82.2724,0.064340
148.337,82.2667,0.064481
148.368,82.2608,0.064481
148.398,82.2548,0.064481
148.430,82.2486,0.064481
148.461,82.2423,0.064481
148.492,82.2361,0.064481
148.523,82.2299,0.064481
148.553,82.2238,0.065593
148.585,82.2174,0.065593
148.616,82.2113,0.065593
148.647,82.2050,0.065593
148.679,82.1988,0.065593
148.709,82.1926,0.065593
148.740,82.1862,0.065593
148.771,82.1802,0.065593
148.802,82.1738,0.066809
148.834,82.1676,0.066809
148.865,82.1616,0.066809
148.896,82.1552,0.066809
148.927,82.1492,0.066809
148.957,82.1430,0.066809
148.988,82.1369,0.066809
149.019,82.1304,0.066809
149.049,82.1246,0.067185
149.081,82.1183,0.067185
149.112,82.1121,0.067185
149.143,82.1057,0.067185
149.174,82.0995,0.067185
149.205,82.0933,0.067185
149.237,82.0870,0.067185
149.267,82.0808,0.067185
149.299,82.0746,0.067515
149.330,82.0683,0.067515
149.361,82.0623,0.067515
149.392,82.0560,0.067515
149.422,82.0498,0.067515
149.453,82.0439,0.067515
149.483,82.0377,0.067515
149.515,82.0316,0.067515
149.545,82.0253,0.067760
149.576,82.0192,0.067760
149.607,82.0131,0.067760
149.637,82.0070,0.067760
149.669,82.0007,0.067760
149.700,81.9944,0.067760
149.731,81.9883,0.067760
149.762,81.9820,0.068015
149.793,81.9759,0.068015
149.824,81.9697,0.068015
149.855,81.9634,0.068015
149.887,81.9570,0.068015
149.918,81.9506,0.068015
149.950,81.9445,0.068015
149.982,81.9381,0.068015
150.012,81.9321,0.068015
150.043,81.9259,0.068259
150.073,81.9200,0.068259
150.105,81.9134,0.068259
150.136,81.9073,0.068259
150.168,81.9007,0.068259
150.199,81.8948,0.068259
150.229,81.8885,0.068259
150.260,81.8825,0.068259
150.292,81.8759,0.068401
150.322,81.8700,0.068401
150.354,81.8637,0.068401
150.384,81.8575,0.068401
150.416,81.8513,0.068401
150.447,81.8451,0.068401
150.478,81.8388,0.068401
150.509,81.8326,0.068401
150.541,81.8262,0.068627
150.573,81.8199,0.068627
150.603,81.8139,0.068627
150.633,81.8078,0.068627
150.664,81.8015,0.068627
150.694,81.7956,0.068627
150.725,81.7894,0.068627
150.756,81.7832,0.068627
150.788,81.7770,0.068627
150.819,81.7708,0.068806
150.850,81.7643,0.068806
150.881,81.7582,0.068806
150.912,81.7520,0.068806
150.943,81.7460,0.068806
150.973,81.7398,0.068806
151.004,81.7334,0.068806
151.036,81.7274,0.068806
151.066,81.7210,0.068806
151.097,81.7150,0.069032
151.128,81.7087,0.069032
151.160,81.7024,0.069032
151.190,81.6965,0.069032
151.221,81.6901,0.069032
151.252,81.6841,0.069032
151.285,81.6775,0.069032
151.314,81.6717,0.069258
151.345,81.6653,0.069258
151.377,81.6591,0.069258
151.407,81.6528,0.069258
151.438,81.6469,0.069258
151.469,81.6405,0.069258
151.501,81.6342,0.069258
151.533,81.6279,0.069258
151.564,81.6216,0.069400
151.595,81.6155,0.069400
151.626,81.6093,0.069400
151.657,81.6030,0.069400
151.688,81.5968,0.069400
151.719,81.5906,0.069400
151.750,81.5845,0.069400
151.781,81.5783,0.069400
151.812,81.5721,0.069569
151.844,81.5655,0.069569
151.875,81.5593,0.069569
151.906,81.5532,0.069569
151.939,81.5467,0.069569
151.969,81.5407,0.069569
152.001,81.5341,0.069569
152.031,81.5282,0.069767
152.063,81.5218,0.069767
152.093,81.5156,0.069767
152.125,81.5094,0.069767
152.156,81.5034,0.069767
152.187,81.4970,0.069767
152.218,81.4908,0.069767
152.249,81.4846,0.069767
152.280,81.4784,0.069927
152.311,81.4722,0.069927
152.342,81.4660,0.069927
152.372,81.4600,0.069927
152.403,81.4539,0.069927
152.435,81.4474,0.069927
152.466,81.4411,0.069927
152.497,81.4350,0.069927
152.529,81.4287,0.069927
152.561,81.4224,0.070068
152.592,81.4161,0.070068
152.623,81.4099,0.070068
152.654,81.4037,0.070068
152.685,81.3976,0.070068
152.715,81.3912,0.070068
152.747,81.3850,0.070068
152.777,81.3790,0.070068
152.808,81.3728,0.070257
152.839,81.3667,0.070257
152.870,81.3602,0.070257
152.901,81.3542,0.070257
152.933,81.3478,0.070257
152.963,81.3418,0.070257
152.995,81.3353,0.070257
153.028,81.3289,0.070257
153.057,81.3229,0.070426
153.089,81.3167,0.070426
153.120,81.3104,0.070426
153.151,81.3042,0.070426
153.183,81.2977,0.070426
153.214,81.2915,0.070426
153.246,81.2851,0.070426
153.279,81.2786,0.070426
153.308,81.2727,0.070568
153.339,81.2665,0.070568
153.370,81.2605,0.070568
153.401,81.2543,0.070568
153.432,81.2480,0.070568
153.463,81.2417,0.070568
153.495,81.2356,0.070568
153.525,81.2294,0.070709
153.557,81.2232,0.070709
153.588,81.2167,0.070709
153.619,81.2107,0.070709
153.650,81.2045,0.070709
153.680,81.1983,0.070709
153.712,81.1922,0.070709
153.743,81.1859,0.070709
153.774,81.1797,0.070709
153.805,81.1732,0.070832
153.836,81.1673,0.070832
153.867,81.1611,0.070832
153.898,81.1549,0.070832
153.930,81.1485,0.070832
153.960,81.1425,0.070832
153.991,81.1361,0.070832
154.023,81.1299,0.070992
154.055,81.1235,0.070992
154.085,81.1175,0.070992
154.116,81.1112,0.070992
154.147,81.1050,0.070992
154.178,81.0989,0.070992
154.208,81.0926,0.070992
154.239,81.0866,0.070992
154.270,81.0803,0.070992
154.301,81.0742,0.070992
154.332,81.0680,0.071152
154.362,81.0618,0.071152
154.393,81.0556,0.071152
154.424,81.0497,0.071152
154.456,81.0432,0.071152
154.486,81.0372,0.071152
154.517,81.0311,0.071152
154.549,81.0248,0.071322
154.580,81.0184,0.071322
154.612,81.0120,0.071322
154.642,81.0060,0.071322
154.673,80.9998,0.071322
154.704,80.9936,0.071322
154.734,80.9876,0.071322
154.765,80.9815,0.071322
154.796,80.9753,0.071519
154.827,80.9691,0.071519
154.858,80.9629,0.071519
154.889,80.9567,0.071519
154.920,80.9503,0.071519
154.950,80.9444,0.071519
154.982,80.9382,0.071519
155.012,80.9320,0.071519
155.043,80.9258,0.071623
155.074,80.9196,0.071623
155.106,80.9133,0.071623
155.137,80.9072,0.071623
155.167,80.9010,0.071623
155.198,80.8948,0.071623
155.229,80.8887,0.071623
155.260,80.8825,0.071623
155.291,80.8764,0.071698
155.321,80.8702,0.071698
155.353,80.8639,0.071698
155.384,80.8575,0.071698
155.415,80.8515,0.071698
155.446,80.8452,0.071698
155.477,80.8391,0.071698
155.509,80.8328,0.071698
155.540,80.8266,0.071774
155.571,80.8204,0.071774
155.601,80.8143,0.071774
155.633,80.8077,0.071774
155.664,80.8016,0.071774
155.696,80.7953,0.071774
155.726,80.7894,0.071774
155.756,80.7833,0.071774
155.787,80.7771,0.071924
155.818,80.7708,0.071924
155.850,80.7646,0.071924
155.881,80.7582,0.071924
155.912,80.7522,0.071924
155.943,80.7458,0.071924
155.974,80.7398,0.071924
156.005,80.7333,0.071924
156.037,80.7272,0.072066
156.067,80.7210,0.072066
156.098,80.7149,0.072066
156.129,80.7087,0.072066
156.159,80.7027,0.072066
156.191,80.6962,0.072066
156.221,80.6903,0.072066
156.252,80.6841,0.072066
156.283,80.6779,0.072169
156.314,80.6717,0.072169
156.346,80.6653,0.072169
156.378,80.6589,0.072169
156.409,80.6528,0.072169
156.440,80.6465,0.072169
156.471,80.6403,0.072169
156.502,80.6341,0.072169
156.534,80.6278,0.072292
156.565,80.6214,0.072292
156.596,80.6151,0.072292
156.629,80.6087,0.072292
156.660,80.6025,0.072292
156.691,80.5964,0.072292
156.722,80.5901,0.072292
156.753,80.5840,0.072292
156.784,80.5777,0.072358
156.814,80.5717,0.072358
156.845,80.5653,0.072358
156.876,80.5593,0.072358
156.907,80.5530,0.072358
156.938,80.5469,0.072358
156.969,80.5406,0.072358
157.001,80.5344,0.072358
157.032,80.5280,0.072358
157.063,80.5220,0.072414
157.093,80.5158,0.072414
157.125,80.5094,0.072414
157.154,80.5036,0.072414
157.186,80.4973,0.072414
157.217,80.4911,0.072414
157.248,80.4850,0.072414
157.279,80.4787,0.072414
157.311,80.4724,0.072471
157.342,80.4662,0.072471
157.373,80.4598,0.072471
157.404,80.4536,0.072471
157.435,80.4474,0.072471
157.468,80.4409,0.072471
157.498,80.4349,0.072471
157.530,80.4286,0.072471
157.562,80.4221,0.072603
157.593,80.4157,0.072603
157.625,80.4095,0.072603
157.656,80.4032,0.072603
157.688,80.3970,0.072603
157.719,80.3908,0.072603
157.750,80.3844,0.072603
157.782,80.3781,0.072650
157.813,80.3719,0.072650
157.844,80.3658,0.072650
157.875,80.3596,0.072650
157.906,80.3533,0.072650
157.936,80.3473,0.072650
157.967,80.3411,0.072650
157.997,80.3351,0.072650
158.028,80.3290,0.072678
158.060,80.3225,0.072678
158.090,80.3166,0.072678
158.121,80.3101,0.072678
158.152,80.3041,0.072678
158.182,80.2980,0.072678
158.213,80.2919,0.072678
158.244,80.2857,0.072678
158.275,80.2795,0.072678
158.305,80.2733,0.072716
158.336,80.2672,0.072716
158.367,80.2609,0.072716
158.398,80.2549,0.072716
158.429,80.2485,0.072716
158.461,80.2424,0.072716
158.492,80.2360,0.072716
158.523,80.2299,0.072716
158.555,80.2233,0.072716
158.586,80.2172,0.072744
158.618,80.2108,0.072744
158.649,80.2047,0.072744
158.680,80.1985,0.072744
158.710,80.1924,0.072744
158.742,80.1861,0.072744
158.773,80.1798,0.072744
158.804,80.1736,0.072848
158.835,80.1675,0.072848
158.865,80.1614,0.072848
158.896,80.1552,0.072848
158.927,80.1490,0.072848
158.958,80.1430,0.072848
158.989,80.1366,0.072848
159.021,80.1304,0.072848
159.052,80.1241,0.072848
159.084,80.1178,0.072914
159.114,80.1117,0.072914
159.146,80.1054,0.072914
159.177,80.0990,0.072914
159.209,80.0927,0.072914
159.240,80.0863,0.072914
159.272,80.0802,0.072914
159.302,80.0740,0.072914
159.333,80.0679,0.072904
159.363,80.0618,0.072904
159.396,80.0551,0.072904
159.428,80.0489,0.072904
159.459,80.0427,0.072904
159.490,80.0365,0.072904
159.521,80.0302,0.072904
159.552,80.0240,0.072895
159.583,80.0179,0.072895
159.616,80.0114,0.072895
159.646,80.0052,0.072895
159.678,79.9988,0.072895
159.709,79.9926,0.072895
159.740,79.9866,0.072895
159.771,79.9802,0.072895
159.801,79.9743,0.072933
159.833,79.9680,0.072933
159.863,79.9619,0.072933
159.894,79.9557,0.072933
159.925,79.9495,0.072933
159.956,79.9430,0.072933
159.987,79.9371,0.072933
160.021,79.9304,0.072933
160.050,79.9245,0.072923
160.082,79.9180,0.072923
160.113,79.9119,0.072923
160.144,79.9056,0.072923
160.175,79.8994,0.072923
160.207,79.8932,0.072923
160.237,79.8872,0.072923
160.268,79.8808,0.072923
160.299,79.8748,0.072867
160.330,79.8684,0.072867
160.361,79.8624,0.072867
160.392,79.8561,0.072867
160.423,79.8499,0.072867
160.455,79.8434,0.072867
160.486,79.8374,0.072867
160.517,79.8309,0.072867
160.549,79.8246,0.072857
160.579,79.8186,0.072857
160.609,79.8128,0.072857
160.640,79.8065,0.072857
160.671,79.8003,0.072857
160.703,79.7940,0.072857
160.734,79.7875,0.072857
160.766,79.7812,0.072782
160.798,79.7750,0.072782
160.829,79.7687,0.072782
160.859,79.7627,0.072782
160.891,79.7561,0.072782
160.923,79.7500,0.072782
160.954,79.7436,0.072782
160.985,79.7375,0.072782
161.017,79.7312,0.072678
161.048,79.7247,0.072678
161.079,79.7188,0.072678
161.110,79.7126,0.072678
161.141,79.7064,0.072678
161.172,79.7001,0.072678
161.203,79.6937,0.072678
161.234,79.6877,0.072678
161.267,79.6812,0.072678
161.295,79.6755,0.072631
161.327,79.6692,0.072631
161.357,79.6631,0.072631
161.388,79.6568,0.072631
161.419,79.6507,0.072631
161.451,79.6443,0.072631
161.482,79.6382,0.072631
161.514,79.6317,0.072631
161.545,79.6255,0.072584
161.576,79.6193,0.072584
161.607,79.6132,0.072584
161.638,79.6067,0.072584
161.670,79.6006,0.072584
161.700,79.5944,0.072584
161.731,79.5882,0.072584
161.763,79.5819,0.072499
161.794,79.5757,0.072499
161.826,79.5692,0.072499
161.857,79.5633,0.072499
161.888,79.5569,0.072499
161.920,79.5505,0.072499
161.951,79.5443,0.072499
161.981,79.5383,0.072499
162.011,79.5323,0.072499
162.042,79.5262,0.072414
162.073,79.5201,0.072414
162.104,79.5138,0.072414
162.134,79.5077,0.072414
162.165,79.5014,0.072414
162.196,79.4954,0.072414
162.229,79.4887,0.072414
162.259,79.4828,0.072414
162.290,79.4765,0.072414
162.320,79.4705,0.072358
162.351,79.4643,0.072358
162.382,79.4581,0.072358
162.414,79.4516,0.072358
162.444,79.4457,0.072358
162.475,79.4394,0.072358
162.507,79.4332,0.072358
162.537,79.4271,0.072358
162.568,79.4209,0.072301
162.599,79.4146,0.072301
162.630,79.4085,0.072301
162.662,79.4020,0.072301
162.692,79.3961,0.072301
162.724,79.3898,0.072301
162.754,79.3836,0.072301
162.786,79.3774,0.072301
162.816,79.3714,0.072235
162.848,79.3650,0.072235
162.879,79.3588,0.072235
162.911,79.3523,0.072235
162.942,79.3461,0.072235
162.974,79.3398,0.072235
163.005,79.3336,0.072235
163.036,79.3271,0.072160
163.066,79.3214,0.072160
163.098,79.3148,0.072160
163.128,79.3089,0.072160
163.159,79.3028,0.072160
163.190,79.2966,0.072160
163.221,79.2904,0.072160
163.251,79.2843,0.072160
163.281,79.2781,0.072075
163.312,79.2719,0.072075
163.343,79.2660,0.072075
163.375,79.2602,0.072075
163.405,79.2551,0.072075
163.437,79.2507,0.072075
163.468,79.2471,0.072075
163.501,79.2443,0.072075
163.530,79.2423,0.072075
163.562,79.2409,0.071887
163.592,79.2403,0.071887
163.623,79.2403,0.071887
163.654,79.2403,0.071887
163.685,79.2403,0.071887
163.716,79.2403,0.071887
163.747,79.2403,0.071887
163.778,79.2403,0.071614
163.809,79.2403,0.071614
163.840,79.2403,0.071614
163.871,79.2403,0.071614
163.902,79.2403,0.071614
163.933,79.2403,0.071614
163.964,79.2403,0.071614
163.994,79.2403,0.071614
164.025,79.2403,0.071519
164.056,79.2407,0.071519
164.086,79.2418,0.071519
164.118,79.2438,0.071519
164.149,79.2463,0.071519
164.179,79.2496,0.071519
164.209,79.2535,0.071519
164.241,79.2583,0.071519
164.271,79.2636,0.071322
164.302,79.2698,0.071322
164.333,79.2759,0.071322
164.364,79.2824,0.071322
164.396,79.2884,0.071322
164.427,79.2949,0.071322
164.458,79.3008,0.071322
164.488,79.3069,0.071322
164.520,79.3134,0.071322
164.550,79.3193,0.071001
164.581,79.3256,0.071001
164.612,79.3317,0.071001
164.643,79.3380,0.071001
164.675,79.3442,0.071001
164.706,79.3506,0.071001
164.737,79.3566,0.071001
164.769,79.3631,0.071001
164.799,79.3690,0.070926
164.831,79.3756,0.070926
164.862,79.3817,0.070926
164.893,79.3880,0.070926
164.924,79.3940,0.070926
164.956,79.4004,0.070926
164.987,79.4067,0.070926
165.019,79.4131,0.070926
165.050,79.4193,0.070888
165.081,79.4254,0.070888
165.112,79.4318,0.070888
165.143,79.4379,0.070888
165.173,79.4440,0.070888
165.204,79.4500,0.070888
165.236,79.4565,0.070888
165.266,79.4624,0.070888
165.296,79.4685,0.070813
165.328,79.4748,0.070813
165.359,79.4812,0.070813
165.389,79.4872,0.070813
165.421,79.4934,0.070813
165.452,79.4998,0.070813
165.483,79.5058,0.070813
165.514,79.5122,0.070775
165.544,79.5181,0.070775
165.575,79.5243,0.070775
165.606,79.5304,0.070775
165.636,79.5366,0.070775
165.668,79.5429,0.070775
165.699,79.5491,0.070775
165.730,79.5553,0.070775
165.762,79.5618,0.070775
165.792,79.5677,0.070775
165.822,79.5737,0.070719
165.853,79.5800,0.070719
165.885,79.5862,0.070719
165.916,79.5927,0.070719
165.947,79.5986,0.070719
165.978,79.6048,0.070719
166.009,79.6111,0.070719
166.040,79.6173,0.070719
166.071,79.6235,0.070690
166.101,79.6295,0.070690
166.132,79.6356,0.070690
166.163,79.6419,0.070690
166.194,79.6481,0.070690
166.225,79.6544,0.070690
166.256,79.6604,0.070690
166.287,79.6667,0.070615
166.318,79.6729,0.070615
166.348,79.6789,0.070615
166.379,79.6851,0.070615
166.410,79.6914,0.070615
166.441,79.6975,0.070615
166.472,79.7038,0.070615
166.503,79.7097,0.070615
166.533,79.7161,0.070615
166.564,79.7220,0.070549
166.595,79.7283,0.070549
166.626,79.7344,0.070549
166.657,79.7406,0.070549
166.688,79.7469,0.070549
166.720,79.7533,0.070549
166.751,79.7596,0.070549
166.782,79.7658,0.070549
166.814,79.7719,0.070549
166.844,79.7782,0.070549
166.875,79.7842,0.070549
166.905,79.7904,0.070549
166.937,79.7966,0.070549
166.968,79.8029,0.070549
166.998,79.8090,0.070549
167.029,79.8153,0.070549
167.060,79.8214,0.070530
167.091,79.8276,0.070530
167.122,79.8335,0.070530
167.153,79.8397,0.070530
167.184,79.8460,0.070530
167.214,79.8522,0.070530
167.246,79.8584,0.070530
167.277,79.8646,0.070530
167.308,79.8710,0.070474
167.340,79.8772,0.070474
167.370,79.8834,0.070474
167.401,79.8894,0.070474
167.431,79.8955,0.070474
167.462,79.9016,0.070474
167.493,79.9078,0.070474
167.523,79.9140,0.070474
167.554,79.9201,0.070445
167.586,79.9265,0.070445
167.617,79.9327,0.070445
167.649,79.9391,0.070445
167.680,79.9453,0.070445
167.711,79.9516,0.070445
167.743,79.9579,0.070445
167.774,79.9640,0.070445
167.805,79.9702,0.070417
167.837,79.9766,0.070417
167.867,79.9826,0.070417
167.898,79.9889,0.070417
167.930,79.9951,0.070417
167.961,80.0014,0.070417
167.991,80.0076,0.070417
168.022,80.0137,0.070417
168.054,80.0203,0.070351
168.085,80.0262,0.070351
168.116,80.0324,0.070351
168.146,80.0384,0.070351
168.177,80.0449,0.070351
168.208,80.0509,0.070351
168.240,80.0574,0.070351
168.272,80.0636,0.070342
168.304,80.0702,0.070342
168.335,80.0762,0.070342
168.366,80.0824,0.070342
168.396,80.0885,0.070342
168.427,80.0946,0.070342
168.459,80.1010,0.070342
168.489,80.1070,0.070342
168.520,80.1133,0.070285
168.551,80.1195,0.070285
168.582,80.1256,0.070285
168.613,80.1319,0.070285
168.643,80.1379,0.070285
168.674,80.1441,0.070285
168.705,80.1504,0.070285
168.736,80.1565,0.070285
168.768,80.1629,0.070285
168.799,80.1691,0.070181
168.829,80.1751,0.070181
168.861,80.1813,0.070181
168.892,80.1876,0.070181
168.923,80.1939,0.070181
168.954,80.2000,0.070181
168.986,80.2065,0.070181
169.017,80.2128,0.070200
169.047,80.2187,0.070200
169.079,80.2251,0.070200
169.111,80.2315,0.070200
169.142,80.2376,0.070200
169.173,80.2438,0.070200
169.204,80.2501,0.070200
169.235,80.2563,0.070200
169.266,80.2626,0.070172
169.297,80.2686,0.070172
169.328,80.2749,0.070172
169.359,80.2811,0.070172
169.391,80.2874,0.070172
169.422,80.2936,0.070172
169.453,80.3001,0.070172
169.484,80.3060,0.070172
169.515,80.3124,0.070172
169.547,80.3188,0.070050
169.577,80.3250,0.070050
169.607,80.3308,0.070050
169.639,80.3372,0.070050
169.670,80.3434,0.070050
169.700,80.3493,0.070050
169.731,80.3554,0.070050
169.761,80.3615,0.069955
169.792,80.3678,0.069955
169.823,80.3739,0.069955
169.855,80.3803,0.069955
169.886,80.3864,0.069955
169.917,80.3927,0.069955
169.948,80.3987,0.069955
169.979,80.4053,0.069955
170.011,80.4113,0.069955
170.041,80.4175,0.069899
170.072,80.4236,0.069899
170.103,80.4301,0.069899
170.133,80.4359,0.069899
170.165,80.4423,0.069899
170.196,80.4484,0.069899
170.227,80.4546,0.069899
170.258,80.4609,0.069899
170.289,80.4672,0.069871
170.320,80.4734,0.069871
170.353,80.4798,0.069871
170.383,80.4858,0.069871
170.414,80.4920,0.069871
170.446,80.4983,0.069871
170.476,80.5046,0.069871
170.507,80.5106,0.069871
170.538,80.5168,0.069871
170.568,80.5228,0.069776
170.599,80.5289,0.069776
170.630,80.5352,0.069776
170.661,80.5416,0.069776
170.692,80.5478,0.069776
170.723,80.5540,0.069776
170.755,80.5602,0.069776
170.785,80.5664,0.069776
170.816,80.5724,0.069682
170.848,80.5788,0.069682
170.879,80.5850,0.069682
170.909,80.5910,0.069682
170.940,80.5973,0.069682
170.972,80.6037,0.069682
171.004,80.6100,0.069682
171.035,80.6165,0.069682
171.066,80.6224,0.069597
171.097,80.6285,0.069597
171.128,80.6348,0.069597
171.159,80.6410,0.069597
171.190,80.6472,0.069597
171.221,80.6536,0.069597
171.252,80.6596,0.069597
171.283,80.6657,0.069597
171.314,80.6720,0.069447
171.344,80.6781,0.069447
171.375,80.6843,0.069447
171.407,80.6906,0.069447
171.438,80.6967,0.069447
171.469,80.7029,0.069447
171.499,80.7090,0.069447
171.530,80.7153,0.069447
171.561,80.7214,0.069296
171.592,80.7277,0.069296
171.623,80.7339,0.069296
171.654,80.7401,0.069296
171.686,80.7466,0.069296
171.718,80.7528,0.069296
171.749,80.7590,0.069296
171.779,80.7652,0.069296
171.810,80.7713,0.069164
171.841,80.7775,0.069164
171.872,80.7837,0.069164
171.903,80.7900,0.069164
171.935,80.7962,0.069164
171.965,80.8023,0.069164
171.997,80.8087,0.069164
172.029,80.8150,0.069164
172.060,80.8212,0.069004
172.091,80.8274,0.069004
172.122,80.8336,0.069004
172.153,80.8400,0.069004
172.184,80.8459,0.069004
172.214,80.8521,0.069004
172.245,80.8582,0.069004
172.276,80.8644,0.068844
172.307,80.8707,0.068844
172.337,80.8766,0.068844
172.368,80.8830,0.068844
172.399,80.8890,0.068844
172.430,80.8954,0.068844
172.462,80.9015,0.068844
172.494,80.9079,0.068844
172.524,80.9139,0.068655
172.554,80.9200,0.068655
172.584,80.9260,0.068655
172.616,80.9324,0.068655
172.648,80.9388,0.068655
172.678,80.9448,0.068655
172.708,80.9508,0.068655
172.739,80.9572,0.068655
172.770,80.9632,0.068655
172.801,80.9694,0.068655
172.833,80.9759,0.068457
172.864,80.9821,0.068457
172.895,80.9882,0.068457
172.925,80.9942,0.068457
172.957,81.0007,0.068457
172.988,81.0068,0.068457
173.019,81.0132,0.068457
173.051,81.0193,0.068288
173.082,81.0258,0.068288
173.114,81.0320,0.068288
173.145,81.0383,0.068288
173.177,81.0447,0.068288
173.209,81.0511,0.068288
173.240,81.0571,0.068288
173.271,81.0635,0.068288
173.301,81.0694,0.068005
173.333,81.0759,0.068005
173.362,81.0817,0.068005
173.394,81.0880,0.068005
173.424,81.0940,0.068005
173.454,81.1003,0.068005
173.485,81.1062,0.068005
173.516,81.1124,0.068005
173.547,81.1186,0.067779
173.579,81.1250,0.067779
173.609,81.1309,0.067779
173.641,81.1376,0.067779
173.670,81.1432,0.067779
173.701,81.1495,0.067779
173.732,81.1556,0.067779
173.764,81.1621,0.067779
173.794,81.1681,0.067591
173.825,81.1743,0.067591
173.857,81.1808,0.067591
173.888,81.1870,0.067591
173.919,81.1931,0.067591
173.950,81.1993,0.067591
173.981,81.2053,0.067591
174.012,81.2117,0.067591
174.044,81.2179,0.067298
174.075,81.2244,0.067298
174.107,81.2305,0.067298
174.137,81.2367,0.067298
174.168,81.2428,0.067298
174.200,81.2491,0.067298
174.229,81.2551,0.067298
174.261,81.2613,0.067298
174.291,81.2673,0.067072
174.322,81.2737,0.067072
174.353,81.2799,0.067072
174.385,81.2862,0.067072
174.415,81.2923,0.067072
174.446,81.2985,0.067072
174.477,81.3046,0.067072
174.509,81.3111,0.067072
174.538,81.3168,0.066818
174.569,81.3230,0.066818
174.600,81.3291,0.066818
174.631,81.3354,0.066818
174.662,81.3415,0.066818
174.693,81.3477,0.066818
174.725,81.3540,0.066818
174.756,81.3605,0.066818
174.787,81.3666,0.066526
174.818,81.3728,0.066526
174.850,81.3791,0.066526
174.881,81.3854,0.066526
174.912,81.3916,0.066526
174.945,81.3982,0.066526
174.974,81.4040,0.066526
175.005,81.4102,0.066526
175.036,81.4164,0.066253
175.066,81.4225,0.066253
175.097,81.4287,0.066253
175.128,81.4348,0.066253
175.158,81.4410,0.066253
175.189,81.4471,0.066253
175.221,81.4535,0.066253
175.253,81.4598,0.066253
175.284,81.4662,0.065998
175.314,81.4721,0.065998
175.346,81.4784,0.065998
175.377,81.4845,0.065998
175.408,81.4907,0.065998
175.439,81.4969,0.065998
175.470,81.5031,0.065998
175.501,81.5094,0.065998
175.531,81.5155,0.065998
175.562,81.5216,0.065998
175.593,81.5280,0.065772
175.624,81.5340,0.065772
175.655,81.5402,0.065772
175.687,81.5465,0.065772
175.717,81.5527,0.065772
175.749,81.5589,0.065772
175.780,81.5651,0.065772
175.811,81.5713,0.065490
175.842,81.5775,0.065490
175.874,81.5840,0.065490
175.905,81.5901,0.065490
175.936,81.5963,0.065490
175.967,81.6026,0.065490
175.999,81.6089,0.065490
176.030,81.6152,0.065490
176.061,81.6214,0.065216
176.091,81.6275,0.065216
176.123,81.6337,0.065216
176.154,81.6400,0.065216
176.184,81.6462,0.065216
176.216,81.6523,0.065216
176.247,81.6588,0.065216
176.279,81.6651,0.065216
176.310,81.6714,0.064962
176.341,81.6776,0.064962
176.372,81.6837,0.064962
176.404,81.6900,0.064962
176.434,81.6962,0.064962
176.465,81.7022,0.064962
176.495,81.7084,0.064962
176.527,81.7146,0.064962
176.558,81.7208,0.064717
176.588,81.7269,0.064717
176.619,81.7329,0.064717
176.651,81.7394,0.064717
176.681,81.7453,0.064717
176.712,81.7515,0.064717
176.743,81.7577,0.064717
176.774,81.7639,0.064717
176.805,81.7703,0.064415
176.836,81.7765,0.064415
176.867,81.7827,0.064415
176.899,81.7890,0.064415
176.929,81.7951,0.064415
176.961,81.8015,0.064415
176.992,81.8076,0.064415
177.024,81.8140,0.064123
177.055,81.8202,0.064123
177.087,81.8267,0.064123
177.118,81.8328,0.064123
177.149,81.8390,0.064123
177.179,81.8452,0.064123
177.210,81.8513,0.064123
177.242,81.8576,0.064123
177.272,81.8635,0.063869
177.303,81.8699,0.063869
177.335,81.8763,0.063869
177.365,81.8823,0.063869
177.396,81.8883,0.063869
177.428,81.8947,0.063869
177.458,81.9007,0.063869
177.489,81.9069,0.063869
177.519,81.9130,0.063869
177.550,81.9192,0.063558
177.582,81.9257,0.063558
177.613,81.9317,0.063558
177.645,81.9382,0.063558
177.676,81.9444,0.063558
177.707,81.9506,0.063558
177.739,81.9569,0.063558
177.769,81.9629,0.063313
177.799,81.9690,0.063313
177.831,81.9754,0.063313
177.862,81.9815,0.063313
177.892,81.9877,0.063313
177.923,81.9936,0.063313
177.954,82.0001,0.063313
177.986,82.0065,0.063313
178.016,82.0126,0.063313
178.048,82.0187,0.063106
178.079,82.0251,0.063106
178.111,82.0313,0.063106
178.143,82.0379,0.063106
178.174,82.0439,0.063106
178.206,82.0503,0.063106
178.237,82.0565,0.063106
178.268,82.0630,0.062833
178.298,82.0689,0.062833
178.329,82.0750,0.062833
178.360,82.0811,0.062833
178.391,82.0874,0.062833
178.422,82.0937,0.062833
178.453,82.0997,0.062833
178.484,82.1061,0.062833
178.515,82.1121,0.062833
178.546,82.1185,0.062531
178.577,82.1246,0.062531
178.608,82.1309,0.062531
178.640,82.1371,0.062531
178.671,82.1435,0.062531
178.701,82.1497,0.062531
178.732,82.1557,0.062531
178.764,82.1621,0.062531
178.796,82.1683,0.062192
178.827,82.1746,0.062192
178.858,82.1808,0.062192
178.890,82.1872,0.062192
178.918,82.1927,0.062192
178.952,82.1996,0.062192
178.983,82.2057,0.062192
179.015,82.2123,0.061956
179.047,82.2184,0.061956
179.078,82.2236,0.061956
179.109,82.2283,0.061956
179.141,82.2321,0.061956
179.171,82.2351,0.061956
179.202,82.2376,0.061956
179.233,82.2392,0.061956
179.264,82.2401,0.062145
179.295,82.2403,0.062145
179.326,82.2403,0.062145
179.357,82.2403,0.062145
179.387,82.2403,0.062145
179.418,82.2403,0.062145
179.449,82.2403,0.062145
179.481,82.2403,0.062145
179.511,82.2403,0.062145
179.542,82.2403,0.062974
179.572,82.2403,0.062974
179.603,82.2403,0.062974
179.635,82.2403,0.062974
179.666,82.2403,0.062974
179.697,82.2403,0.062974
179.728,82.2403,0.062974
179.759,82.2403,0.062974
179.788,82.2403,0.063662
179.820,82.2403,0.063662
179.850,82.2403,0.063662
179.880,82.2403,0.063662
179.912,82.2403,0.063662
179.942,82.2403,0.063662
179.972,82.2403,0.063662
180.003,82.2403,0.063662
180.034,82.2403,0.063662
180.065,82.2403,0.063803
180.097,82.2403,0.063803
180.128,82.2403,0.063803
180.159,82.2403,0.063803
180.190,82.2403,0.063803
180.221,82.2403,0.063803
180.252,82.2403,0.063803
180.284,82.2403,0.063803
180.315,82.2403,0.063907
180.346,82.2403,0.063907
180.377,82.2403,0.063907
180.409,82.2403,0.063907
180.441,82.2403,0.063907
180.472,82.2403,0.063907
180.503,82.2403,0.063907
180.535,82.2403,0.063907
180.565,82.2403,0.063973
180.597,82.2403,0.063973
180.628,82.2403,0.063973
180.659,82.2403,0.063973
180.690,82.2403,0.063973
180.721,82.2403,0.063973
180.752,82.2403,0.063973
180.785,82.2403,0.063973
180.815,82.2403,0.064010
180.846,82.2403,0.064010
180.877,82.2403,0.064010
180.908,82.2403,0.064010
180.939,82.2403,0.064010
180.971,82.2403,0.064010
181.003,82.2403,0.064010
181.032,82.2403,0.064010
181.063,82.2403,0.064095
181.094,82.2403,0.064095
181.125,82.2403,0.064095
181.157,82.2403,0.064095
181.188,82.2403,0.064095
181.218,82.2403,0.064095
181.249,82.2403,0.064095
181.280,82.2403,0.064095
181.311,82.2403,0.064189
181.342,82.2403,0.064189
181.373,82.2403,0.064189
181.404,82.2403,0.064189
181.435,82.2403,0.064189
181.467,82.2403,0.064189
181.498,82.2403,0.064189
181.530,82.2403,0.064246
181.560,82.2403,0.064246
181.592,82.2403,0.064246
181.624,82.2403,0.064246
181.654,82.2403,0.064246
181.685,82.2403,0.064246
181.716,82.2403,0.064246
181.747,82.2403,0.064246
181.778,82.2403,0.064265
181.809,82.2403,0.064265
181.840,82.2403,0.064265
181.871,82.2403,0.064265
181.902,82.2403,0.064265
181.934,82.2403,0.064265
181.965,82.2403,0.064265
181.997,82.2403,0.064265
182.029,82.2403,0.064293
182.060,82.2403,0.064293
182.090,82.2403,0.064293
182.121,82.2403,0.064293
182.153,82.2403,0.064293
182.184,82.2403,0.064293
182.214,82.2403,0.064293
182.245,82.2403,0.064293
182.276,82.2403,0.064350
182.307,82.2403,0.064350
182.338,82.2403,0.064350
182.369,82.2403,0.064350
182.400,82.2403,0.064350
182.432,82.2403,0.064350
182.463,82.2403,0.064350
182.494,82.2403,0.064350
182.526,82.2403,0.064406
182.558,82.2403,0.064406
182.590,82.2403,0.064406
182.622,82.2403,0.064406
182.653,82.2403,0.064406
182.684,82.2403,0.064406
182.715,82.2403,0.064406
182.746,82.2403,0.064406
182.778,82.2403,0.064331
182.808,82.2403,0.064331
182.839,82.2403,0.064331
182.870,82.2403,0.064331
182.901,82.2403,0.064331
182.933,82.2403,0.064331
182.963,82.2403,0.064331
182.994,82.2403,0.064331
183.025,82.2403,0.064321
183.056,82.2403,0.064321
183.087,82.2403,0.064321
183.118,82.2403,0.064321
183.150,82.2403,0.064321
183.181,82.2403,0.064321
183.212,82.2403,0.064321
183.243,82.2403,0.064321
183.274,82.2403,0.064406
183.305,82.2403,0.064406
183.335,82.2403,0.064406
183.367,82.2403,0.064406
183.398,82.2403,0.064406
183.429,82.2403,0.064406
183.460,82.2403,0.064406
183.492,82.2403,0.064406
183.523,82.2403,0.064406
183.555,82.2403,0.064406
183.586,82.2403,0.064397
183.617,82.2403,0.064397
183.648,82.2403,0.064397
183.679,82.2403,0.064397
183.712,82.2403,0.064397
183.742,82.2403,0.064397
183.773,82.2403,0.064397
183.803,82.2403,0.064425
183.834,82.2403,0.064425
183.866,82.2403,0.064425
183.897,82.2403,0.064425
183.928,82.2403,0.064425
183.959,82.2403,0.064425
183.990,82.2403,0.064425
184.021,82.2403,0.064425
184.052,82.2403,0.064425
184.083,82.2402,0.064472
184.113,82.2394,0.064472
184.145,82.2380,0.064472
184.175,82.2358,0.064472
184.207,82.2329,0.064472
184.237,82.2294,0.064472
184.267,82.2248,0.064472
184.298,82.2201,0.064651
184.329,82.2141,0.064651
184.361,82.2079,0.064651
184.392,82.2016,0.064651
184.423,82.1953,0.064651
184.455,82.1892,0.064651
184.486,82.1829,0.064651
184.517,82.1766,0.064651
184.548,82.1705,0.065791
184.579,82.1642,0.065791
184.610,82.1581,0.065791
184.641,82.1518,0.065791
184.671,82.1458,0.065791
184.703,82.1395,0.065791
184.734,82.1333,0.065791
184.766,82.1270,0.065791
184.796,82.1209,0.066931
184.828,82.1144,0.066931
184.859,82.1084,0.066931
184.891,82.1018,0.066931
184.921,82.0960,0.066931
184.952,82.0896,0.066931
184.983,82.0835,0.066931
185.014,82.0772,0.066931
185.045,82.0709,0.067317
185.076,82.0648,0.067317
185.107,82.0585,0.067317
185.138,82.0525,0.067317
185.169,82.0462,0.067317
185.200,82.0400,0.067317
185.230,82.0339,0.067317
185.261,82.0277,0.067317
185.292,82.0215,0.067609
185.323,82.0153,0.067609
185.355,82.0091,0.067609
185.386,82.0031,0.067609
185.416,81.9969,0.067609
185.447,81.9907,0.067609
185.477,81.9848,0.067609
185.508,81.9785,0.067609
185.538,81.9724,0.067609
185.570,81.9661,0.067807
185.602,81.9596,0.067807
185.633,81.9536,0.067807
185.664,81.9471,0.067807
185.695,81.9412,0.067807
185.726,81.9348,0.067807
185.758,81.9285,0.067807
185.788,81.9224,0.068062
185.819,81.9161,0.068062
185.850,81.9100,0.068062
185.881,81.9040,0.068062
185.911,81.8979,0.068062
185.942,81.8917,0.068062
185.974,81.8854,0.068062
186.004,81.8792,0.068062
186.034,81.8732,0.068307
186.065,81.8671,0.068307
186.097,81.8608,0.068307
186.128,81.8545,0.068307
186.159,81.8483,0.068307
186.189,81.8422,0.068307
186.221,81.8359,0.068307
186.252,81.8297,0.068307
186.283,81.8235,0.068307
186.315,81.8171,0.068523
186.347,81.8108,0.068523
186.377,81.8046,0.068523
186.409,81.7982,0.068523
186.441,81.7920,0.068523
186.472,81.7856,0.068523
186.503,81.7794,0.068523
186.533,81.7732,0.068523
186.564,81.7672,0.068759
186.595,81.7610,0.068759
186.626,81.7549,0.068759
186.657,81.7486,0.068759
186.687,81.7426,0.068759
186.719,81.7364,0.068759
186.749,81.7303,0.068759
186.780,81.7243,0.068966
186.810,81.7181,0.068966
186.841,81.7118,0.068966
186.872,81.7056,0.068966
186.903,81.6994,0.068966
186.934,81.6932,0.068966
186.965,81.6870,0.068966
186.997,81.6807,0.068966
187.028,81.6744,0.069145
187.060,81.6679,0.069145
187.091,81.6620,0.069145
187.122,81.6555,0.069145
187.154,81.6493,0.069145
187.185,81.6430,0.069145
187.217,81.6368,0.069145
187.247,81.6306,0.069145
187.279,81.6244,0.069315
187.311,81.6180,0.069315
187.340,81.6119,0.069315
187.372,81.6057,0.069315
187.403,81.5996,0.069315
187.434,81.5934,0.069315
187.465,81.5872,0.069315
187.495,81.5811,0.069315
187.527,81.5748,0.069315
187.559,81.5682,0.069513
187.589,81.5622,0.069513
187.620,81.5561,0.069513
187.650,81.5500,0.069513
187.682,81.5438,0.069513
187.713,81.5375,0.069513
187.744,81.5313,0.069513
187.776,81.5249,0.069710
187.807,81.5186,0.069710
187.838,81.5125,0.069710
187.869,81.5061,0.069710
187.901,81.4999,0.069710
187.932,81.4936,0.069710
187.963,81.4876,0.069710
187.994,81.4812,0.069710
188.025,81.4751,0.069842
188.057,81.4688,0.069842
188.087,81.4627,0.069842
188.118,81.4565,0.069842
188.149,81.4503,0.069842
188.180,81.4442,0.069842
188.210,81.4379,0.069842
188.242,81.4317,0.069842
188.273,81.4255,0.069842
188.304,81.4194,0.069842
188.334,81.4132,0.070002
188.365,81.4071,0.070002
188.396,81.4006,0.070002
188.426,81.3948,0.070002
188.457,81.3888,0.070002
188.488,81.3826,0.070002
188.519,81.3764,0.070002
188.550,81.3700,0.070210
188.580,81.3642,0.070210
188.611,81.3578,0.070210
188.642,81.3517,0.070210
188.673,81.3455,0.070210
188.704,81.3393,0.070210
188.735,81.3330,0.070210
188.766,81.3269,0.070210
188.797,81.3207,0.070342
188.828,81.3144,0.070342
188.860,81.3083,0.070342
188.891,81.3018,0.070342
188.923,81.2956,0.070342
188.954,81.2892,0.070342
188.985,81.2831,0.070342
189.016,81.2769,0.070342
189.047,81.2707,0.070474
189.078,81.2644,0.070474
189.110,81.2580,0.070474
189.141,81.2520,0.070474
189.171,81.2456,0.070474
189.202,81.2396,0.070474
189.233,81.2334,0.070474
189.264,81.2273,0.070474
189.294,81.2213,0.070671
189.325,81.2151,0.070671
189.356,81.2089,0.070671
189.388,81.2025,0.070671
189.419,81.1964,0.070671
189.450,81.1900,0.070671
189.482,81.1838,0.070671
189.513,81.1776,0.070671
189.543,81.1715,0.070832
189.575,81.1653,0.070832
189.605,81.1590,0.070832
189.637,81.1529,0.070832
189.667,81.1466,0.070832
189.698,81.1405,0.070832
189.730,81.1340,0.070832
189.761,81.1278,0.070832
189.791,81.1219,0.070832
189.822,81.1157,0.070963
189.853,81.1095,0.070963
189.884,81.1034,0.070963
189.914,81.0973,0.070963
189.945,81.0910,0.070963
189.975,81.0852,0.070963
190.006,81.0791,0.070963
190.036,81.0729,0.070963
190.067,81.0667,0.071077
190.098,81.0604,0.071077
190.129,81.0543,0.071077
190.160,81.0480,0.071077
190.191,81.0419,0.071077
190.223,81.0355,0.071077
190.254,81.0293,0.071077
190.286,81.0229,0.071077
190.317,81.0167,0.071256
190.348,81.0104,0.071256
190.379,81.0044,0.071256
190.411,80.9978,0.071256
190.441,80.9919,0.071256
190.472,80.9856,0.071256
190.503,80.9795,0.071256
190.535,80.9729,0.071256
190.566,80.9670,0.071435
190.598,80.9605,0.071435
190.629,80.9543,0.071435
190.661,80.9480,0.071435
190.691,80.9419,0.071435
190.724,80.9352,0.071435
190.755,80.9293,0.071435
190.786,80.9231,0.071435
190.817,80.9167,0.071435
190.848,80.9104,0.071491
190.880,80.9040,0.071491
190.912,80.8976,0.071491
190.943,80.8917,0.071491
190.973,80.8855,0.071491
191.004,80.8793,0.071491
191.035,80.8731,0.071491
191.066,80.8669,0.071614
191.097,80.8606,0.071614
191.128,80.8546,0.071614
191.158,80.8485,0.071614
191.189,80.8423,0.071614
191.220,80.8361,0.071614
191.252,80.8298,0.071614
191.282,80.8236,0.071614
191.313,80.8176,0.071755
191.344,80.8114,0.071755
191.375,80.8052,0.071755
191.406,80.7989,0.071755
191.436,80.7927,0.071755
191.467,80.7868,0.071755
191.498,80.7803,0.071755
191.531,80.7740,0.071755
191.560,80.7679,0.071859
191.592,80.7617,0.071859
191.623,80.7555,0.071859
191.654,80.7493,0.071859
191.685,80.7431,0.071859
191.716,80.7369,0.071859
191.749,80.7303,0.071859
191.780,80.7243,0.071972
191.811,80.7178,0.071972
191.842,80.7117,0.071972
191.873,80.7055,0.071972
191.904,80.6993,0.071972
191.935,80.6930,0.071972
191.966,80.6867,0.071972
191.998,80.6805,0.071972
192.029,80.6743,0.072094
192.061,80.6679,0.072094
192.090,80.6621,0.072094
192.122,80.6558,0.072094
192.153,80.6495,0.072094
192.185,80.6430,0.072094
192.215,80.6371,0.072094
192.247,80.6309,0.072094
192.279,80.6244,0.072094
192.309,80.6182,0.072245
192.341,80.6119,0.072245
192.372,80.6058,0.072245
192.403,80.5995,0.072245
192.434,80.5933,0.072245
192.465,80.5871,0.072245
192.496,80.5809,0.072245
192.527,80.5748,0.072330
192.558,80.5686,0.072330
192.589,80.5622,0.072330
192.620,80.5561,0.072330
192.651,80.5497,0.072330
192.682,80.5437,0.072330
192.713,80.5375,0.072330
192.744,80.5313,0.072330
192.775,80.5251,0.072330
192.807,80.5186,0.072405
192.838,80.5123,0.072405
192.870,80.5062,0.072405
192.901,80.4999,0.072405
192.932,80.4937,0.072405
192.964,80.4872,0.072405
192.995,80.4809,0.072405
193.027,80.4748,0.072405
193.057,80.4689,0.072433
193.088,80.4624,0.072433
193.118,80.4565,0.072433
193.149,80.4503,0.072433
193.180,80.4441,0.072433
193.211,80.4379,0.072433
193.243,80.4314,0.072433
193.273,80.4255,0.072433
193.305,80.4193,0.072490
193.336,80.4130,0.072490
193.366,80.4069,0.072490
193.397,80.4009,0.072490
193.428,80.3945,0.072490
193.459,80.3884,0.072490
193.491,80.3821,0.072490
193.522,80.3756,0.072556
193.553,80.3694,0.072556
193.584,80.3632,0.072556
193.614,80.3574,0.072556
193.645,80.3512,0.072556
193.676,80.3449,0.072556
193.707,80.3387,0.072556
193.739,80.3325,0.072556
193.770,80.3263,0.072593
193.801,80.3201,0.072593
193.832,80.3136,0.072593
193.863,80.3075,0.072593
193.894,80.3013,0.072593
193.924,80.2953,0.072593
193.956,80.2889,0.072593
193.987,80.2829,0.072593
194.019,80.2763,0.072659
194.050,80.2702,0.072659
194.082,80.2638,0.072659
194.114,80.2574,0.072659
194.145,80.2511,0.072659
194.176,80.2449,0.072659
194.207,80.2386,0.072659
194.239,80.2321,0.072659
194.268,80.2264,0.072659
194.300,80.2202,0.072697
194.330,80.2141,0.072697
194.363,80.2076,0.072697
194.392,80.2019,0.072697
194.423,80.1954,0.072697
194.454,80.1893,0.072697
194.484,80.1834,0.072697
194.515,80.1772,0.072697
194.546,80.1711,0.072801
194.576,80.1648,0.072801
194.607,80.1588,0.072801
194.637,80.1528,0.072801
194.668,80.1467,0.072801
194.698,80.1405,0.072801
194.729,80.1344,0.072801
194.761,80.1279,0.072801
194.791,80.1219,0.072857
194.822,80.1157,0.072857
194.854,80.1093,0.072857
194.886,80.1029,0.072857
194.916,80.0968,0.072857
194.947,80.0907,0.072857
194.978,80.0844,0.072857
195.009,80.0783,0.072857
195.040,80.0720,0.072838
195.071,80.0658,0.072838
195.102,80.0597,0.072838
195.134,80.0534,0.072838
195.165,80.0472,0.072838
195.195,80.0410,0.072838
195.226,80.0348,0.072838
195.257,80.0289,0.072838
195.288,80.0225,0.072848
195.319,80.0164,0.072848
195.350,80.0101,0.072848
195.382,80.0038,0.072848
195.413,79.9975,0.072848
195.445,79.9909,0.072848
195.476,79.9848,0.072848
195.507,79.9787,0.072848
195.539,79.9723,0.072885
195.570,79.9661,0.072885
195.601,79.9598,0.072885
195.633,79.9537,0.072885
195.664,79.9472,0.072885
195.695,79.9412,0.072885
195.726,79.9350,0.072885
195.757,79.9289,0.072885
195.787,79.9228,0.072885
195.818,79.9166,0.072857
195.849,79.9103,0.072857
195.880,79.9042,0.072857
195.913,79.8975,0.072857
195.945,79.8913,0.072857
195.974,79.8854,0.072857
196.005,79.8793,0.072857
196.036,79.8730,0.072820
196.068,79.8665,0.072820
196.099,79.8603,0.072820
196.131,79.8541,0.072820
196.162,79.8477,0.072820
196.192,79.8418,0.072820
196.223,79.8355,0.072820
196.253,79.8293,0.072820
196.285,79.8231,0.072782
196.316,79.8170,0.072782
196.347,79.8106,0.072782
196.379,79.8044,0.072782
196.410,79.7982,0.072782
196.441,79.7920,0.072782
196.472,79.7855,0.072782
196.505,79.7793,0.072782
196.535,79.7731,0.072716
196.566,79.7670,0.072716
196.597,79.7607,0.072716
196.628,79.7544,0.072716
196.659,79.7484,0.072716
196.691,79.7421,0.072716
196.721,79.7360,0.072716
196.753,79.7295,0.072716
196.784,79.7234,0.072622
196.815,79.7172,0.072622
196.845,79.7111,0.072622
196.877,79.7049,0.072622
196.908,79.6985,0.072622
196.939,79.6924,0.072622
196.970,79.6861,0.072622
197.000,79.6801,0.072622
197.032,79.6736,0.072556
197.062,79.6677,0.072556
197.093,79.6616,0.072556
197.124,79.6553,0.072556
197.155,79.6491,0.072556
197.186,79.6430,0.072556
197.218,79.6367,0.072556
197.249,79.6304,0.072556
197.280,79.6242,0.072556
197.312,79.6177,0.072556
197.343,79.6116,0.072556
197.374,79.6053,0.072556
197.408,79.5987,0.072556
197.437,79.5928,0.072556
197.468,79.5866,0.072556
197.500,79.5803,0.072556
197.531,79.5739,0.072490
197.563,79.5675,0.072490
197.594,79.5613,0.072490
197.625,79.5551,0.072490
197.656,79.5489,0.072490
197.687,79.5427,0.072490
197.718,79.5367,0.072490
197.749,79.5303,0.072490
197.781,79.5240,0.072490
197.812,79.5178,0.072377
197.843,79.5115,0.072377
197.874,79.5050,0.072377
197.906,79.4990,0.072377
197.935,79.4931,0.072377
197.966,79.4869,0.072377
197.997,79.4809,0.072377
198.028,79.4745,0.072377
198.059,79.4685,0.072301
198.089,79.4622,0.072301
198.121,79.4561,0.072301
198.152,79.4497,0.072301
198.183,79.4436,0.072301
198.215,79.4373,0.072301
198.246,79.4308,0.072301
198.278,79.4247,0.072301
198.308,79.4185,0.072226
198.340,79.4123,0.072226
198.370,79.4061,0.072226
198.401,79.3999,0.072226
198.433,79.3937,0.072226
198.464,79.3874,0.072226
198.496,79.3811,0.072226
198.527,79.3748,0.072226
198.557,79.3689,0.072132
198.588,79.3625,0.072132
198.618,79.3565,0.072132
198.649,79.3504,0.072132
198.679,79.3444,0.072132
198.710,79.3380,0.072132
198.741,79.3321,0.072132
198.772,79.3258,0.072132
198.803,79.3196,0.072075
198.834,79.3134,0.072075
198.865,79.3070,0.072075
198.896,79.3010,0.072075
198.928,79.2945,0.072075
198.959,79.2884,0.072075
198.990,79.2822,0.072075
199.021,79.2758,0.072075
199.052,79.2697,0.072075
199.083,79.2635,0.072000
199.113,79.2575,0.072000
199.144,79.2513,0.072000
199.175,79.2453,0.072000
199.206,79.2389,0.072000
199.238,79.2326,0.072000
199.269,79.2263,0.072000
199.301,79.2201,0.071906
199.331,79.2140,0.071906
199.363,79.2084,0.071906
199.394,79.2035,0.071906
199.424,79.1996,0.071906
199.455,79.1963,0.071906
199.486,79.1937,0.071906
199.517,79.1918,0.071906
199.548,79.1907,0.071727
199.579,79.1902,0.071727
199.610,79.1902,0.071727
199.641,79.1902,0.071727
199.672,79.1902,0.071727
199.703,79.1902,0.071727
199.733,79.1902,0.071727
199.765,79.1902,0.071727
199.796,79.1902,0.071491
199.827,79.1902,0.071491
199.858,79.1902,0.071491
199.889,79.1902,0.071491
199.921,79.1902,0.071491
199.952,79.1902,0.071491
199.983,79.1902,0.071491
200.014,79.1902,0.071491
200.045,79.1902,0.071378
200.076,79.1902,0.071378
200.107,79.1902,0.071378
200.138,79.1902,0.071378
200.169,79.1902,0.071378
200.200,79.1902,0.071378
200.232,79.1902,0.071378
200.263,79.1903,0.071378
200.294,79.1912,0.071322
200.326,79.1929,0.071322
200.357,79.1952,0.071322
200.387,79.1983,0.071322
200.419,79.2020,0.071322
200.450,79.2067,0.071322
200.480,79.2117,0.071322
200.512,79.2179,0.071322
200.542,79.2239,0.071077
200.573,79.2301,0.071077
200.605,79.2363,0.071077
200.636,79.2425,0.071077
200.669,79.2491,0.071077
200.699,79.2552,0.071077
200.730,79.2613,0.071077
200.760,79.2675,0.070822
200.791,79.2738,0.070822
200.822,79.2801,0.070822
200.853,79.2861,0.070822
200.884,79.2923,0.070822
200.915,79.2984,0.070822
200.946,79.3047,0.070822
200.977,79.3108,0.070822
201.009,79.3173,0.070822
201.040,79.3235,0.070775
201.070,79.3294,0.070775
201.100,79.3354,0.070775
201.131,79.3415,0.070775
201.163,79.3481,0.070775
201.193,79.3539,0.070775
201.225,79.3605,0.070775
201.255,79.3664,0.070775
201.285,79.3725,0.070775
201.316,79.3786,0.070737
201.347,79.3849,0.070737
201.379,79.3914,0.070737
201.409,79.3973,0.070737
201.441,79.4038,0.070737
201.472,79.4099,0.070737
201.503,79.4161,0.070737
201.534,79.4223,0.070671
201.566,79.4286,0.070671
201.596,79.4347,0.070671
201.627,79.4409,0.070671
201.658,79.4469,0.070671
201.689,79.4533,0.070671
201.720,79.4593,0.070671
201.751,79.4657,0.070671
201.781,79.4717,0.070596
201.812,79.4779,0.070596
201.843,79.4841,0.070596
201.875,79.4905,0.070596
201.906,79.4967,0.070596
201.938,79.5031,0.070596
201.969,79.5093,0.070596
202.000,79.5155,0.070596
202.032,79.5218,0.070605
202.063,79.5279,0.070605
202.094,79.5342,0.070605
202.125,79.5406,0.070605
202.157,79.5466,0.070605
202.188,79.5531,0.070605
202.218,79.5591,0.070605
202.250,79.5655,0.070605
202.280,79.5715,0.070549
202.312,79.5779,0.070549
202.342,79.5837,0.070549
202.373,79.5901,0.070549
202.404,79.5961,0.070549
202.435,79.6023,0.070549
202.465,79.6084,0.070549
202.497,79.6149,0.070549
202.527,79.6208,0.070549
202.557,79.6269,0.070464
202.588,79.6332,0.070464
202.619,79.6393,0.070464
202.651,79.6456,0.070464
202.683,79.6519,0.070464
202.714,79.6581,0.070464
202.745,79.6646,0.070464
202.777,79.6707,0.070436
202.807,79.6769,0.070436
202.841,79.6834,0.070436
202.870,79.6895,0.070436
202.901,79.6957,0.070436
202.931,79.7017,0.070436
202.963,79.7081,0.070436
202.994,79.7142,0.070436
203.025,79.7204,0.070436
203.056,79.7266,0.070436
203.087,79.7329,0.070408
203.120,79.7394,0.070408
203.150,79.7456,0.070408
203.182,79.7518,0.070408
203.214,79.7582,0.070408
203.246,79.7646,0.070408
203.275,79.7706,0.070408
203.307,79.7768,0.070389
203.339,79.7833,0.070389
203.369,79.7894,0.070389
203.400,79.7953,0.070389
203.431,79.8015,0.070389
203.462,79.8077,0.070389
203.493,79.8142,0.070389
203.525,79.8205,0.070389
203.555,79.8263,0.070389
203.586,79.8326,0.070351
203.617,79.8390,0.070351
203.648,79.8450,0.070351
203.679,79.8512,0.070351
203.711,79.8576,0.070351
203.742,79.8639,0.070351
203.773,79.8699,0.070351
203.805,79.8763,0.070389
203.837,79.8828,0.070389
203.868,79.8890,0.070389
203.900,79.8954,0.070389
203.930,79.9016,0.070389
203.961,79.9077,0.070389
203.992,79.9138,0.070389
204.022,79.9201,0.070389
204.053,79.9260,0.070342
204.084,79.9326,0.070342
204.114,79.9382,0.070342
204.145,79.9444,0.070342
204.176,79.9508,0.070342
204.207,79.9569,0.070342
204.238,79.9631,0.070342
204.269,79.9692,0.070342
204.300,79.9755,0.070342
204.331,79.9816,0.070266
204.363,79.9882,0.070266
204.394,79.9942,0.070266
204.426,80.0007,0.070266
204.457,80.0068,0.070266
204.488,80.0131,0.070266
204.519,80.0192,0.070266
204.549,80.0254,0.070229
204.581,80.0316,0.070229
204.612,80.0379,0.070229
204.643,80.0440,0.070229
204.674,80.0502,0.070229
204.705,80.0566,0.070229
204.737,80.0627,0.070229
204.768,80.0690,0.070229
204.799,80.0752,0.070163
204.830,80.0813,0.070163
204.861,80.0878,0.070163
204.892,80.0940,0.070163
204.923,80.1002,0.070163
204.954,80.1064,0.070163
204.985,80.1123,0.070163
205.015,80.1184,0.070163
205.045,80.1245,0.070097
205.076,80.1308,0.070097
205.107,80.1369,0.070097
205.139,80.1432,0.070097
205.170,80.1494,0.070097
205.202,80.1559,0.070097
205.233,80.1619,0.070097
205.264,80.1684,0.070097
205.296,80.1745,0.070040
205.326,80.1808,0.070040
205.358,80.1871,0.070040
205.390,80.1933,0.070040
205.420,80.1995,0.070040
205.452,80.2058,0.070040
205.483,80.2119,0.070040
205.514,80.2181,0.070040
205.545,80.2243,0.070068
205.577,80.2308,0.070068
205.607,80.2370,0.070068
205.640,80.2434,0.070068
205.670,80.2496,0.070068
205.700,80.2556,0.070068
205.732,80.2620,0.070068
205.763,80.2681,0.070068
205.794,80.2744,0.070021
205.825,80.2805,0.070021
205.856,80.2867,0.070021
205.887,80.2926,0.070021
205.919,80.2992,0.070021
205.949,80.3053,0.070021
205.981,80.3116,0.070021
206.012,80.3178,0.070021
206.043,80.3239,0.069937
206.074,80.3301,0.069937
206.106,80.3366,0.069937
206.136,80.3428,0.069937
206.167,80.3487,0.069937
206.198,80.3549,0.069937
206.229,80.3614,0.069937
206.260,80.3674,0.069937
206.291,80.3735,0.069899
206.322,80.3798,0.069899
206.353,80.3859,0.069899
206.384,80.3921,0.069899
206.415,80.3983,0.069899
206.447,80.4048,0.069899
206.477,80.4108,0.069899
206.509,80.4172,0.069899
206.541,80.4235,0.069814
206.570,80.4293,0.069814
206.602,80.4359,0.069814
206.632,80.4418,0.069814
206.663,80.4479,0.069814
206.694,80.4543,0.069814
206.725,80.4606,0.069814
206.756,80.4667,0.069814
206.787,80.4729,0.069814
206.818,80.4792,0.069739
206.850,80.4854,0.069739
206.881,80.4918,0.069739
206.913,80.4980,0.069739
206.944,80.5042,0.069739
206.975,80.5103,0.069739
207.005,80.5166,0.069739
207.037,80.5228,0.069739
207.069,80.5293,0.069635
207.100,80.5355,0.069635
207.131,80.5416,0.069635
207.163,80.5480,0.069635
207.193,80.5541,0.069635
207.225,80.5605,0.069635
207.256,80.5666,0.069635
207.287,80.5728,0.069569
207.319,80.5793,0.069569
207.350,80.5853,0.069569
207.380,80.5915,0.069569
207.411,80.5976,0.069569
207.443,80.6041,0.069569
207.473,80.6101,0.069569
207.505,80.6164,0.069569
207.537,80.6227,0.069569
207.568,80.6291,0.069484
207.600,80.6355,0.069484
207.630,80.6417,0.069484
207.662,80.6479,0.069484
207.693,80.6541,0.069484
207.723,80.6601,0.069484
207.753,80.6661,0.069484
207.784,80.6723,0.069484
207.815,80.6784,0.069324
207.845,80.6844,0.069324
207.877,80.6908,0.069324
207.908,80.6971,0.069324
207.940,80.7033,0.069324
207.971,80.7097,0.069324
208.003,80.7159,0.069324
208.034,80.7223,0.069324
208.065,80.7283,0.069192
208.097,80.7349,0.069192
208.127,80.7409,0.069192
208.158,80.7471,0.069192
208.190,80.7533,0.069192
208.220,80.7596,0.069192
208.251,80.7657,0.069192
208.282,80.7719,0.069192
208.314,80.7781,0.069060
208.344,80.7842,0.069060
208.374,80.7902,0.069060
208.405,80.7964,0.069060
208.437,80.8026,0.069060
208.468,80.8090,0.069060
208.500,80.8153,0.069060
208.531,80.8216,0.069060
208.562,80.8279,0.068947
208.594,80.8341,0.068947
208.626,80.8406,0.068947
208.655,80.8465,0.068947
208.686,80.8525,0.068947
208.717,80.8587,0.068947
208.748,80.8649,0.068947
208.779,80.8711,0.068759
208.810,80.8774,0.068759
208.841,80.8836,0.068759
208.871,80.8897,0.068759
208.902,80.8958,0.068759
208.934,80.9022,0.068759
208.965,80.9083,0.068759
208.996,80.9148,0.068759
209.028,80.9208,0.068570
209.060,80.9274,0.068570
209.090,80.9332,0.068570
209.122,80.9399,0.068570
209.153,80.9459,0.068570
209.183,80.9521,0.068570
209.214,80.9582,0.068570
209.245,80.9645,0.068570
209.276,80.9707,0.068391
209.307,80.9768,0.068391
209.337,80.9828,0.068391
209.368,80.9892,0.068391
209.399,80.9952,0.068391
209.430,81.0014,0.068391
209.461,81.0075,0.068391
209.492,81.0138,0.068391
209.523,81.0198,0.068165
209.553,81.0261,0.068165
209.585,81.0323,0.068165
209.616,81.0387,0.068165
209.648,81.0450,0.068165
209.679,81.0512,0.068165
209.711,81.0575,0.068165
209.741,81.0637,0.068165
209.771,81.0697,0.068165
209.803,81.0759,0.067958
209.834,81.0821,0.067958
209.865,81.0883,0.067958
209.896,81.0946,0.067958
209.926,81.1005,0.067958
209.956,81.1067,0.067958
209.988,81.1128,0.067958
210.018,81.1191,0.067958
210.050,81.1252,0.067713
210.081,81.1318,0.067713
210.113,81.1379,0.067713
210.143,81.1442,0.067713
210.174,81.1503,0.067713
210.205,81.1565,0.067713
210.237,81.1627,0.067713
210.269,81.1691,0.067713
210.299,81.1753,0.067468
210.331,81.1815,0.067468
210.361,81.1875,0.067468
210.393,81.1939,0.067468
210.424,81.2001,0.067468
210.455,81.2065,0.067468
210.486,81.2125,0.067468
210.516,81.2186,0.067468
210.547,81.2248,0.067261
210.579,81.2313,0.067261
210.610,81.2373,0.067261
210.642,81.2437,0.067261
210.673,81.2499,0.067261
210.703,81.2561,0.067261
210.734,81.2623,0.067261
210.766,81.2687,0.067261
210.798,81.2749,0.066969
210.829,81.2812,0.066969
210.861,81.2874,0.066969
210.891,81.2935,0.066969
210.922,81.2997,0.066969
210.952,81.3058,0.066969
210.983,81.3119,0.066969
211.014,81.3181,0.066969
211.045,81.3243,0.066686
211.076,81.3306,0.066686
211.106,81.3366,0.066686
211.137,81.3426,0.066686
211.168,81.3488,0.066686
211.200,81.3553,0.066686
211.230,81.3612,0.066686
211.262,81.3678,0.066686
211.293,81.3740,0.066432
211.323,81.3802,0.066432
211.355,81.3863,0.066432
211.385,81.3924,0.066432
211.417,81.3987,0.066432
211.448,81.4050,0.066432
211.479,81.4113,0.066432
211.511,81.4175,0.066432
211.542,81.4237,0.066177
211.573,81.4299,0.066177
211.606,81.4365,0.066177
211.633,81.4420,0.066177
211.664,81.4481,0.066177
211.694,81.4543,0.066177
211.726,81.4606,0.066177
211.757,81.4668,0.066177
211.788,81.4730,0.065932
211.819,81.4792,0.065932
211.849,81.4853,0.065932
211.881,81.4915,0.065932
211.913,81.4979,0.065932
211.943,81.5040,0.065932
211.974,81.5103,0.065932
212.005,81.5164,0.065932
212.037,81.5228,0.065932
212.068,81.5288,0.065932
212.100,81.5354,0.065687
212.130,81.5413,0.065687
212.161,81.5476,0.065687
212.191,81.5536,0.065687
212.223,81.5602,0.065687
212.254,81.5660,0.065687
212.285,81.5726,0.065687
212.317,81.5786,0.065424
212.348,81.5851,0.065424
212.379,81.5911,0.065424
212.411,81.5976,0.065424
212.442,81.6037,0.065424
212.472,81.6099,0.065424
212.503,81.6160,0.065424
212.534,81.6222,0.065424
212.565,81.6285,0.065169
212.596,81.6347,0.065169
212.627,81.6408,0.065169
212.659,81.6471,0.065169
212.689,81.6532,0.065169
212.720,81.6593,0.065169
212.751,81.6656,0.065169
212.782,81.6718,0.065169
212.815,81.6782,0.064887
212.845,81.6843,0.064887
212.876,81.6906,0.064887
212.907,81.6970,0.064887
212.939,81.7030,0.064887
212.969,81.7092,0.064887
213.000,81.7156,0.064887
213.031,81.7216,0.064557
213.062,81.7280,0.064557
213.093,81.7339,0.064557
213.124,81.7403,0.064557
213.155,81.7463,0.064557
213.186,81.7525,0.064557
213.216,81.7586,0.064557
213.248,81.7651,0.064557
213.278,81.7710,0.064284
213.310,81.7775,0.064284
213.341,81.7835,0.064284
213.373,81.7900,0.064284
213.404,81.7961,0.064284
213.435,81.8024,0.064284
213.467,81.8086,0.064284
213.499,81.8152,0.064284
213.529,81.8212,0.064039
213.561,81.8277,0.064039
213.591,81.8335,0.064039
213.622,81.8398,0.064039
213.654,81.8460,0.064039
213.685,81.8522,0.064039
213.716,81.8584,0.064039
213.747,81.8648,0.064039
213.779,81.8713,0.063765
213.809,81.8773,0.063765
213.841,81.8837,0.063765
213.873,81.8898,0.063765
213.904,81.8963,0.063765
213.936,81.9026,0.063765
213.967,81.9089,0.063765
213.998,81.9149,0.063765
214.030,81.9214,0.063473
214.061,81.9275,0.063473
214.092,81.9339,0.063473
214.123,81.9401,0.063473
214.153,81.9460,0.063473
214.184,81.9523,0.063473
214.215,81.9584,0.063473
214.246,81.9646,0.063473
214.277,81.9708,0.063210
214.308,81.9770,0.063210
214.339,81.9831,0.063210
214.370,81.9893,0.063210
214.401,81.9955,0.063210
214.432,82.0017,0.063210
214.463,82.0079,0.063210
214.494,82.0142,0.063210
214.526,82.0204,0.063210
214.556,82.0266,0.063210
214.588,82.0328,0.062899
214.619,82.0391,0.062899
214.650,82.0453,0.062899
214.680,82.0514,0.062899
214.711,82.0578,0.062899
214.742,82.0638,0.062899
214.775,82.0703,0.062899
214.805,82.0762,0.062644
214.838,82.0829,0.062644
214.868,82.0891,0.062644
214.899,82.0951,0.062644
214.930,82.1012,0.062644
214.960,82.1075,0.062644
214.991,82.1136,0.062644
215.022,82.1198,0.062644
215.054,82.1261,0.062644
215.084,82.1322,0.062418
215.115,82.1384,0.062418
215.146,82.1444,0.062418
215.177,82.1508,0.062418
215.208,82.1571,0.062418
215.240,82.1633,0.062418
215.270,82.1692,0.062418
215.301,82.1743,0.062107
215.332,82.1787,0.062107
215.364,82.1825,0.062107
215.396,82.1856,0.062107
215.426,82.1879,0.062107
215.457,82.1893,0.062107
215.489,82.1901,0.062107
215.520,82.1902,0.062107
215.551,82.1902,0.062371
215.582,82.1902,0.062371
215.612,82.1902,0.062371
215.644,82.1902,0.062371
215.676,82.1902,0.062371
215.706,82.1902,0.062371
215.738,82.1902,0.062371
215.769,82.1902,0.062371
215.799,82.1902,0.062371
215.831,82.1902,0.063219
215.863,82.1902,0.063219
215.894,82.1902,0.063219
215.925,82.1902,0.063219
215.956,82.1902,0.063219
215.988,82.1902,0.063219
