Elapsed Time (s),Position (mm),Force (N)
-0.027,80.4902,-0.004720
0.000,80.4902,-0.004720
0.035,80.4902,-0.004720
0.066,80.4902,-0.004720
0.097,80.4902,-0.004720
0.127,80.4902,-0.004720
0.158,80.4902,-0.003966
0.188,80.4902,-0.003966
0.219,80.4902,-0.003966
0.250,80.4902,-0.003966
0.282,80.4902,-0.003966
0.313,80.4902,-0.003966
0.344,80.4902,-0.003966
0.375,80.4902,-0.003486
0.407,80.4902,-0.003486
0.437,80.4902,-0.003486
0.467,80.4902,-0.003486
0.498,80.4902,-0.003486
0.530,80.4902,-0.003486
0.561,80.4902,-0.003486
0.592,80.4902,-0.003486
0.623,80.4902,-0.003486
0.654,80.4902,-0.003185
0.685,80.4902,-0.003185
0.717,80.4902,-0.003185
0.747,80.4902,-0.003185
0.778,80.4902,-0.003185
0.809,80.4902,-0.003185
0.842,80.4902,-0.003185
0.871,80.4902,-0.002940
0.904,80.4902,-0.002940
0.935,80.4902,-0.002940
0.966,80.4902,-0.002940
0.997,80.4902,-0.002940
1.027,80.4902,-0.002940
1.058,80.4902,-0.002940
1.088,80.4902,-0.002940
1.119,80.4902,-0.002629
1.150,80.4902,-0.002629
1.181,80.4902,-0.002629
1.212,80.4902,-0.002629
1.244,80.4902,-0.002629
1.275,80.4902,-0.002629
1.306,80.4902,-0.002629
1.338,80.4902,-0.002629
1.369,80.4902,-0.002629
1.401,80.4902,-0.002412
1.432,80.4902,-0.002412
1.463,80.4902,-0.002412
1.494,80.4902,-0.002412
1.526,80.4902,-0.002412
1.557,80.4902,-0.002412
1.589,80.4902,-0.002412
1.620,80.4902,-0.002412
1.653,80.4902,-0.002205
1.682,80.4902,-0.002205
1.713,80.4902,-0.002205
1.744,80.4902,-0.002205
1.775,80.4902,-0.002205
1.807,80.4902,-0.002205
1.838,80.4902,-0.002205
1.869,80.4902,-0.002035
1.901,80.4902,-0.002035
1.932,80.4902,-0.002035
1.963,80.4902,-0.002035
1.993,80.4902,-0.002035
2.024,80.4902,-0.002035
2.057,80.4902,-0.002035
2.086,80.4902,-0.002035
2.118,80.4902,-0.001922
2.148,80.4902,-0.001922
2.179,80.4902,-0.001922
2.210,80.4902,-0.001922
2.242,80.4902,-0.001922
2.272,80.4902,-0.001922
2.304,80.4902,-0.001922
2.337,80.4902,-0.001922
2.367,80.4902,-0.001762
2.398,80.4902,-0.001762
2.430,80.4902,-0.001762
2.461,80.4902,-0.001762
2.492,80.4902,-0.001762
2.523,80.4902,-0.001762
2.554,80.4902,-0.001762
2.586,80.4902,-0.001762
2.616,80.4902,-0.001630
2.647,80.4902,-0.001630
2.678,80.4902,-0.001630
2.709,80.4902,-0.001630
2.740,80.4902,-0.001630
2.771,80.4902,-0.001630
2.802,80.4902,-0.001630
2.834,80.4902,-0.001630
2.866,80.4902,-0.001479
2.897,80.4902,-0.001479
2.928,80.4902,-0.001479
2.959,80.4902,-0.001479
2.989,80.4902,-0.001479
3.020,80.4902,-0.001479
3.051,80.4902,-0.001479
3.083,80.4902,-0.001479
3.116,80.4902,-0.001338
3.147,80.4902,-0.001338
3.177,80.4902,-0.001338
3.208,80.4902,-0.001338
3.239,80.4902,-0.001338
3.269,80.4902,-0.001338
3.302,80.4902,-0.001338
3.333,80.4902,-0.001338
3.363,80.4902,-0.001262
3.394,80.4902,-0.001262
3.425,80.4902,-0.001262
3.456,80.4902,-0.001262
3.487,80.4902,-0.001262
3.519,80.4902,-0.001262
3.551,80.4902,-0.001262
3.582,80.4902,-0.001262
3.613,80.4902,-0.001206
3.644,80.4902,-0.001206
3.675,80.4902,-0.001206
3.706,80.4902,-0.001206
3.736,80.4902,-0.001206
3.767,80.4902,-0.001206
3.798,80.4902,-0.001206
3.830,80.4902,-0.001206
3.861,80.4902,-0.001074
3.893,80.4902,-0.001074
3.924,80.4902,-0.001074
3.955,80.4902,-0.001074
3.986,80.4902,-0.001074
4.017,80.4902,-0.001074
4.047,80.4902,-0.001074
4.078,80.4897,-0.001074
4.109,80.4884,-0.001074
4.141,80.4864,-0.000839
4.171,80.4836,-0.000839
4.202,80.4803,-0.000839
4.233,80.4761,-0.000839
4.264,80.4711,-0.000839
4.296,80.4654,-0.000839
4.327,80.4592,-0.000839
4.358,80.4529,-0.000839
4.390,80.4467,0.000641
4.421,80.4404,0.000641
4.452,80.4343,0.000641
4.485,80.4276,0.000641
4.515,80.4218,0.000641
4.545,80.4154,0.000641
4.576,80.4095,0.000641
4.607,80.4032,0.000641
4.638,80.3971,0.005427
4.669,80.3908,0.005427
4.700,80.3847,0.005427
4.731,80.3785,0.005427
4.761,80.3725,0.005427
4.792,80.3663,0.005427
4.823,80.3599,0.005427
4.854,80.3538,0.005427
4.886,80.3476,0.012616
4.917,80.3413,0.012616
4.948,80.3352,0.012616
4.979,80.3290,0.012616
5.010,80.3228,0.012616
5.040,80.3166,0.012616
5.071,80.3104,0.012616
5.103,80.3041,0.012616
5.134,80.2979,0.020963
5.166,80.2914,0.020963
5.197,80.2853,0.020963
5.229,80.2789,0.020963
5.260,80.2727,0.020963
5.291,80.2664,0.020963
5.323,80.2602,0.020963
5.354,80.2537,0.020963
5.385,80.2478,0.031468
5.415,80.2416,0.031468
5.446,80.2355,0.031468
5.477,80.2293,0.031468
5.507,80.2231,0.031468
5.538,80.2169,0.031468
5.569,80.2107,0.031468
5.600,80.2046,0.031468
5.632,80.1981,0.044856
5.663,80.1921,0.044856
5.694,80.1857,0.044856
5.724,80.1798,0.044856
5.756,80.1735,0.044856
5.787,80.1673,0.044856
5.818,80.1609,0.044856
5.850,80.1546,0.061495
5.884,80.1477,0.061495
5.912,80.1422,0.061495
5.944,80.1359,0.061495
5.975,80.1297,0.061495
6.006,80.1236,0.061495
6.036,80.1173,0.061495
6.067,80.1113,0.061495
6.098,80.1049,0.081666
6.129,80.0989,0.081666
6.160,80.0926,0.081666
6.192,80.0862,0.081666
6.222,80.0801,0.081666
6.253,80.0741,0.081666
6.284,80.0677,0.081666
6.316,80.0615,0.081666
6.347,80.0553,0.081666
6.377,80.0493,0.105447
6.408,80.0430,0.105447
6.440,80.0367,0.105447
6.469,80.0307,0.105447
6.501,80.0245,0.105447
6.533,80.0181,0.105447
6.565,80.0115,0.105447
6.596,80.0055,0.105447
6.625,79.9996,0.133108
6.656,79.9934,0.133108
6.688,79.9871,0.133108
6.720,79.9806,0.133108
6.750,79.9747,0.133108
6.781,79.9685,0.133108
6.812,79.9623,0.133108
6.844,79.9559,0.133108
6.874,79.9498,0.164699
6.905,79.9438,0.164699
6.936,79.9376,0.164699
6.966,79.9315,0.164699
6.998,79.9250,0.164699
7.027,79.9192,0.164699
7.059,79.9129,0.164699
7.089,79.9067,0.164699
7.121,79.9005,0.164699
7.152,79.8942,0.200096
7.184,79.8878,0.200096
7.216,79.8815,0.200096
7.247,79.8751,0.200096
7.279,79.8689,0.200096
7.310,79.8628,0.200096
7.341,79.8566,0.200096
7.372,79.8504,0.200096
7.403,79.8442,0.239393
7.434,79.8379,0.239393
7.464,79.8318,0.239393
7.495,79.8256,0.239393
7.526,79.8194,0.239393
7.558,79.8131,0.239393
7.587,79.8072,0.239393
7.619,79.8009,0.239393
7.650,79.7947,0.282469
7.683,79.7880,0.282469
7.713,79.7822,0.282469
7.744,79.7758,0.282469
7.774,79.7696,0.282469
7.805,79.7636,0.282469
7.836,79.7575,0.282469
7.867,79.7513,0.282469
7.898,79.7451,0.328776
7.929,79.7388,0.328776
7.960,79.7328,0.328776
7.991,79.7265,0.328776
8.021,79.7205,0.328776
8.053,79.7140,0.328776
8.083,79.7080,0.328776
8.115,79.7017,0.328776
8.146,79.6955,0.377750
8.177,79.6892,0.377750
8.207,79.6832,0.377750
8.238,79.6769,0.377750
8.269,79.6709,0.377750
8.300,79.6646,0.377750
8.330,79.6586,0.377750
8.362,79.6523,0.377750
8.393,79.6459,0.429305
8.424,79.6399,0.429305
8.455,79.6337,0.429305
8.486,79.6275,0.429305
8.517,79.6213,0.429305
8.549,79.6147,0.429305
8.580,79.6088,0.429305
8.610,79.6025,0.429305
8.642,79.5964,0.482998
8.673,79.5901,0.482998
8.704,79.5839,0.482998
8.735,79.5777,0.482998
8.766,79.5715,0.482998
8.797,79.5653,0.482998
8.828,79.5591,0.482998
8.860,79.5527,0.482998
8.891,79.5464,0.537926
8.923,79.5401,0.537926
8.954,79.5339,0.537926
8.985,79.5275,0.537926
9.016,79.5215,0.537926
9.047,79.5154,0.537926
9.078,79.5091,0.537926
9.109,79.5029,0.537926
9.140,79.4964,0.591403
9.172,79.4902,0.591403
9.202,79.4840,0.591403
9.233,79.4781,0.591403
9.264,79.4717,0.591403
9.297,79.4653,0.591403
9.326,79.4593,0.591403
9.356,79.4534,0.591403
9.387,79.4471,0.622532
9.419,79.4410,0.622532
9.449,79.4349,0.622532
9.481,79.4286,0.622532
9.511,79.4225,0.622532
9.542,79.4162,0.622532
9.573,79.4101,0.622532
9.604,79.4040,0.622532
9.636,79.3974,0.389866
9.667,79.3914,0.389866
9.698,79.3850,0.389866
9.728,79.3791,0.389866
9.759,79.3729,0.389866
9.790,79.3667,0.389866
9.821,79.3605,0.389866
9.853,79.3542,0.389866
9.884,79.3478,0.085369
9.915,79.3418,0.085369
9.945,79.3357,0.085369
9.977,79.3292,0.085369
10.009,79.3228,0.085369
10.039,79.3168,0.085369
10.071,79.3105,0.085369
10.102,79.3043,0.018777
10.134,79.2980,0.018777
10.165,79.2917,0.018777
10.197,79.2855,0.018777
10.227,79.2793,0.018777
10.258,79.2732,0.018777
10.290,79.2667,0.018777
10.321,79.2605,0.018777
10.352,79.2543,0.018777
10.383,79.2481,0.018636
10.414,79.2419,0.018636
10.445,79.2357,0.018636
10.476,79.2295,0.018636
10.507,79.2233,0.018636
10.539,79.2169,0.018636
10.569,79.2109,0.018636
10.601,79.2045,0.018551
10.632,79.1983,0.018551
10.663,79.1921,0.018551
10.694,79.1857,0.018551
10.725,79.1798,0.018551
10.756,79.1735,0.018551
10.786,79.1675,0.018551
10.817,79.1613,0.018551
10.847,79.1552,0.018551
10.878,79.1492,0.018485
10.910,79.1427,0.018485
10.941,79.1365,0.018485
10.972,79.1302,0.018485
11.003,79.1242,0.018485
11.034,79.1180,0.018485
11.066,79.1115,0.018485
11.096,79.1055,0.018485
11.127,79.0992,0.018504
11.158,79.0928,0.018504
11.189,79.0868,0.018504
11.221,79.0806,0.018504
11.252,79.0744,0.018504
11.283,79.0682,0.018504
11.315,79.0617,0.018504
11.344,79.0558,0.018561
11.375,79.0498,0.018561
11.407,79.0434,0.018561
11.437,79.0373,0.018561
11.469,79.0310,0.018561
11.499,79.0249,0.018561
11.530,79.0187,0.018561
11.562,79.0124,0.018561
11.593,79.0062,0.018561
11.626,78.9995,0.018495
11.655,78.9936,0.018495
11.687,78.9874,0.018495
11.717,78.9812,0.018495
11.749,78.9750,0.018495
11.779,78.9687,0.018495
11.812,78.9624,0.018495
11.842,78.9563,0.018495
11.872,78.9502,0.018495
11.903,78.9441,0.018457
11.934,78.9378,0.018457
11.965,78.9317,0.018457
11.996,78.9254,0.018457
12.027,78.9193,0.018457
12.058,78.9129,0.018457
12.090,78.9067,0.018457
12.121,78.9004,0.018457
12.152,78.8943,0.018513
12.184,78.8878,0.018513
12.215,78.8815,0.018513
12.246,78.8754,0.018513
12.277,78.8694,0.018513
12.307,78.8633,0.018513
12.338,78.8570,0.018513
12.369,78.8508,0.018513
12.401,78.8444,0.018570
12.431,78.8385,0.018570
12.462,78.8323,0.018570
12.493,78.8261,0.018570
12.524,78.8199,0.018570
12.556,78.8135,0.018570
12.588,78.8072,0.018570
12.618,78.8010,0.018570
12.651,78.7946,0.018570
12.682,78.7881,0.018570
12.713,78.7822,0.018570
12.743,78.7760,0.018570
12.774,78.7699,0.018570
12.805,78.7637,0.018570
12.836,78.7575,0.018570
12.867,78.7513,0.018561
12.898,78.7450,0.018561
12.928,78.7390,0.018561
12.959,78.7328,0.018561
12.989,78.7270,0.018561
13.020,78.7207,0.018561
13.050,78.7147,0.018561
13.082,78.7082,0.018561
13.113,78.7022,0.018570
13.144,78.6958,0.018570
13.175,78.6898,0.018570
13.206,78.6834,0.018570
13.237,78.6771,0.018570
13.268,78.6710,0.018570
13.299,78.6648,0.018570
13.331,78.6585,0.018570
13.362,78.6524,0.018579
13.393,78.6461,0.018579
13.424,78.6400,0.018579
13.455,78.6336,0.018579
13.486,78.6274,0.018579
13.516,78.6214,0.018579
13.547,78.6152,0.018579
13.578,78.6090,0.018579
13.610,78.6028,0.018608
13.641,78.5966,0.018608
13.672,78.5904,0.018608
13.703,78.5841,0.018608
13.733,78.5781,0.018608
13.765,78.5717,0.018608
13.795,78.5657,0.018608
13.827,78.5594,0.018608
13.857,78.5533,0.018608
13.888,78.5471,0.018579
13.919,78.5407,0.018579
13.951,78.5345,0.018579
13.982,78.5283,0.018579
14.013,78.5221,0.018579
14.043,78.5160,0.018579
14.075,78.5098,0.018579
14.105,78.5035,0.018579
14.136,78.4975,0.018523
14.169,78.4910,0.018523
14.198,78.4850,0.018523
14.230,78.4788,0.018523
14.262,78.4725,0.018523
14.293,78.4660,0.018523
14.324,78.4601,0.018523
14.355,78.4538,0.018523
14.386,78.4476,0.018513
14.417,78.4412,0.018513
14.448,78.4350,0.018513
14.479,78.4288,0.018513
14.510,78.4226,0.018513
14.542,78.4163,0.018513
14.572,78.4102,0.018513
14.603,78.4040,0.018513
14.635,78.3978,0.018485
14.666,78.3915,0.018485
14.697,78.3853,0.018485
14.729,78.3788,0.018485
14.760,78.3728,0.018485
14.790,78.3667,0.018485
14.822,78.3605,0.018485
14.853,78.3542,0.018485
14.884,78.3480,0.018485
14.915,78.3416,0.018485
14.945,78.3358,0.018485
14.976,78.3295,0.018485
15.008,78.3232,0.018485
15.039,78.3168,0.018485
15.070,78.3108,0.018485
15.103,78.3041,0.018485
15.134,78.2980,0.018579
15.164,78.2920,0.018579
15.195,78.2858,0.018579
15.225,78.2796,0.018579
15.256,78.2734,0.018579
15.288,78.2671,0.018579
15.319,78.2609,0.018579
15.350,78.2547,0.018579
15.382,78.2485,0.018532
15.413,78.2420,0.018532
15.445,78.2357,0.018532
15.476,78.2295,0.018532
15.507,78.2233,0.018532
15.538,78.2171,0.018532
15.570,78.2108,0.018532
15.601,78.2043,0.018532
15.632,78.1984,0.018532
15.663,78.1922,0.018429
15.694,78.1860,0.018429
15.725,78.1798,0.018429
15.755,78.1736,0.018429
15.786,78.1675,0.018429
15.817,78.1612,0.018429
15.849,78.1550,0.018429
15.879,78.1488,0.018391
15.910,78.1428,0.018391
15.941,78.1365,0.018391
15.971,78.1304,0.018391
16.002,78.1242,0.018391
16.034,78.1178,0.018391
16.066,78.1117,0.018391
16.097,78.1054,0.018391
16.128,78.0990,0.018325
16.159,78.0930,0.018325
16.190,78.0868,0.018325
16.222,78.0803,0.018325
16.253,78.0742,0.018325
16.284,78.0679,0.018325
16.314,78.0618,0.018325
16.345,78.0558,0.018325
16.376,78.0496,0.018325
16.407,78.0435,0.018325
16.437,78.0373,0.018325
16.469,78.0308,0.018325
16.500,78.0248,0.018325
16.532,78.0183,0.018325
16.563,78.0121,0.018325
16.595,78.0057,0.018325
16.627,77.9993,0.018344
16.658,77.9931,0.018344
16.689,77.9869,0.018344
16.720,77.9806,0.018344
16.751,77.9745,0.018344
16.783,77.9682,0.018344
16.814,77.9620,0.018344
16.844,77.9559,0.018344
16.875,77.9497,0.018278
16.907,77.9434,0.018278
16.938,77.9372,0.018278
16.969,77.9309,0.018278
17.000,77.9248,0.018278
17.031,77.9185,0.018278
17.063,77.9121,0.018278
17.094,77.9058,0.018278
17.126,77.8996,0.018184
17.156,77.8934,0.018184
17.188,77.8872,0.018184
17.218,77.8810,0.018184
17.249,77.8749,0.018184
17.280,77.8687,0.018184
17.311,77.8627,0.018184
17.343,77.8561,0.018184
17.373,77.8500,0.018108
17.403,77.8441,0.018108
17.434,77.8377,0.018108
17.466,77.8315,0.018108
17.497,77.8251,0.018108
17.528,77.8191,0.018108
17.558,77.8129,0.018108
17.590,77.8067,0.018108
17.621,77.8004,0.018061
17.653,77.7942,0.018061
17.684,77.7877,0.018061
17.715,77.7818,0.018061
17.746,77.7755,0.018061
17.778,77.7693,0.018061
17.808,77.7631,0.018061
17.839,77.7569,0.018061
17.871,77.7505,0.018061
17.901,77.7445,0.018071
17.932,77.7383,0.018071
17.963,77.7321,0.018071
17.994,77.7260,0.018071
18.024,77.7198,0.018071
18.058,77.7131,0.018071
18.087,77.7073,0.018071
18.118,77.7012,0.018071
18.149,77.6949,0.018071
18.180,77.6887,0.018071
18.212,77.6822,0.018071
18.243,77.6761,0.018071
18.274,77.6699,0.018071
18.305,77.6637,0.018071
18.336,77.6575,0.018071
18.367,77.6513,0.018071
18.397,77.6454,0.017958
18.428,77.6392,0.017958
18.458,77.6331,0.017958
18.490,77.6269,0.017958
18.520,77.6207,0.017958
18.551,77.6145,0.017958
18.583,77.6080,0.017958
18.614,77.6020,0.017958
18.645,77.5958,0.017854
18.677,77.5894,0.017854
18.708,77.5832,0.017854
18.739,77.5770,0.017854
18.770,77.5706,0.017854
18.801,77.5645,0.017854
18.832,77.5583,0.017854
18.864,77.5520,0.017779
18.895,77.5458,0.017779
18.926,77.5396,0.017779
18.958,77.5331,0.017779
18.988,77.5272,0.017779
19.019,77.5208,0.017779
19.050,77.5148,0.017779
19.081,77.5086,0.017779
19.112,77.5024,0.017779
19.143,77.4963,0.017713
19.174,77.4900,0.017713
19.205,77.4839,0.017713
19.235,77.4777,0.017713
19.265,77.4717,0.017713
19.296,77.4654,0.017713
19.327,77.4598,0.017713
19.358,77.4547,0.017637
19.389,77.4507,0.017637
19.419,77.4472,0.017637
19.450,77.4443,0.017637
19.481,77.4423,0.017637
19.513,77.4409,0.017637
19.544,77.4402,0.017637
19.575,77.4402,0.017637
19.606,77.4402,0.017637
19.636,77.4402,0.017477
19.668,77.4402,0.017477
19.699,77.4402,0.017477
19.731,77.4402,0.017477
19.761,77.4402,0.017477
19.792,77.4402,0.017477
19.825,77.4402,0.017477
19.855,77.4402,0.017477
19.886,77.4402,0.017298
19.917,77.4402,0.017298
19.948,77.4402,0.017298
19.979,77.4402,0.017298
20.010,77.4402,0.017298
20.042,77.4402,0.017298
20.073,77.4402,0.017298
20.104,77.4402,0.017298
20.135,77.4402,0.017260
20.166,77.4402,0.017260
20.199,77.4402,0.017260
20.228,77.4402,0.017260
20.259,77.4407,0.017260
20.289,77.4420,0.017260
20.320,77.4440,0.017260
20.350,77.4466,0.017260
20.380,77.4498,0.017176
20.412,77.4540,0.017176
20.443,77.4590,0.017176
20.476,77.4648,0.017176
20.505,77.4705,0.017176
20.536,77.4769,0.017176
20.567,77.4829,0.017176
20.598,77.4893,0.017176
20.629,77.4954,0.016997
20.660,77.5016,0.016997
20.690,77.5076,0.016997
20.722,77.5140,0.016997
20.752,77.5199,0.016997
20.784,77.5266,0.016997
20.813,77.5323,0.016997
20.845,77.5386,0.016997
20.876,77.5447,0.016874
20.908,77.5512,0.016874
20.938,77.5572,0.016874
20.969,77.5634,0.016874
21.000,77.5696,0.016874
21.032,77.5759,0.016874
21.062,77.5822,0.016874
21.094,77.5883,0.016874
21.124,77.5944,0.016874
21.155,77.6006,0.016818
21.186,77.6068,0.016818
21.216,77.6129,0.016818
21.247,77.6190,0.016818
21.278,77.6253,0.016818
21.309,77.6314,0.016818
21.340,77.6376,0.016818
21.371,77.6438,0.016789
21.402,77.6500,0.016789
21.432,77.6559,0.016789
21.463,77.6622,0.016789
21.494,77.6683,0.016789
21.525,77.6746,0.016789
21.555,77.6806,0.016789
21.586,77.6868,0.016789
21.616,77.6930,0.016752
21.648,77.6992,0.016752
21.679,77.7054,0.016752
21.710,77.7115,0.016752
21.740,77.7176,0.016752
21.771,77.7239,0.016752
21.803,77.7301,0.016752
21.833,77.7363,0.016752
21.864,77.7425,0.016780
21.895,77.7487,0.016780
21.926,77.7548,0.016780
21.957,77.7611,0.016780
21.988,77.7670,0.016780
22.019,77.7735,0.016780
22.050,77.7797,0.016780
22.082,77.7860,0.016780
22.113,77.7923,0.016761
22.145,77.7984,0.016761
22.176,77.8046,0.016761
22.207,77.8111,0.016761
22.238,77.8171,0.016761
22.269,77.8233,0.016761
22.300,77.8295,0.016761
22.330,77.8357,0.016761
22.361,77.8418,0.016714
22.392,77.8479,0.016714
22.423,77.8542,0.016714
22.455,77.8605,0.016714
22.487,77.8669,0.016714
22.518,77.8733,0.016714
22.549,77.8794,0.016714
22.580,77.8857,0.016714
22.611,77.8917,0.016714
22.642,77.8980,0.016714
22.674,77.9043,0.016714
22.704,77.9103,0.016714
22.735,77.9167,0.016714
22.766,77.9227,0.016714
22.797,77.9290,0.016714
22.828,77.9351,0.016714
22.860,77.9417,0.016714
22.892,77.9479,0.016714
22.922,77.9541,0.016695
22.953,77.9601,0.016695
22.984,77.9665,0.016695
23.015,77.9727,0.016695
23.047,77.9791,0.016695
23.079,77.9854,0.016695
23.111,77.9918,0.016695
23.142,77.9980,0.016723
23.175,78.0044,0.016723
23.204,78.0104,0.016723
23.235,78.0166,0.016723
23.266,78.0226,0.016723
23.296,78.0288,0.016723
23.326,78.0349,0.016723
23.358,78.0411,0.016770
23.389,78.0475,0.016770
23.420,78.0537,0.016770
23.451,78.0597,0.016770
23.481,78.0658,0.016770
23.513,78.0721,0.016770
23.545,78.0785,0.016770
23.575,78.0847,0.016770
23.606,78.0910,0.016770
23.637,78.0969,0.016761
23.668,78.1033,0.016761
23.700,78.1095,0.016761
23.731,78.1158,0.016761
23.762,78.1221,0.016761
23.793,78.1283,0.016761
23.824,78.1344,0.016761
23.854,78.1405,0.016761
23.885,78.1465,0.016770
23.916,78.1529,0.016770
23.947,78.1588,0.016770
23.978,78.1652,0.016770
24.010,78.1715,0.016770
24.041,78.1778,0.016770
24.072,78.1840,0.016770
24.103,78.1903,0.016770
24.134,78.1963,0.016827
24.165,78.2025,0.016827
24.195,78.2086,0.016827
24.226,78.2148,0.016827
24.257,78.2210,0.016827
24.288,78.2270,0.016827
24.318,78.2332,0.016827
24.349,78.2394,0.016827
24.380,78.2456,0.016846
24.411,78.2517,0.016846
24.442,78.2579,0.016846
24.474,78.2644,0.016846
24.504,78.2703,0.016846
24.536,78.2769,0.016846
24.566,78.2827,0.016846
24.597,78.2889,0.016846
24.628,78.2950,0.016865
24.658,78.3013,0.016865
24.689,78.3074,0.016865
24.721,78.3137,0.016865
24.752,78.3199,0.016865
24.784,78.3263,0.016865
24.815,78.3326,0.016865
24.846,78.3388,0.016865
24.877,78.3450,0.016865
24.908,78.3513,0.016902
24.940,78.3575,0.016902
24.970,78.3636,0.016902
25.001,78.3698,0.016902
25.033,78.3761,0.016902
25.064,78.3823,0.016902
25.095,78.3886,0.016902
25.126,78.3948,0.016902
25.157,78.4010,0.016902
25.189,78.4072,0.016902
25.220,78.4134,0.016902
25.250,78.4196,0.016902
25.281,78.4258,0.016902
25.313,78.4320,0.016902
25.344,78.4383,0.016902
25.375,78.4445,0.016968
25.407,78.4509,0.016968
25.437,78.4569,0.016968
25.467,78.4631,0.016968
25.498,78.4693,0.016968
25.529,78.4753,0.016968
25.559,78.4815,0.016968
25.591,78.4877,0.016968
25.622,78.4942,0.017053
25.654,78.5003,0.017053
25.684,78.5066,0.017053
25.716,78.5127,0.017053
25.747,78.5191,0.017053
25.778,78.5252,0.017053
25.810,78.5316,0.017053
25.841,78.5378,0.017053
25.874,78.5443,0.017053
25.905,78.5506,0.017063
25.939,78.5576,0.017063
25.967,78.5628,0.017063
25.998,78.5691,0.017063
26.029,78.5753,0.017063
26.060,78.5816,0.017063
26.091,78.5878,0.017063
26.122,78.5939,0.017063
26.152,78.6001,0.017072
26.182,78.6061,0.017072
26.214,78.6124,0.017072
26.245,78.6185,0.017072
26.276,78.6248,0.017072
26.308,78.6311,0.017072
26.339,78.6374,0.017072
26.370,78.6435,0.017072
26.401,78.6498,0.017110
26.431,78.6558,0.017110
26.462,78.6620,0.017110
26.493,78.6682,0.017110
26.524,78.6743,0.017110
26.555,78.6807,0.017110
26.585,78.6865,0.017110
26.616,78.6929,0.017110
26.648,78.6991,0.017119
26.678,78.7051,0.017119
26.710,78.7115,0.017119
26.741,78.7178,0.017119
26.772,78.7240,0.017119
26.803,78.7302,0.017119
26.834,78.7364,0.017119
26.865,78.7426,0.017119
26.896,78.7488,0.017157
26.928,78.7551,0.017157
26.958,78.7612,0.017157
26.988,78.7673,0.017157
27.019,78.7732,0.017157
27.050,78.7796,0.017157
27.081,78.7858,0.017157
27.114,78.7922,0.017157
27.144,78.7983,0.017213
27.175,78.8047,0.017213
27.206,78.8107,0.017213
27.238,78.8171,0.017213
27.268,78.8232,0.017213
27.300,78.8297,0.017213
27.331,78.8357,0.017213
27.361,78.8419,0.017213
27.392,78.8479,0.017260
27.424,78.8545,0.017260
27.455,78.8604,0.017260
27.486,78.8668,0.017260
27.517,78.8731,0.017260
27.548,78.8793,0.017260
27.579,78.8852,0.017260
27.610,78.8917,0.017260
27.642,78.8978,0.017298
27.674,78.9042,0.017298
27.705,78.9105,0.017298
27.736,78.9169,0.017298
27.767,78.9229,0.017298
27.798,78.9293,0.017298
27.829,78.9352,0.017298
27.861,78.9418,0.017298
27.891,78.9477,0.017279
27.924,78.9544,0.017279
27.954,78.9603,0.017279
27.985,78.9666,0.017279
28.016,78.9727,0.017279
28.047,78.9791,0.017279
28.078,78.9852,0.017279
28.110,78.9916,0.017279
28.140,78.9976,0.017223
28.171,79.0037,0.017223
28.202,79.0100,0.017223
28.233,79.0162,0.017223
28.264,79.0225,0.017223
28.295,79.0286,0.017223
28.326,79.0349,0.017223
28.357,79.0409,0.017223
28.388,79.0472,0.017223
28.418,79.0532,0.017176
28.450,79.0596,0.017176
28.480,79.0656,0.017176
28.511,79.0719,0.017176
28.543,79.0781,0.017176
28.575,79.0845,0.017176
28.606,79.0906,0.017176
28.637,79.0969,0.017166
28.667,79.1030,0.017166
28.700,79.1095,0.017166
28.730,79.1155,0.017166
28.762,79.1219,0.017166
28.794,79.1283,0.017166
28.824,79.1343,0.017166
28.855,79.1405,0.017166
28.886,79.1467,0.017166
28.917,79.1530,0.017091
28.948,79.1592,0.017091
28.979,79.1654,0.017091
29.010,79.1715,0.017091
29.040,79.1776,0.017091
29.071,79.1838,0.017091
29.102,79.1900,0.017091
29.133,79.1960,0.017053
29.163,79.2021,0.017053
29.194,79.2084,0.017053
29.224,79.2144,0.017053
29.256,79.2207,0.017053
29.287,79.2270,0.017053
29.319,79.2334,0.017053
29.350,79.2396,0.017053
29.382,79.2459,0.016997
29.413,79.2521,0.016997
29.444,79.2584,0.016997
29.475,79.2645,0.016997
29.506,79.2708,0.016997
29.537,79.2769,0.016997
29.568,79.2831,0.016997
29.598,79.2892,0.016997
29.630,79.2955,0.016997
29.660,79.3016,0.016865
29.692,79.3080,0.016865
29.723,79.3140,0.016865
29.754,79.3204,0.016865
29.785,79.3266,0.016865
29.817,79.3330,0.016865
29.847,79.3389,0.016865
29.878,79.3450,0.016818
29.909,79.3512,0.016818
29.940,79.3575,0.016818
29.971,79.3638,0.016818
30.002,79.3699,0.016818
30.032,79.3761,0.016818
30.063,79.3822,0.016818
30.094,79.3884,0.016818
30.125,79.3945,0.016818
30.157,79.4009,0.016770
30.188,79.4071,0.016770
30.219,79.4134,0.016770
30.250,79.4195,0.016770
30.281,79.4260,0.016770
30.313,79.4322,0.016770
30.344,79.4385,0.016770
30.376,79.4447,0.016620
30.407,79.4510,0.016620
30.438,79.4571,0.016620
30.469,79.4632,0.016620
30.500,79.4695,0.016620
30.531,79.4756,0.016620
30.561,79.4818,0.016620
30.592,79.4880,0.016620
30.624,79.4943,0.016620
30.654,79.5004,0.016516
30.685,79.5066,0.016516
30.716,79.5128,0.016516
30.747,79.5189,0.016516
30.778,79.5249,0.016516
30.809,79.5313,0.016516
30.841,79.5377,0.016516
30.872,79.5439,0.016422
30.903,79.5502,0.016422
30.935,79.5566,0.016422
30.966,79.5629,0.016422
30.997,79.5690,0.016422
31.029,79.5754,0.016422
31.060,79.5815,0.016422
31.092,79.5879,0.016422
31.122,79.5940,0.016422
31.154,79.6004,0.016205
31.184,79.6064,0.016205
31.214,79.6124,0.016205
31.246,79.6187,0.016205
31.277,79.6248,0.016205
31.308,79.6311,0.016205
31.338,79.6371,0.016205
31.369,79.6434,0.016205
31.400,79.6496,0.016017
31.432,79.6560,0.016017
31.462,79.6619,0.016017
31.493,79.6683,0.016017
31.525,79.6745,0.016017
31.555,79.6806,0.016017
31.586,79.6868,0.016017
31.617,79.6929,0.015828
31.649,79.6992,0.015828
31.680,79.7054,0.015828
31.711,79.7116,0.015828
31.741,79.7178,0.015828
31.772,79.7240,0.015828
31.803,79.7301,0.015828
31.834,79.7364,0.015828
31.864,79.7424,0.015602
31.896,79.7487,0.015602
31.926,79.7548,0.015602
31.958,79.7611,0.015602
31.989,79.7673,0.015602
32.020,79.7735,0.015602
32.050,79.7796,0.015602
32.082,79.7859,0.015602
32.113,79.7920,0.015338
32.144,79.7983,0.015338
32.175,79.8045,0.015338
32.206,79.8108,0.015338
32.237,79.8169,0.015338
32.268,79.8231,0.015338
32.298,79.8292,0.015338
32.329,79.8354,0.015338
32.360,79.8416,0.014971
32.392,79.8479,0.014971
32.423,79.8540,0.014971
32.455,79.8606,0.014971
32.484,79.8664,0.014971
32.516,79.8726,0.014971
32.547,79.8789,0.014971
32.577,79.8849,0.014971
32.607,79.8909,0.014500
32.639,79.8974,0.014500
32.670,79.9035,0.014500
32.700,79.9097,0.014500
32.732,79.9159,0.014500
32.762,79.9221,0.014500
32.792,79.9279,0.014500
32.823,79.9341,0.014500
32.854,79.9405,0.014500
32.885,79.9465,0.013953
32.917,79.9529,0.013953
32.947,79.9590,0.013953
32.979,79.9655,0.013953
33.009,79.9713,0.013953
33.040,79.9776,0.013953
33.071,79.9836,0.013953
33.102,79.9899,0.013953
33.133,79.9961,0.013228
33.164,80.0024,0.013228
33.195,80.0086,0.013228
33.227,80.0150,0.013228
33.257,80.0209,0.013228
33.289,80.0272,0.013228
33.320,80.0333,0.013228
33.351,80.0396,0.013228
33.381,80.0460,0.012201
33.412,80.0520,0.012201
33.443,80.0581,0.012201
33.474,80.0643,0.012201
33.505,80.0705,0.012201
33.536,80.0767,0.012201
33.567,80.0829,0.012201
33.599,80.0893,0.012201
33.630,80.0955,0.010873
33.660,80.1015,0.010873
33.691,80.1076,0.010873
33.720,80.1136,0.010873
33.752,80.1198,0.010873
33.783,80.1261,0.010873
33.814,80.1323,0.010873
33.845,80.1386,0.010873
33.876,80.1446,0.009167
33.907,80.1509,0.009167
33.938,80.1571,0.009167
33.969,80.1633,0.009167
34.000,80.1696,0.009167
34.032,80.1758,0.009167
34.063,80.1821,0.009167
34.094,80.1883,0.009167
34.125,80.1944,0.006972
34.157,80.2010,0.006972
34.187,80.2069,0.006972
34.219,80.2133,0.006972
34.249,80.2194,0.006972
34.280,80.2256,0.006972
34.311,80.2316,0.006972
34.341,80.2377,0.006972
34.373,80.2439,0.004381
34.404,80.2502,0.004381
34.434,80.2564,0.004381
34.466,80.2628,0.004381
34.496,80.2687,0.004381
34.528,80.2750,0.004381
34.560,80.2814,0.004381
34.591,80.2877,0.004381
34.623,80.2941,0.001649
34.654,80.3005,0.001649
34.685,80.3065,0.001649
34.717,80.3129,0.001649
34.747,80.3188,0.001649
34.778,80.3250,0.001649
34.808,80.3311,0.001649
34.840,80.3374,0.001649
34.870,80.3437,-0.000970
34.901,80.3498,-0.000970
34.932,80.3559,-0.000970
34.963,80.3621,-0.000970
34.995,80.3686,-0.000970
35.026,80.3748,-0.000970
35.056,80.3808,-0.000970
35.087,80.3869,-0.000970
35.119,80.3932,-0.000970
35.150,80.3994,-0.003175
35.182,80.4059,-0.003175
35.212,80.4120,-0.003175
35.243,80.4180,-0.003175
35.276,80.4235,-0.003175
35.305,80.4280,-0.003175
35.337,80.4318,-0.003175
35.368,80.4350,-0.003175
35.399,80.4374,-0.004758
35.431,80.4391,-0.004758
35.461,80.4400,-0.004758
35.493,80.4402,-0.004758
35.525,80.4402,-0.004758
35.554,80.4402,-0.004758
35.585,80.4402,-0.004758
35.615,80.4402,-0.004946
35.646,80.4402,-0.004946
35.678,80.4402,-0.004946
35.709,80.4402,-0.004946
35.740,80.4402,-0.004946
35.772,80.4402,-0.004946
35.803,80.4402,-0.004946
35.834,80.4402,-0.004946
35.865,80.4402,-0.004108
35.896,80.4402,-0.004108
35.927,80.4402,-0.004108
35.959,80.4402,-0.004108
35.990,80.4402,-0.004108
36.022,80.4402,-0.004108
36.053,80.4402,-0.004108
36.085,80.4402,-0.004108
36.115,80.4402,-0.004108
36.146,80.4402,-0.003307
36.178,80.4402,-0.003307
36.209,80.4402,-0.003307
36.240,80.4402,-0.003307
36.272,80.4402,-0.003307
36.303,80.4402,-0.003307
36.335,80.4402,-0.003307
36.367,80.4402,-0.003307
36.397,80.4402,-0.002855
36.428,80.4402,-0.002855
36.458,80.4402,-0.002855
36.490,80.4402,-0.002855
36.521,80.4402,-0.002855
36.552,80.4402,-0.002855
36.584,80.4402,-0.002855
36.614,80.4402,-0.002610
36.645,80.4402,-0.002610
36.677,80.4402,-0.002610
36.708,80.4402,-0.002610
36.739,80.4402,-0.002610
36.770,80.4402,-0.002610
36.801,80.4402,-0.002610
36.832,80.4402,-0.002610
36.862,80.4402,-0.002280
36.894,80.4402,-0.002280
36.924,80.4402,-0.002280
36.955,80.4402,-0.002280
36.987,80.4402,-0.002280
37.018,80.4402,-0.002280
37.049,80.4402,-0.002280
37.080,80.4402,-0.002280
37.110,80.4402,-0.002035
37.142,80.4402,-0.002035
37.173,80.4402,-0.002035
37.205,80.4402,-0.002035
37.236,80.4402,-0.002035
37.266,80.4402,-0.002035
37.298,80.4402,-0.002035
37.329,80.4402,-0.002035
37.360,80.4402,-0.002035
37.391,80.4402,-0.001809
37.422,80.4402,-0.001809
37.454,80.4402,-0.001809
37.484,80.4402,-0.001809
37.515,80.4402,-0.001809
37.546,80.4402,-0.001809
37.577,80.4402,-0.001809
37.608,80.4402,-0.001583
37.640,80.4402,-0.001583
37.674,80.4402,-0.001583
37.703,80.4402,-0.001583
37.734,80.4402,-0.001583
37.764,80.4402,-0.001583
37.795,80.4402,-0.001583
37.827,80.4402,-0.001583
37.858,80.4402,-0.001583
37.889,80.4402,-0.001583
37.922,80.4402,-0.001460
37.952,80.4402,-0.001460
37.982,80.4402,-0.001460
38.013,80.4402,-0.001460
38.044,80.4402,-0.001460
38.075,80.4402,-0.001460
38.106,80.4402,-0.001460
38.137,80.4402,-0.001244
38.169,80.4402,-0.001244
38.199,80.4402,-0.001244
38.231,80.4402,-0.001244
38.263,80.4402,-0.001244
38.294,80.4402,-0.001244
38.325,80.4402,-0.001244
38.357,80.4402,-0.001244
38.387,80.4402,-0.001093
38.418,80.4402,-0.001093
38.449,80.4402,-0.001093
38.480,80.4402,-0.001093
38.511,80.4402,-0.001093
38.542,80.4402,-0.001093
38.573,80.4402,-0.001093
38.604,80.4402,-0.001093
38.635,80.4402,-0.000999
38.665,80.4402,-0.000999
38.696,80.4402,-0.000999
38.727,80.4402,-0.000999
38.758,80.4402,-0.000999
38.789,80.4402,-0.000999
38.820,80.4402,-0.000999
38.852,80.4402,-0.000999
38.883,80.4402,-0.000876
38.915,80.4402,-0.000876
38.946,80.4402,-0.000876
38.977,80.4402,-0.000876
39.008,80.4402,-0.000876
39.040,80.4402,-0.000876
39.070,80.4402,-0.000876
39.101,80.4402,-0.000876
39.132,80.4402,-0.000735
39.162,80.4402,-0.000735
39.193,80.4402,-0.000735
39.224,80.4402,-0.000735
39.256,80.4402,-0.000735
39.286,80.4402,-0.000735
39.318,80.4402,-0.000735
39.349,80.4402,-0.000735
39.380,80.4402,-0.000641
39.411,80.4402,-0.000641
39.441,80.4402,-0.000641
39.472,80.4402,-0.000641
39.504,80.4402,-0.000641
39.535,80.4402,-0.000641
39.566,80.4402,-0.000641
39.598,80.4402,-0.000641
39.629,80.4402,-0.000612
39.660,80.4402,-0.000612
39.691,80.4402,-0.000612
39.722,80.4402,-0.000612
39.753,80.4402,-0.000612
39.784,80.4402,-0.000612
39.815,80.4402,-0.000612
39.846,80.4402,-0.000612
39.877,80.4402,-0.000584
39.910,80.4402,-0.000584
39.940,80.4402,-0.000584
39.971,80.4402,-0.000584
40.002,80.4402,-0.000584
40.028,80.4402,-0.000584
40.063,80.4399,-0.000584
40.095,80.4387,-0.000584
40.125,80.4370,-0.000509
40.158,80.4343,-0.000509
40.187,80.4311,-0.000509
40.218,80.4272,-0.000509
40.249,80.4225,-0.000509
40.279,80.4172,-0.000509
40.311,80.4110,-0.000509
40.342,80.4046,-0.000509
40.373,80.3986,-0.000509
40.406,80.3919,0.000999
40.436,80.3859,0.000999
40.467,80.3795,0.000999
40.499,80.3733,0.000999
40.530,80.3669,0.000999
40.562,80.3607,0.000999
40.591,80.3549,0.000999
40.622,80.3486,0.000999
40.653,80.3425,0.006049
40.685,80.3362,0.006049
40.715,80.3301,0.006049
40.746,80.3239,0.006049
40.777,80.3176,0.006049
40.808,80.3114,0.006049
40.839,80.3053,0.006049
40.870,80.2991,0.013680
40.902,80.2925,0.013680
40.932,80.2867,0.013680
40.963,80.2804,0.013680
40.995,80.2742,0.013680
41.028,80.2676,0.013680
41.057,80.2616,0.013680
41.088,80.2553,0.013680
41.120,80.2491,0.022621
41.152,80.2427,0.022621
41.182,80.2368,0.022621
41.212,80.2305,0.022621
41.244,80.2243,0.022621
41.277,80.2177,0.022621
41.307,80.2117,0.022621
41.339,80.2052,0.022621
41.368,80.1995,0.033805
41.399,80.1933,0.033805
41.430,80.1870,0.033805
41.461,80.1808,0.033805
41.492,80.1746,0.033805
41.523,80.1684,0.033805
41.554,80.1623,0.033805
41.587,80.1557,0.033805
41.616,80.1500,0.033805
41.647,80.1437,0.047824
41.678,80.1376,0.047824
41.708,80.1314,0.047824
41.739,80.1252,0.047824
41.770,80.1190,0.047824
41.802,80.1128,0.047824
41.833,80.1066,0.047824
41.864,80.1003,0.065113
41.895,80.0941,0.065113
41.926,80.0880,0.065113
41.958,80.0816,0.065113
41.989,80.0754,0.065113
42.019,80.0692,0.065113
42.050,80.0631,0.065113
42.081,80.0569,0.065113
42.113,80.0504,0.085821
42.144,80.0445,0.085821
42.175,80.0382,0.085821
42.206,80.0318,0.085821
42.237,80.0258,0.085821
42.267,80.0197,0.085821
42.299,80.0132,0.085821
42.329,80.0073,0.085821
42.361,80.0011,0.085821
42.392,79.9947,0.085821
42.423,79.9885,0.110044
42.454,79.9823,0.110044
42.486,79.9760,0.110044
42.516,79.9698,0.110044
42.548,79.9635,0.110044
42.578,79.9575,0.110044
42.608,79.9515,0.110044
42.640,79.9451,0.138102
42.671,79.9388,0.138102
42.703,79.9325,0.138102
42.735,79.9263,0.138102
42.765,79.9201,0.138102
42.796,79.9138,0.138102
42.827,79.9077,0.138102
42.858,79.9014,0.138102
42.889,79.8953,0.170069
42.920,79.8890,0.170069
42.952,79.8829,0.170069
42.983,79.8763,0.170069
43.015,79.8701,0.170069
43.046,79.8639,0.170069
43.077,79.8578,0.170069
43.107,79.8516,0.170069
43.138,79.8455,0.205966
43.168,79.8395,0.205966
43.199,79.8331,0.205966
43.231,79.8267,0.205966
43.262,79.8207,0.205966
43.293,79.8144,0.205966
43.324,79.8083,0.205966
43.355,79.8021,0.205966
43.386,79.7959,0.245772
43.417,79.7897,0.245772
43.448,79.7835,0.245772
43.479,79.7773,0.245772
43.510,79.7710,0.245772
43.542,79.7648,0.245772
43.573,79.7585,0.245772
43.604,79.7522,0.289620
43.636,79.7458,0.289620
43.667,79.7398,0.289620
43.698,79.7336,0.289620
43.728,79.7274,0.289620
43.760,79.7211,0.289620
43.792,79.7148,0.289620
43.822,79.7085,0.289620
43.854,79.7023,0.337312
43.885,79.6962,0.337312
43.916,79.6899,0.337312
43.947,79.6836,0.337312
43.979,79.6772,0.337312
44.010,79.6712,0.337312
44.041,79.6650,0.337312
44.072,79.6588,0.337312
44.102,79.6527,0.337312
44.133,79.6465,0.388292
44.164,79.6403,0.388292
44.196,79.6341,0.388292
44.226,79.6280,0.388292
44.258,79.6217,0.388292
44.289,79.6154,0.388292
44.319,79.6092,0.388292
44.350,79.6032,0.388292
44.381,79.5970,0.442099
44.412,79.5908,0.442099
44.443,79.5845,0.442099
44.474,79.5783,0.442099
44.506,79.5719,0.442099
44.535,79.5660,0.442099
44.566,79.5599,0.442099
44.597,79.5537,0.442099
44.630,79.5471,0.498742
44.660,79.5411,0.498742
44.691,79.5350,0.498742
44.721,79.5289,0.498742
44.752,79.5227,0.498742
44.784,79.5161,0.498742
44.816,79.5099,0.498742
44.847,79.5035,0.498742
44.879,79.4972,0.558296
44.910,79.4912,0.558296
44.940,79.4851,0.558296
44.971,79.4789,0.558296
45.002,79.4725,0.558296
45.033,79.4665,0.558296
45.064,79.4603,0.558296
45.095,79.4543,0.558296
45.127,79.4477,0.619998
45.157,79.4417,0.619998
45.188,79.4355,0.619998
45.220,79.4292,0.619998
45.251,79.4230,0.619998
45.282,79.4168,0.619998
45.313,79.4105,0.619998
45.345,79.4041,0.619998
45.377,79.3977,0.683066
45.407,79.3917,0.683066
45.439,79.3853,0.683066
45.470,79.3793,0.683066
45.500,79.3730,0.683066
45.531,79.3667,0.683066
45.563,79.3606,0.683066
45.594,79.3543,0.683066
45.624,79.3483,0.683066
45.655,79.3421,0.746096
45.686,79.3358,0.746096
45.718,79.3296,0.746096
45.749,79.3232,0.746096
45.780,79.3172,0.746096
45.812,79.3106,0.746096
45.843,79.3046,0.746096
45.874,79.2981,0.746096
45.905,79.2923,0.784895
45.937,79.2857,0.784895
45.967,79.2797,0.784895
46.000,79.2729,0.784895
46.030,79.2671,0.784895
46.061,79.2609,0.784895
46.091,79.2549,0.784895
46.123,79.2486,0.435570
46.154,79.2423,0.435570
46.185,79.2362,0.435570
46.216,79.2299,0.435570
46.247,79.2238,0.435570
46.278,79.2175,0.435570
46.309,79.2114,0.435570
46.341,79.2050,0.435570
46.371,79.1989,0.435570
46.402,79.1927,0.048729
46.434,79.1864,0.048729
46.466,79.1799,0.048729
46.496,79.1740,0.048729
46.527,79.1678,0.048729
46.557,79.1616,0.048729
46.588,79.1556,0.048729
46.619,79.1493,0.018730
46.649,79.1433,0.018730
46.681,79.1371,0.018730
46.712,79.1308,0.018730
46.743,79.1246,0.018730
46.774,79.1183,0.018730
46.805,79.1119,0.018730
46.837,79.1056,0.018730
46.869,79.0994,0.018645
46.899,79.0932,0.018645
46.931,79.0870,0.018645
46.962,79.0807,0.018645
46.994,79.0742,0.018645
47.024,79.0683,0.018645
47.055,79.0622,0.018645
47.085,79.0561,0.018645
47.115,79.0501,0.018645
47.146,79.0439,0.018579
47.178,79.0374,0.018579
47.208,79.0315,0.018579
47.239,79.0253,0.018579
47.271,79.0191,0.018579
47.303,79.0125,0.018579
47.333,79.0067,0.018579
47.364,79.0004,0.018589
47.394,78.9944,0.018589
47.425,78.9882,0.018589
47.457,78.9816,0.018589
47.488,78.9755,0.018589
47.519,78.9693,0.018589
47.550,78.9631,0.018589
47.581,78.9570,0.018589
47.611,78.9507,0.018598
47.643,78.9445,0.018598
47.674,78.9384,0.018598
47.705,78.9321,0.018598
47.736,78.9260,0.018598
47.767,78.9198,0.018598
47.798,78.9136,0.018598
47.830,78.9072,0.018598
47.861,78.9009,0.018513
47.893,78.8945,0.018513
47.924,78.8883,0.018513
47.953,78.8825,0.018513
47.984,78.8764,0.018513
48.015,78.8701,0.018513
48.046,78.8640,0.018513
48.078,78.8576,0.018513
48.108,78.8515,0.018513
48.139,78.8453,0.018542
48.170,78.8391,0.018542
48.201,78.8329,0.018542
48.232,78.8267,0.018542
48.264,78.8202,0.018542
48.295,78.8140,0.018542
48.327,78.8076,0.018542
48.358,78.8015,0.018542
48.389,78.7954,0.018579
48.420,78.7892,0.018579
48.451,78.7830,0.018579
48.481,78.7768,0.018579
48.512,78.7708,0.018579
48.543,78.7646,0.018579
48.573,78.7586,0.018579
48.604,78.7524,0.018579
48.635,78.7462,0.018627
48.666,78.7400,0.018627
48.696,78.7339,0.018627
48.727,78.7277,0.018627
48.758,78.7216,0.018627
48.789,78.7153,0.018627
48.820,78.7091,0.018627
48.853,78.7025,0.018627
48.883,78.6965,0.018570
48.915,78.6901,0.018570
48.945,78.6841,0.018570
48.975,78.6780,0.018570
49.007,78.6718,0.018570
49.038,78.6655,0.018570
49.070,78.6591,0.018570
49.101,78.6528,0.018570
49.132,78.6467,0.018542
49.164,78.6405,0.018542
49.194,78.6345,0.018542
49.225,78.6281,0.018542
49.255,78.6221,0.018542
49.286,78.6160,0.018542
49.317,78.6098,0.018542
49.348,78.6036,0.018542
49.379,78.5975,0.018627
49.410,78.5912,0.018627
49.442,78.5848,0.018627
49.473,78.5785,0.018627
49.504,78.5723,0.018627
49.536,78.5659,0.018627
49.567,78.5597,0.018627
49.598,78.5536,0.018627
49.629,78.5474,0.018645
49.660,78.5411,0.018645
49.692,78.5349,0.018645
49.722,78.5287,0.018645
49.752,78.5227,0.018645
49.784,78.5161,0.018645
49.814,78.5103,0.018645
49.846,78.5040,0.018645
49.876,78.4979,0.018636
49.908,78.4915,0.018636
49.939,78.4854,0.018636
49.970,78.4789,0.018636
50.002,78.4729,0.018636
50.033,78.4665,0.018636
50.064,78.4603,0.018636
50.096,78.4539,0.018636
50.127,78.4479,0.018608
50.157,78.4417,0.018608
50.189,78.4355,0.018608
50.220,78.4291,0.018608
50.251,78.4227,0.018608
50.282,78.4167,0.018608
50.313,78.4107,0.018608
50.343,78.4044,0.018608
50.374,78.3982,0.018579
50.405,78.3921,0.018579
50.437,78.3858,0.018579
50.467,78.3798,0.018579
50.499,78.3731,0.018579
50.529,78.3672,0.018579
50.561,78.3610,0.018579
50.592,78.3548,0.018579
50.623,78.3486,0.018561
50.654,78.3424,0.018561
50.685,78.3362,0.018561
50.716,78.3300,0.018561
50.747,78.3237,0.018561
50.778,78.3176,0.018561
50.809,78.3111,0.018561
50.841,78.3050,0.018561
50.872,78.2986,0.018542
50.903,78.2926,0.018542
50.934,78.2863,0.018542
50.965,78.2802,0.018542
50.995,78.2740,0.018542
51.027,78.2678,0.018542
51.058,78.2616,0.018542
51.089,78.2554,0.018542
51.119,78.2492,0.018542
51.151,78.2430,0.018542
51.183,78.2366,0.018542
51.214,78.2303,0.018542
51.245,78.2241,0.018542
51.276,78.2180,0.018542
51.307,78.2118,0.018542
51.338,78.2056,0.018542
51.370,78.1991,0.018504
51.401,78.1929,0.018504
51.432,78.1867,0.018504
51.464,78.1803,0.018504
51.494,78.1743,0.018504
51.525,78.1683,0.018504
51.556,78.1619,0.018504
51.587,78.1558,0.018504
51.618,78.1496,0.018504
51.649,78.1434,0.018476
51.680,78.1371,0.018476
51.711,78.1309,0.018476
51.742,78.1248,0.018476
51.774,78.1185,0.018476
51.805,78.1122,0.018476
51.836,78.1059,0.018476
51.867,78.0998,0.018429
51.899,78.0935,0.018429
51.929,78.0873,0.018429
51.960,78.0812,0.018429
51.992,78.0749,0.018429
52.023,78.0685,0.018429
52.054,78.0623,0.018429
52.085,78.0560,0.018429
52.116,78.0499,0.018438
52.147,78.0437,0.018438
52.178,78.0375,0.018438
52.210,78.0312,0.018438
52.241,78.0251,0.018438
52.272,78.0188,0.018438
52.304,78.0124,0.018438
52.335,78.0062,0.018438
52.365,78.0001,0.018438
52.397,77.9939,0.018419
52.428,77.9875,0.018419
52.458,77.9816,0.018419
52.489,77.9753,0.018419
52.520,77.9693,0.018419
52.550,77.9630,0.018419
52.581,77.9568,0.018419
52.612,77.9507,0.018353
52.644,77.9445,0.018353
52.674,77.9383,0.018353
52.706,77.9321,0.018353
52.736,77.9259,0.018353
52.768,77.9196,0.018353
52.799,77.9134,0.018353
52.830,77.9072,0.018353
52.861,77.9010,0.018353
52.892,77.8948,0.018278
52.923,77.8886,0.018278
52.954,77.8824,0.018278
52.986,77.8761,0.018278
53.017,77.8699,0.018278
53.048,77.8637,0.018278
53.078,77.8574,0.018278
53.109,77.8512,0.018221
53.140,77.8452,0.018221
53.171,77.8390,0.018221
53.202,77.8329,0.018221
53.233,77.8266,0.018221
53.264,77.8205,0.018221
53.295,77.8140,0.018221
53.326,77.8080,0.018221
53.357,77.8016,0.018221
53.388,77.7956,0.018212
53.420,77.7891,0.018212
53.453,77.7824,0.018212
53.483,77.7766,0.018212
53.514,77.7704,0.018212
53.546,77.7639,0.018212
53.577,77.7579,0.018212
53.609,77.7512,0.018212
53.639,77.7453,0.018137
53.671,77.7389,0.018137
53.701,77.7329,0.018137
53.732,77.7266,0.018137
53.763,77.7207,0.018137
53.795,77.7142,0.018137
53.826,77.7081,0.018137
53.857,77.7018,0.018052
53.887,77.6958,0.018052
53.918,77.6896,0.018052
53.949,77.6832,0.018052
53.980,77.6771,0.018052
54.012,77.6709,0.018052
54.043,77.6646,0.018052
54.074,77.6585,0.018052
54.105,77.6522,0.018052
54.136,77.6460,0.017976
54.166,77.6398,0.017976
54.198,77.6337,0.017976
54.228,77.6275,0.017976
54.259,77.6214,0.017976
54.290,77.6152,0.017976
54.322,77.6088,0.017976
54.353,77.6027,0.017901
54.384,77.5963,0.017901
54.415,77.5901,0.017901
54.447,77.5839,0.017901
54.478,77.5777,0.017901
54.509,77.5713,0.017901
54.540,77.5652,0.017901
54.571,77.5589,0.017901
54.604,77.5525,0.017901
54.633,77.5464,0.017826
54.663,77.5404,0.017826
54.695,77.5341,0.017826
54.725,77.5280,0.017826
54.757,77.5218,0.017826
54.787,77.5156,0.017826
54.818,77.5094,0.017826
54.849,77.5034,0.017826
54.880,77.4970,0.017750
54.912,77.4908,0.017750
54.943,77.4848,0.017750
54.974,77.4784,0.017750
55.005,77.4722,0.017750
55.036,77.4660,0.017750
55.067,77.4598,0.017750
55.098,77.4536,0.017750
55.128,77.4476,0.017703
55.160,77.4412,0.017703
55.191,77.4351,0.017703
55.222,77.4289,0.017703
55.252,77.4227,0.017703
55.283,77.4167,0.017703
55.313,77.4110,0.017703
55.343,77.4060,0.017703
55.374,77.4015,0.017637
55.406,77.3978,0.017637
55.437,77.3948,0.017637
55.469,77.3926,0.017637
55.499,77.3911,0.017637
55.531,77.3904,0.017637
55.562,77.3903,0.017637
55.594,77.3903,0.017637
55.625,77.3903,0.017411
55.656,77.3903,0.017411
55.687,77.3903,0.017411
55.717,77.3903,0.017411
55.747,77.3903,0.017411
55.778,77.3903,0.017411
55.809,77.3903,0.017411
55.839,77.3903,0.017411
55.870,77.3903,0.017232
55.902,77.3903,0.017232
55.934,77.3903,0.017232
55.965,77.3903,0.017232
55.997,77.3903,0.017232
56.028,77.3903,0.017232
56.059,77.3903,0.017232
56.090,77.3903,0.017232
56.122,77.3903,0.017232
56.153,77.3903,0.017166
56.184,77.3905,0.017166
56.216,77.3916,0.017166
56.247,77.3934,0.017166
56.278,77.3958,0.017166
56.308,77.3991,0.017166
56.339,77.4028,0.017166
56.370,77.4075,0.017166
56.401,77.4128,0.017072
56.432,77.4189,0.017072
56.463,77.4252,0.017072
56.495,77.4317,0.017072
56.526,77.4378,0.017072
56.558,77.4442,0.017072
56.590,77.4505,0.017072
56.620,77.4566,0.016931
56.652,77.4629,0.016931
56.684,77.4694,0.016931
56.714,77.4756,0.016931
56.746,77.4818,0.016931
56.776,77.4877,0.016931
56.807,77.4939,0.016931
56.838,77.5001,0.016931
56.869,77.5065,0.016846
56.899,77.5123,0.016846
56.930,77.5186,0.016846
56.963,77.5251,0.016846
56.993,77.5313,0.016846
57.024,77.5372,0.016846
57.054,77.5435,0.016846
57.085,77.5496,0.016846
57.117,77.5559,0.016846
57.147,77.5620,0.016855
57.179,77.5685,0.016855
57.210,77.5744,0.016855
57.241,77.5806,0.016855
57.272,77.5868,0.016855
57.303,77.5932,0.016855
57.335,77.5996,0.016855
57.366,77.6057,0.016789
57.397,77.6120,0.016789
57.428,77.6181,0.016789
57.459,77.6243,0.016789
57.490,77.6306,0.016789
57.522,77.6368,0.016789
57.552,77.6430,0.016789
57.585,77.6495,0.016789
57.616,77.6557,0.016704
57.647,77.6619,0.016704
57.677,77.6679,0.016704
57.709,77.6743,0.016704
57.740,77.6805,0.016704
57.772,77.6869,0.016704
57.804,77.6932,0.016704
57.835,77.6996,0.016704
57.866,77.7058,0.016676
57.897,77.7121,0.016676
57.928,77.7187,0.016676
57.961,77.7247,0.016676
57.991,77.7307,0.016676
58.021,77.7367,0.016676
58.052,77.7429,0.016676
58.084,77.7492,0.016676
58.115,77.7555,0.016704
58.146,77.7616,0.016704
58.176,77.7678,0.016704
58.207,77.7740,0.016704
58.238,77.7802,0.016704
58.270,77.7866,0.016704
58.301,77.7928,0.016704
58.333,77.7992,0.016704
58.364,77.8054,0.016667
58.395,77.8116,0.016667
58.426,77.8178,0.016667
58.458,77.8241,0.016667
58.488,77.8302,0.016667
58.520,77.8365,0.016667
58.550,77.8426,0.016667
58.581,77.8488,0.016667
58.613,77.8551,0.016591
58.643,77.8613,0.016591
58.674,77.8672,0.016591
58.705,77.8736,0.016591
58.736,77.8798,0.016591
58.767,77.8860,0.016591
58.798,77.8921,0.016591
58.829,77.8984,0.016591
58.859,77.9042,0.016573
58.890,77.9105,0.016573
58.922,77.9169,0.016573
58.953,77.9231,0.016573
58.984,77.9294,0.016573
59.015,77.9356,0.016573
59.045,77.9418,0.016573
59.076,77.9479,0.016573
59.108,77.9541,0.016573
59.139,77.9603,0.016573
59.171,77.9667,0.016573
59.201,77.9728,0.016573
59.234,77.9794,0.016573
59.265,77.9854,0.016573
59.296,77.9916,0.016573
59.327,77.9980,0.016573
59.359,78.0044,0.016573
59.391,78.0107,0.016582
59.422,78.0169,0.016582
59.452,78.0230,0.016582
59.483,78.0291,0.016582
59.514,78.0353,0.016582
59.546,78.0417,0.016582
59.577,78.0478,0.016582
59.608,78.0543,0.016582
59.639,78.0604,0.016639
59.670,78.0666,0.016639
59.700,78.0725,0.016639
59.732,78.0790,0.016639
59.763,78.0850,0.016639
59.794,78.0914,0.016639
59.825,78.0974,0.016639
59.856,78.1036,0.016639
59.887,78.1098,0.016714
59.918,78.1160,0.016714
59.949,78.1224,0.016714
59.980,78.1284,0.016714
60.011,78.1348,0.016714
60.044,78.1413,0.016714
60.074,78.1474,0.016714
60.106,78.1537,0.016714
60.138,78.1599,0.016704
60.167,78.1659,0.016704
60.199,78.1725,0.016704
60.230,78.1785,0.016704
60.261,78.1847,0.016704
60.292,78.1909,0.016704
60.324,78.1971,0.016704
60.355,78.2035,0.016704
60.386,78.2098,0.016704
60.417,78.2160,0.016704
60.448,78.2222,0.016704
60.480,78.2284,0.016704
60.511,78.2347,0.016704
60.542,78.2408,0.016704
60.573,78.2470,0.016704
60.604,78.2533,0.016704
60.636,78.2598,0.016770
60.667,78.2659,0.016770
60.698,78.2722,0.016770
60.729,78.2783,0.016770
60.760,78.2845,0.016770
60.791,78.2907,0.016770
60.823,78.2971,0.016770
60.853,78.3031,0.016770
60.883,78.3091,0.016770
60.914,78.3153,0.016799
60.946,78.3217,0.016799
60.976,78.3277,0.016799
61.007,78.3339,0.016799
61.038,78.3400,0.016799
61.069,78.3463,0.016799
61.101,78.3526,0.016799
61.133,78.3590,0.016846
61.163,78.3652,0.016846
61.196,78.3718,0.016846
61.227,78.3779,0.016846
61.258,78.3842,0.016846
61.290,78.3905,0.016846
61.321,78.3967,0.016846
61.352,78.4028,0.016846
61.383,78.4092,0.016836
61.415,78.4154,0.016836
61.445,78.4214,0.016836
61.476,78.4278,0.016836
61.506,78.4338,0.016836
61.537,78.4400,0.016836
61.569,78.4462,0.016836
61.599,78.4523,0.016836
61.629,78.4585,0.016836
61.662,78.4650,0.016836
61.693,78.4711,0.016836
61.726,78.4777,0.016836
61.756,78.4838,0.016836
61.787,78.4900,0.016836
61.818,78.4962,0.016836
61.849,78.5022,0.016836
61.879,78.5082,0.016921
61.910,78.5145,0.016921
61.940,78.5206,0.016921
61.971,78.5267,0.016921
62.003,78.5331,0.016921
62.033,78.5391,0.016921
62.063,78.5452,0.016921
62.094,78.5512,0.016921
62.124,78.5574,0.016921
62.155,78.5636,0.016921
62.187,78.5700,0.016921
62.218,78.5760,0.016921
62.250,78.5825,0.016921
62.281,78.5888,0.016921
62.312,78.5950,0.016921
62.343,78.6011,0.016921
62.375,78.6074,0.016968
62.405,78.6135,0.016968
62.436,78.6198,0.016968
62.467,78.6261,0.016968
62.498,78.6322,0.016968
62.529,78.6383,0.016968
62.560,78.6445,0.016968
62.592,78.6507,0.016968
62.623,78.6570,0.016968
62.653,78.6631,0.017072
62.685,78.6694,0.017072
62.716,78.6756,0.017072
62.746,78.6817,0.017072
62.778,78.6880,0.017072
62.809,78.6944,0.017072
62.840,78.7004,0.017072
62.871,78.7066,0.017072
62.902,78.7128,0.017100
62.934,78.7193,0.017100
62.965,78.7255,0.017100
62.996,78.7316,0.017100
63.026,78.7378,0.017100
63.057,78.7440,0.017100
63.088,78.7499,0.017100
63.118,78.7561,0.017063
63.149,78.7622,0.017063
63.180,78.7685,0.017063
63.212,78.7749,0.017063
63.242,78.7808,0.017063
63.273,78.7871,0.017063
63.304,78.7933,0.017063
63.334,78.7994,0.017063
63.365,78.8055,0.017081
63.396,78.8118,0.017081
63.427,78.8179,0.017081
63.459,78.8243,0.017081
63.489,78.8302,0.017081
63.520,78.8364,0.017081
63.551,78.8426,0.017081
63.582,78.8489,0.017081
63.613,78.8552,0.017147
63.645,78.8614,0.017147
63.675,78.8675,0.017147
63.706,78.8737,0.017147
63.737,78.8798,0.017147
63.767,78.8860,0.017147
63.798,78.8922,0.017147
63.829,78.8983,0.017147
63.861,78.9046,0.017147
63.891,78.9108,0.017157
63.922,78.9169,0.017157
63.953,78.9231,0.017157
63.984,78.9293,0.017157
64.015,78.9356,0.017157
64.046,78.9417,0.017157
64.077,78.9479,0.017157
64.109,78.9542,0.017176
64.139,78.9603,0.017176
64.171,78.9667,0.017176
64.201,78.9728,0.017176
64.231,78.9787,0.017176
64.263,78.9851,0.017176
64.294,78.9914,0.017176
64.325,78.9973,0.017176
64.356,79.0038,0.017176
64.388,79.0101,0.017185
64.420,79.0164,0.017185
64.450,79.0224,0.017185
64.480,79.0286,0.017185
64.512,79.0348,0.017185
64.542,79.0410,0.017185
64.573,79.0471,0.017185
64.606,79.0537,0.017185
64.634,79.0594,0.017128
64.665,79.0654,0.017128
64.696,79.0715,0.017128
64.727,79.0778,0.017128
64.758,79.0842,0.017128
64.790,79.0904,0.017128
64.821,79.0966,0.017128
64.852,79.1029,0.017128
64.883,79.1090,0.017081
64.914,79.1153,0.017081
64.945,79.1214,0.017081
64.976,79.1277,0.017081
65.007,79.1338,0.017081
65.039,79.1402,0.017081
65.069,79.1463,0.017081
65.100,79.1526,0.017081
65.131,79.1587,0.017034
65.164,79.1653,0.017034
65.195,79.1714,0.017034
65.226,79.1777,0.017034
65.257,79.1839,0.017034
65.288,79.1902,0.017034
65.319,79.1962,0.017034
65.350,79.2025,0.017034
65.381,79.2086,0.016978
65.412,79.2148,0.016978
65.442,79.2211,0.016978
65.474,79.2273,0.016978
65.505,79.2334,0.016978
65.536,79.2398,0.016978
65.567,79.2458,0.016978
65.597,79.2520,0.016978
65.629,79.2582,0.016931
65.659,79.2644,0.016931
65.691,79.2707,0.016931
65.722,79.2769,0.016931
65.753,79.2830,0.016931
65.783,79.2892,0.016931
65.815,79.2954,0.016931
65.846,79.3016,0.016931
65.877,79.3079,0.016874
65.908,79.3141,0.016874
65.939,79.3203,0.016874
65.970,79.3266,0.016874
66.001,79.3326,0.016874
66.031,79.3387,0.016874
66.066,79.3456,0.016874
66.093,79.3512,0.016874
66.124,79.3573,0.016789
66.155,79.3633,0.016789
66.186,79.3698,0.016789
66.217,79.3759,0.016789
66.248,79.3823,0.016789
66.279,79.3883,0.016789
66.310,79.3946,0.016789
66.344,79.4012,0.016789
66.374,79.4072,0.016629
66.404,79.4133,0.016629
66.437,79.4199,0.016629
66.467,79.4257,0.016629
66.498,79.4321,0.016629
66.528,79.4381,0.016629
66.560,79.4445,0.016629
66.590,79.4504,0.016629
66.622,79.4567,0.016497
66.653,79.4632,0.016497
66.684,79.4694,0.016497
66.715,79.4756,0.016497
66.746,79.4818,0.016497
66.778,79.4882,0.016497
66.809,79.4944,0.016497
66.841,79.5008,0.016497
66.872,79.5070,0.016497
66.902,79.5130,0.016403
66.934,79.5194,0.016403
66.966,79.5257,0.016403
66.996,79.5316,0.016403
67.027,79.5380,0.016403
67.058,79.5440,0.016403
67.090,79.5505,0.016403
67.121,79.5567,0.016243
67.151,79.5626,0.016243
67.182,79.5691,0.016243
67.213,79.5753,0.016243
67.244,79.5814,0.016243
67.275,79.5876,0.016243
67.306,79.5937,0.016243
67.339,79.6004,0.016243
67.370,79.6064,0.016243
67.401,79.6128,0.016045
67.432,79.6190,0.016045
67.464,79.6253,0.016045
67.494,79.6312,0.016045
67.525,79.6374,0.016045
67.556,79.6436,0.016045
67.588,79.6501,0.016045
67.618,79.6560,0.015894
67.650,79.6624,0.015894
67.680,79.6684,0.015894
67.710,79.6744,0.015894
67.740,79.6805,0.015894
67.772,79.6867,0.015894
67.802,79.6931,0.015894
67.834,79.6992,0.015894
67.866,79.7058,0.015630
67.897,79.7120,0.015630
67.928,79.7182,0.015630
67.959,79.7242,0.015630
67.991,79.7307,0.015630
68.022,79.7368,0.015630
68.052,79.7430,0.015630
68.083,79.7491,0.015630
68.115,79.7555,0.015282
68.146,79.7617,0.015282
68.178,79.7682,0.015282
68.209,79.7742,0.015282
68.241,79.7806,0.015282
68.270,79.7864,0.015282
68.301,79.7928,0.015282
68.332,79.7990,0.015282
68.363,79.8051,0.014933
68.394,79.8112,0.014933
68.425,79.8174,0.014933
68.456,79.8235,0.014933
68.487,79.8298,0.014933
68.518,79.8361,0.014933
68.549,79.8423,0.014933
68.581,79.8486,0.014933
68.612,79.8548,0.014933
68.643,79.8609,0.014462
68.673,79.8671,0.014462
68.705,79.8735,0.014462
68.735,79.8794,0.014462
68.766,79.8859,0.014462
68.798,79.8922,0.014462
68.828,79.8981,0.014462
68.860,79.9045,0.013887
68.891,79.9108,0.013887
68.922,79.9169,0.013887
68.953,79.9231,0.013887
68.984,79.9293,0.013887
69.015,79.9353,0.013887
69.046,79.9417,0.013887
69.078,79.9480,0.013887
69.108,79.9542,0.013887
69.139,79.9603,0.013096
69.170,79.9666,0.013096
69.201,79.9727,0.013096
69.232,79.9790,0.013096
69.264,79.9853,0.013096
69.296,79.9918,0.013096
69.328,79.9980,0.013096
69.360,80.0044,0.013096
69.390,80.0105,0.012069
69.421,80.0167,0.012069
69.452,80.0228,0.012069
69.482,80.0291,0.012069
69.513,80.0351,0.012069
69.544,80.0411,0.012069
69.574,80.0472,0.012069
69.605,80.0534,0.010703
69.636,80.0597,0.010703
69.667,80.0659,0.010703
69.698,80.0720,0.010703
69.729,80.0783,0.010703
69.760,80.0844,0.010703
69.791,80.0906,0.010703
69.822,80.0967,0.010703
69.853,80.1030,0.010703
69.884,80.1093,0.008941
69.916,80.1157,0.008941
69.946,80.1217,0.008941
69.978,80.1279,0.008941
70.009,80.1343,0.008941
70.040,80.1403,0.008941
70.072,80.1468,0.008941
70.104,80.1532,0.006736
70.136,80.1596,0.006736
70.166,80.1656,0.006736
70.198,80.1720,0.006736
70.228,80.1781,0.006736
70.259,80.1844,0.006736
70.290,80.1905,0.006736
70.322,80.1968,0.006736
70.352,80.2029,0.006736
70.383,80.2091,0.006736
70.415,80.2154,0.004146
70.445,80.2215,0.004146
70.476,80.2275,0.004146
70.506,80.2336,0.004146
70.537,80.2398,0.004146
70.568,80.2460,0.004146
70.599,80.2522,0.004146
70.629,80.2583,0.001394
70.660,80.2645,0.001394
70.692,80.2708,0.001394
70.723,80.2770,0.001394
70.754,80.2833,0.001394
70.785,80.2894,0.001394
70.816,80.2957,0.001394
70.847,80.3018,0.001394
70.878,80.3083,-0.001140
70.910,80.3145,-0.001140
70.941,80.3206,-0.001140
70.972,80.3268,-0.001140
71.002,80.3328,-0.001140
71.033,80.3390,-0.001140
71.065,80.3454,-0.001140
71.096,80.3516,-0.001140
71.127,80.3579,-0.003241
71.158,80.3641,-0.003241
71.189,80.3699,-0.003241
71.221,80.3750,-0.003241
71.252,80.3795,-0.003241
71.283,80.3831,-0.003241
71.314,80.3859,-0.003241
71.346,80.3881,-0.003241
71.377,80.3895,-0.004617
71.408,80.3901,-0.004617
71.438,80.3903,-0.004617
71.470,80.3903,-0.004617
71.500,80.3903,-0.004617
71.533,80.3903,-0.004617
71.563,80.3903,-0.004617
71.594,80.3903,-0.004617
71.625,80.3903,-0.004588
71.656,80.3903,-0.004588
71.687,80.3903,-0.004588
71.718,80.3903,-0.004588
71.749,80.3903,-0.004588
71.779,80.3903,-0.004588
71.811,80.3903,-0.004588
71.842,80.3903,-0.004588
71.874,80.3903,-0.003722
71.904,80.3903,-0.003722
71.935,80.3903,-0.003722
71.967,80.3903,-0.003722
71.997,80.3903,-0.003722
72.029,80.3903,-0.003722
72.060,80.3903,-0.003722
72.090,80.3903,-0.003722
72.120,80.3903,-0.003043
72.150,80.3903,-0.003043
72.182,80.3903,-0.003043
72.212,80.3903,-0.003043
72.244,80.3903,-0.003043
72.274,80.3903,-0.003043
72.307,80.3903,-0.003043
72.337,80.3903,-0.003043
72.369,80.3903,-0.002572
72.401,80.3903,-0.002572
72.431,80.3903,-0.002572
72.462,80.3903,-0.002572
72.493,80.3903,-0.002572
72.525,80.3903,-0.002572
72.556,80.3903,-0.002572
72.587,80.3903,-0.002572
72.618,80.3903,-0.002318
72.649,80.3903,-0.002318
72.680,80.3903,-0.002318
72.711,80.3903,-0.002318
72.741,80.3903,-0.002318
72.773,80.3903,-0.002318
72.805,80.3903,-0.002318
72.835,80.3903,-0.002318
72.865,80.3903,-0.002318
72.897,80.3903,-0.002044
72.928,80.3903,-0.002044
72.960,80.3903,-0.002044
72.992,80.3903,-0.002044
73.023,80.3903,-0.002044
73.055,80.3903,-0.002044
73.086,80.3903,-0.002044
73.118,80.3903,-0.002044
73.149,80.3903,-0.001752
73.180,80.3903,-0.001752
73.211,80.3903,-0.001752
73.242,80.3903,-0.001752
73.274,80.3903,-0.001752
73.305,80.3903,-0.001752
73.334,80.3903,-0.001752
73.366,80.3903,-0.001752
73.398,80.3903,-0.001583
73.428,80.3903,-0.001583
73.459,80.3903,-0.001583
73.491,80.3903,-0.001583
73.522,80.3903,-0.001583
73.553,80.3903,-0.001583
73.584,80.3903,-0.001583
73.614,80.3903,-0.001583
73.644,80.3903,-0.001442
73.675,80.3903,-0.001442
73.706,80.3903,-0.001442
73.737,80.3903,-0.001442
73.768,80.3903,-0.001442
73.798,80.3903,-0.001442
73.830,80.3903,-0.001442
73.861,80.3903,-0.001442
73.892,80.3903,-0.001244
73.923,80.3903,-0.001244
73.954,80.3903,-0.001244
73.985,80.3903,-0.001244
74.016,80.3903,-0.001244
74.048,80.3903,-0.001244
74.080,80.3903,-0.001244
74.110,80.3903,-0.001046
74.142,80.3903,-0.001046
74.173,80.3903,-0.001046
74.204,80.3903,-0.001046
74.235,80.3903,-0.001046
74.267,80.3903,-0.001046
74.299,80.3903,-0.001046
74.330,80.3903,-0.001046
74.361,80.3903,-0.000923
74.391,80.3903,-0.000923
74.423,80.3903,-0.000923
74.453,80.3903,-0.000923
74.484,80.3903,-0.000923
74.515,80.3903,-0.000923
74.545,80.3903,-0.000923
74.577,80.3903,-0.000923
74.608,80.3903,-0.000923
74.639,80.3903,-0.000754
74.671,80.3903,-0.000754
74.703,80.3903,-0.000754
74.733,80.3903,-0.000754
74.765,80.3903,-0.000754
74.796,80.3903,-0.000754
74.827,80.3903,-0.000754
74.858,80.3903,-0.000603
74.889,80.3903,-0.000603
74.920,80.3903,-0.000603
74.951,80.3903,-0.000603
74.983,80.3903,-0.000603
75.013,80.3903,-0.000603
75.044,80.3903,-0.000603
75.075,80.3903,-0.000603
75.106,80.3903,-0.000603
75.137,80.3903,-0.000528
75.168,80.3903,-0.000528
75.199,80.3903,-0.000528
75.230,80.3903,-0.000528
75.261,80.3903,-0.000528
75.292,80.3903,-0.000528
75.324,80.3903,-0.000528
75.355,80.3903,-0.000528
75.386,80.3903,-0.000424
75.418,80.3903,-0.000424
75.449,80.3903,-0.000424
75.480,80.3903,-0.000424
75.512,80.3903,-0.000424
75.542,80.3903,-0.000424
75.574,80.3903,-0.000424
75.604,80.3903,-0.000424
75.635,80.3903,-0.000415
75.665,80.3903,-0.000415
75.696,80.3903,-0.000415
75.727,80.3903,-0.000415
75.758,80.3903,-0.000415
75.789,80.3903,-0.000415
75.820,80.3903,-0.000415
75.852,80.3903,-0.000396
75.883,80.3903,-0.000396
75.915,80.3903,-0.000396
75.946,80.3903,-0.000396
75.977,80.3903,-0.000396
76.008,80.3903,-0.000396
76.039,80.3898,-0.000396
76.070,80.3885,-0.000396
76.101,80.3865,-0.000283
76.131,80.3839,-0.000283
76.162,80.3806,-0.000283
76.193,80.3765,-0.000283
76.224,80.3715,-0.000283
76.256,80.3657,-0.000283
76.287,80.3597,-0.000283
76.318,80.3535,-0.000283
76.348,80.3475,-0.000283
76.381,80.3410,0.001630
76.411,80.3348,0.001630
76.443,80.3284,0.001630
76.475,80.3222,0.001630
76.506,80.3157,0.001630
76.537,80.3095,0.001630
76.568,80.3034,0.001630
76.600,80.2971,0.007236
76.631,80.2909,0.007236
76.662,80.2846,0.007236
76.693,80.2783,0.007236
76.724,80.2723,0.007236
76.755,80.2661,0.007236
76.786,80.2599,0.007236
76.819,80.2532,0.007236
76.848,80.2475,0.007236
76.880,80.2412,0.015027
76.910,80.2350,0.015027
76.941,80.2289,0.015027
76.972,80.2227,0.015027
77.003,80.2165,0.015027
77.034,80.2102,0.015027
77.066,80.2038,0.015027
77.097,80.1975,0.015027
77.128,80.1914,0.024110
77.159,80.1852,0.024110
77.190,80.1790,0.024110
77.221,80.1728,0.024110
77.252,80.1665,0.024110
77.283,80.1606,0.024110
77.314,80.1541,0.024110
77.346,80.1477,0.024110
77.376,80.1417,0.024110
77.407,80.1356,0.035501
77.438,80.1293,0.035501
77.470,80.1231,0.035501
77.501,80.1168,0.035501
77.532,80.1107,0.035501
77.563,80.1043,0.035501
77.594,80.0983,0.035501
77.625,80.0922,0.049708
77.656,80.0858,0.049708
77.687,80.0797,0.049708
77.718,80.0735,0.049708
77.750,80.0672,0.049708
77.781,80.0608,0.049708
77.812,80.0545,0.049708
77.845,80.0482,0.049708
77.876,80.0420,0.067148
77.907,80.0357,0.067148
77.938,80.0296,0.067148
77.968,80.0233,0.067148
77.999,80.0172,0.067148
78.030,80.0110,0.067148
78.061,80.0050,0.067148
78.092,79.9987,0.067148
78.123,79.9924,0.088148
78.155,79.9861,0.088148
78.186,79.9800,0.088148
78.216,79.9737,0.088148
78.247,79.9677,0.088148
78.279,79.9613,0.088148
78.310,79.9551,0.088148
78.341,79.9487,0.088148
78.373,79.9425,0.112532
78.405,79.9360,0.112532
78.435,79.9300,0.112532
78.465,79.9241,0.112532
78.496,79.9179,0.112532
78.527,79.9116,0.112532
78.557,79.9054,0.112532
78.588,79.8994,0.112532
78.619,79.8930,0.140533
78.650,79.8872,0.140533
78.681,79.8809,0.140533
78.712,79.8747,0.140533
78.743,79.8685,0.140533
78.774,79.8623,0.140533
78.806,79.8560,0.140533
78.837,79.8496,0.140533
78.868,79.8433,0.172528
78.899,79.8371,0.172528
78.931,79.8309,0.172528
78.962,79.8247,0.172528
78.994,79.8183,0.172528
79.024,79.8123,0.172528
79.054,79.8062,0.172528
79.086,79.7999,0.172528
79.117,79.7937,0.208557
79.148,79.7875,0.208557
79.179,79.7812,0.208557
79.209,79.7752,0.208557
79.241,79.7689,0.208557
79.272,79.7628,0.208557
79.304,79.7561,0.208557
79.335,79.7502,0.208557
79.366,79.7438,0.208557
79.397,79.7376,0.248485
79.429,79.7312,0.248485
79.459,79.7252,0.248485
79.490,79.7189,0.248485
79.522,79.7127,0.248485
79.553,79.7066,0.248485
79.584,79.7004,0.248485
79.615,79.6941,0.248485
79.646,79.6878,0.292173
79.678,79.6813,0.292173
79.709,79.6754,0.292173
79.740,79.6692,0.292173
79.770,79.6630,0.292173
79.801,79.6568,0.292173
79.832,79.6507,0.292173
79.863,79.6444,0.292173
79.894,79.6383,0.339781
79.926,79.6319,0.339781
79.957,79.6258,0.339781
79.989,79.6192,0.339781
80.020,79.6130,0.339781
80.052,79.6066,0.339781
80.084,79.6005,0.339781
80.116,79.5938,0.339781
80.146,79.5879,0.390488
80.178,79.5814,0.390488
80.209,79.5753,0.390488
80.240,79.5690,0.390488
80.271,79.5629,0.390488
80.301,79.5568,0.390488
80.333,79.5506,0.390488
80.364,79.5443,0.443701
80.395,79.5380,0.443701
80.427,79.5318,0.443701
80.458,79.5256,0.443701
80.489,79.5194,0.443701
80.520,79.5133,0.443701
80.551,79.5070,0.443701
80.581,79.5009,0.443701
80.612,79.4947,0.500428
80.644,79.4882,0.500428
80.675,79.4820,0.500428
80.707,79.4757,0.500428
80.737,79.4696,0.500428
80.768,79.4633,0.500428
80.799,79.4574,0.500428
80.829,79.4513,0.500428
80.861,79.4448,0.500428
80.892,79.4387,0.560745
80.924,79.4322,0.560745
80.956,79.4260,0.560745
80.986,79.4199,0.560745
81.017,79.4137,0.560745
81.047,79.4077,0.560745
81.078,79.4014,0.560745
81.109,79.3953,0.560745
81.140,79.3889,0.624209
81.172,79.3828,0.624209
81.203,79.3765,0.624209
81.234,79.3704,0.624209
81.266,79.3638,0.624209
81.297,79.3576,0.624209
81.328,79.3514,0.624209
81.358,79.3454,0.624209
81.389,79.3393,0.690876
81.420,79.3331,0.690876
81.451,79.3269,0.690876
81.482,79.3207,0.690876
81.513,79.3146,0.690876
81.544,79.3083,0.690876
81.574,79.3023,0.690876
81.605,79.2960,0.690876
81.636,79.2898,0.760568
81.668,79.2835,0.760568
81.699,79.2773,0.760568
81.730,79.2712,0.760568
81.761,79.2647,0.760568
81.793,79.2585,0.760568
81.823,79.2525,0.760568
81.854,79.2464,0.760568
81.885,79.2402,0.832869
81.915,79.2340,0.832869
81.946,79.2279,0.832869
81.978,79.2216,0.832869
82.009,79.2154,0.832869
82.040,79.2092,0.832869
82.071,79.2030,0.832869
82.102,79.1967,0.832869
82.134,79.1905,0.905086
82.164,79.1841,0.905086
82.196,79.1779,0.905086
82.227,79.1716,0.905086
82.258,79.1656,0.905086
82.289,79.1593,0.905086
82.319,79.1532,0.905086
82.351,79.1469,0.905086
82.381,79.1410,0.966119
82.413,79.1346,0.966119
82.444,79.1284,0.966119
82.474,79.1224,0.966119
82.506,79.1160,0.966119
82.536,79.1098,0.966119
82.567,79.1038,0.966119
82.598,79.0976,0.966119
82.629,79.0912,0.825134
82.661,79.0849,0.825134
82.693,79.0786,0.825134
82.724,79.0724,0.825134
82.754,79.0664,0.825134
82.784,79.0601,0.825134
82.815,79.0540,0.825134
82.847,79.0478,0.825134
82.878,79.0416,0.338829
82.909,79.0353,0.338829
82.940,79.0292,0.338829
82.971,79.0230,0.338829
83.001,79.0168,0.338829
83.032,79.0107,0.338829
83.063,79.0045,0.338829
83.094,78.9982,0.338829
83.125,78.9921,0.018919
83.155,78.9861,0.018919
83.187,78.9797,0.018919
83.217,78.9735,0.018919
83.248,78.9675,0.018919
83.279,78.9611,0.018919
83.311,78.9551,0.018919
83.342,78.9487,0.018919
83.372,78.9427,0.018740
83.403,78.9365,0.018740
83.434,78.9301,0.018740
83.466,78.9241,0.018740
83.496,78.9180,0.018740
83.527,78.9116,0.018740
83.559,78.9054,0.018740
83.589,78.8992,0.018740
83.620,78.8932,0.018617
83.651,78.8871,0.018617
83.682,78.8809,0.018617
83.712,78.8747,0.018617
83.743,78.8686,0.018617
83.774,78.8622,0.018617
83.805,78.8562,0.018617
83.836,78.8498,0.018617
83.867,78.8438,0.018608
83.898,78.8376,0.018608
83.929,78.8314,0.018608
83.960,78.8252,0.018608
83.991,78.8188,0.018608
84.022,78.8127,0.018608
84.053,78.8065,0.018608
84.084,78.8003,0.018608
84.114,78.7943,0.018589
84.145,78.7881,0.018589
84.176,78.7819,0.018589
84.206,78.7758,0.018589
84.238,78.7695,0.018589
84.269,78.7633,0.018589
84.300,78.7571,0.018589
84.330,78.7510,0.018589
84.362,78.7448,0.018579
84.393,78.7385,0.018579
84.423,78.7326,0.018579
84.455,78.7261,0.018579
84.486,78.7199,0.018579
84.517,78.7137,0.018579
84.548,78.7074,0.018579
84.579,78.7013,0.018579
84.610,78.6951,0.018579
84.642,78.6888,0.018589
84.673,78.6826,0.018589
84.704,78.6763,0.018589
84.735,78.6701,0.018589
84.766,78.6640,0.018589
84.797,78.6578,0.018589
84.827,78.6517,0.018589
84.858,78.6455,0.018579
84.889,78.6394,0.018579
84.921,78.6328,0.018579
84.951,78.6270,0.018579
84.982,78.6208,0.018579
85.013,78.6145,0.018579
85.045,78.6082,0.018579
85.076,78.6021,0.018579
85.107,78.5956,0.018579
85.139,78.5894,0.018617
85.172,78.5827,0.018617
85.201,78.5769,0.018617
85.232,78.5708,0.018617
85.263,78.5645,0.018617
85.294,78.5583,0.018617
85.325,78.5521,0.018617
85.357,78.5459,0.018617
85.388,78.5396,0.018617
85.418,78.5335,0.018542
85.449,78.5272,0.018542
85.482,78.5209,0.018542
85.512,78.5146,0.018542
85.544,78.5084,0.018542
85.575,78.5021,0.018542
85.606,78.4960,0.018542
85.637,78.4898,0.018513
85.669,78.4834,0.018513
85.701,78.4769,0.018513
85.729,78.4714,0.018513
85.763,78.4645,0.018513
85.794,78.4582,0.018513
85.825,78.4523,0.018513
85.855,78.4462,0.018513
85.886,78.4400,0.018551
85.917,78.4338,0.018551
85.948,78.4275,0.018551
85.980,78.4211,0.018551
86.010,78.4151,0.018551
86.040,78.4091,0.018551
86.071,78.4028,0.018551
86.102,78.3966,0.018551
86.132,78.3905,0.018551
86.164,78.3843,0.018561
86.196,78.3777,0.018561
86.228,78.3715,0.018561
86.259,78.3652,0.018561
86.290,78.3591,0.018561
86.321,78.3528,0.018561
86.352,78.3468,0.018561
86.385,78.3401,0.018532
86.415,78.3341,0.018532
86.445,78.3280,0.018532
86.476,78.3219,0.018532
86.507,78.3157,0.018532
86.539,78.3094,0.018532
86.569,78.3033,0.018532
86.601,78.2967,0.018532
86.632,78.2908,0.018532
86.663,78.2846,0.018532
86.694,78.2783,0.018532
86.725,78.2722,0.018532
86.756,78.2657,0.018532
86.787,78.2597,0.018532
86.819,78.2532,0.018532
86.850,78.2471,0.018532
86.880,78.2411,0.018561
86.913,78.2346,0.018561
86.942,78.2288,0.018561
86.973,78.2226,0.018561
87.004,78.2164,0.018561
87.035,78.2100,0.018561
87.066,78.2040,0.018561
87.098,78.1976,0.018561
87.129,78.1914,0.018513
87.160,78.1850,0.018513
87.192,78.1788,0.018513
87.222,78.1728,0.018513
87.252,78.1668,0.018513
87.282,78.1606,0.018513
87.313,78.1546,0.018513
87.346,78.1480,0.018513
87.375,78.1421,0.018438
87.407,78.1358,0.018438
87.437,78.1298,0.018438
87.467,78.1236,0.018438
87.498,78.1175,0.018438
87.530,78.1112,0.018438
87.561,78.1050,0.018438
87.592,78.0988,0.018438
87.622,78.0926,0.018391
87.654,78.0864,0.018391
87.685,78.0802,0.018391
87.716,78.0740,0.018391
87.747,78.0678,0.018391
87.779,78.0612,0.018391
87.810,78.0551,0.018391
87.842,78.0487,0.018391
87.872,78.0427,0.018391
87.903,78.0364,0.018363
87.934,78.0303,0.018363
87.965,78.0241,0.018363
87.996,78.0179,0.018363
88.027,78.0119,0.018363
88.058,78.0057,0.018363
88.088,77.9996,0.018363
88.120,77.9933,0.018316
88.152,77.9868,0.018316
88.183,77.9806,0.018316
88.215,77.9742,0.018316
88.244,77.9682,0.018316
88.276,77.9620,0.018316
88.307,77.9558,0.018316
88.338,77.9496,0.018316
88.369,77.9434,0.018306
88.401,77.9369,0.018306
88.432,77.9309,0.018306
88.463,77.9245,0.018306
88.494,77.9183,0.018306
88.525,77.9121,0.018306
88.556,77.9061,0.018306
88.587,77.8997,0.018306
88.617,77.8935,0.018306
88.650,77.8872,0.018306
88.680,77.8811,0.018306
88.712,77.8748,0.018306
88.743,77.8685,0.018306
88.775,77.8622,0.018306
88.805,77.8561,0.018306
88.836,77.8499,0.018306
88.867,77.8437,0.018193
88.900,77.8372,0.018193
88.929,77.8313,0.018193
88.960,77.8251,0.018193
88.992,77.8189,0.018193
89.023,77.8126,0.018193
89.054,77.8065,0.018193
89.085,77.8000,0.018193
89.117,77.7938,0.018193
89.147,77.7876,0.018137
89.178,77.7815,0.018137
89.209,77.7752,0.018137
89.240,77.7691,0.018137
89.271,77.7628,0.018137
89.302,77.7569,0.018137
89.333,77.7504,0.018137
89.364,77.7443,0.018137
89.395,77.7381,0.018099
89.426,77.7319,0.018099
89.458,77.7257,0.018099
89.488,77.7193,0.018099
89.519,77.7135,0.018099
89.550,77.7071,0.018099
89.582,77.7008,0.018099
89.614,77.6945,0.018099
89.645,77.6883,0.018005
89.675,77.6821,0.018005
89.706,77.6760,0.018005
89.737,77.6699,0.018005
89.767,77.6637,0.018005
89.798,77.6576,0.018005
89.829,77.6513,0.018005
89.860,77.6451,0.018005
89.891,77.6389,0.017901
89.921,77.6330,0.017901
89.952,77.6268,0.017901
89.983,77.6206,0.017901
90.014,77.6145,0.017901
90.045,77.6080,0.017901
90.076,77.6018,0.017901
90.107,77.5958,0.017901
90.138,77.5897,0.017901
90.169,77.5835,0.017892
90.199,77.5773,0.017892
90.231,77.5711,0.017892
90.262,77.5649,0.017892
90.293,77.5586,0.017892
90.325,77.5522,0.017892
90.356,77.5460,0.017892
90.387,77.5398,0.017892
90.419,77.5334,0.017892
90.450,77.5272,0.017892
90.482,77.5208,0.017892
90.513,77.5144,0.017892
90.545,77.5083,0.017892
90.575,77.5021,0.017892
90.606,77.4960,0.017892
90.637,77.4898,0.017892
90.667,77.4838,0.017769
90.699,77.4774,0.017769
90.730,77.4712,0.017769
90.761,77.4649,0.017769
90.793,77.4587,0.017769
90.824,77.4524,0.017769
90.855,77.4463,0.017769
90.886,77.4401,0.017769
90.916,77.4340,0.017694
90.947,77.4277,0.017694
90.979,77.4214,0.017694
91.010,77.4153,0.017694
91.041,77.4091,0.017694
91.071,77.4029,0.017694
91.103,77.3967,0.017694
91.133,77.3905,0.017609
91.166,77.3839,0.017609
91.196,77.3779,0.017609
91.227,77.3718,0.017609
91.258,77.3656,0.017609
91.290,77.3596,0.017609
91.319,77.3549,0.017609
91.351,77.3507,0.017609
91.382,77.3472,0.017609
91.413,77.3444,0.017421
91.445,77.3423,0.017421
91.476,77.3409,0.017421
91.508,77.3403,0.017421
91.539,77.3403,0.017421
91.570,77.3403,0.017421
91.601,77.3403,0.017421
91.633,77.3403,0.017223
91.665,77.3403,0.017223
91.695,77.3403,0.017223
91.725,77.3403,0.017223
91.756,77.3403,0.017223
91.787,77.3403,0.017223
91.818,77.3403,0.017223
91.849,77.3403,0.017223
91.880,77.3403,0.017138
91.911,77.3403,0.017138
91.942,77.3403,0.017138
91.974,77.3403,0.017138
92.005,77.3403,0.017138
92.036,77.3403,0.017138
92.067,77.3403,0.017138
92.099,77.3403,0.017138
92.130,77.3408,0.017138
92.160,77.3420,0.017119
92.191,77.3440,0.017119
92.223,77.3467,0.017119
92.254,77.3502,0.017119
92.284,77.3543,0.017119
92.315,77.3590,0.017119
92.347,77.3648,0.017119
92.378,77.3710,0.016978
92.409,77.3772,0.016978
92.441,77.3834,0.016978
92.472,77.3899,0.016978
92.503,77.3960,0.016978
92.535,77.4024,0.016978
92.566,77.4086,0.016978
92.596,77.4146,0.016978
92.627,77.4208,0.016865
92.658,77.4270,0.016865
92.689,77.4332,0.016865
92.719,77.4394,0.016865
92.750,77.4453,0.016865
92.781,77.4516,0.016865
92.811,77.4576,0.016865
92.842,77.4639,0.016865
92.873,77.4700,0.016752
92.906,77.4766,0.016752
92.937,77.4828,0.016752
92.967,77.4890,0.016752
92.999,77.4952,0.016752
93.030,77.5015,0.016752
93.062,77.5077,0.016752
93.092,77.5138,0.016752
93.123,77.5199,0.016648
93.154,77.5262,0.016648
93.186,77.5326,0.016648
93.217,77.5387,0.016648
93.248,77.5449,0.016648
93.279,77.5511,0.016648
93.309,77.5572,0.016648
93.340,77.5634,0.016648
93.371,77.5697,0.016629
93.402,77.5758,0.016629
93.432,77.5817,0.016629
93.463,77.5881,0.016629
93.495,77.5944,0.016629
93.527,77.6008,0.016629
93.559,77.6070,0.016629
93.589,77.6132,0.016629
93.621,77.6194,0.016639
93.651,77.6258,0.016639
93.683,77.6319,0.016639
93.714,77.6381,0.016639
93.743,77.6440,0.016639
93.775,77.6503,0.016639
93.806,77.6568,0.016639
93.837,77.6629,0.016639
93.868,77.6689,0.016610
93.899,77.6751,0.016610
93.930,77.6813,0.016610
93.960,77.6874,0.016610
93.991,77.6936,0.016610
94.023,77.6998,0.016610
94.054,77.7061,0.016610
94.085,77.7123,0.016610
94.116,77.7185,0.016591
94.147,77.7249,0.016591
94.178,77.7308,0.016591
94.209,77.7373,0.016591
94.240,77.7433,0.016591
94.270,77.7495,0.016591
94.301,77.7556,0.016591
94.332,77.7618,0.016591
94.363,77.7680,0.016563
94.393,77.7740,0.016563
94.424,77.7801,0.016563
94.455,77.7865,0.016563
94.486,77.7926,0.016563
94.517,77.7988,0.016563
94.548,77.8049,0.016563
94.579,77.8111,0.016563
94.610,77.8173,0.016544
94.641,77.8236,0.016544
94.671,77.8297,0.016544
94.702,77.8357,0.016544
94.733,77.8419,0.016544
94.765,77.8483,0.016544
94.796,77.8545,0.016544
94.827,77.8607,0.016544
94.858,77.8669,0.016573
94.889,77.8732,0.016573
94.920,77.8795,0.016573
94.951,77.8855,0.016573
94.981,77.8917,0.016573
95.013,77.8980,0.016573
95.043,77.9041,0.016573
95.075,77.9103,0.016573
95.106,77.9166,0.016573
95.137,77.9228,0.016535
95.169,77.9291,0.016535
95.199,77.9352,0.016535
95.229,77.9412,0.016535
95.259,77.9474,0.016535
95.291,77.9536,0.016535
95.322,77.9596,0.016535
95.353,77.9661,0.016535
95.385,77.9723,0.016507
95.416,77.9786,0.016507
95.447,77.9848,0.016507
95.479,77.9911,0.016507
95.509,77.9972,0.016507
95.541,78.0035,0.016507
95.572,78.0097,0.016507
95.604,78.0161,0.016507
95.633,78.0219,0.016535
95.664,78.0281,0.016535
95.695,78.0343,0.016535
95.725,78.0404,0.016535
95.757,78.0468,0.016535
95.788,78.0530,0.016535
95.819,78.0591,0.016535
95.850,78.0654,0.016535
95.882,78.0718,0.016535
95.913,78.0780,0.016535
95.944,78.0842,0.016535
95.975,78.0904,0.016535
96.006,78.0966,0.016535
96.038,78.1030,0.016535
96.069,78.1091,0.016535
96.100,78.1155,0.016525
96.131,78.1215,0.016525
96.162,78.1278,0.016525
96.193,78.1339,0.016525
96.224,78.1402,0.016525
96.255,78.1463,0.016525
96.286,78.1526,0.016525
96.317,78.1587,0.016525
96.348,78.1649,0.016525
96.379,78.1711,0.016544
96.410,78.1774,0.016544
96.441,78.1836,0.016544
96.472,78.1897,0.016544
96.503,78.1959,0.016544
96.535,78.2024,0.016544
96.565,78.2084,0.016544
96.597,78.2148,0.016544
96.628,78.2210,0.016601
96.659,78.2272,0.016601
96.689,78.2332,0.016601
96.721,78.2397,0.016601
96.752,78.2456,0.016601
96.783,78.2520,0.016601
96.814,78.2580,0.016601
96.845,78.2645,0.016601
96.877,78.2707,0.016601
96.909,78.2771,0.016620
96.940,78.2835,0.016620
96.973,78.2899,0.016620
97.004,78.2962,0.016620
97.035,78.3026,0.016620
97.067,78.3086,0.016620
97.098,78.3150,0.016620
97.129,78.3212,0.016639
97.159,78.3271,0.016639
97.189,78.3332,0.016639
97.220,78.3393,0.016639
97.250,78.3456,0.016639
97.282,78.3516,0.016639
97.313,78.3580,0.016639
97.344,78.3641,0.016639
97.375,78.3703,0.016639
97.405,78.3764,0.016695
97.437,78.3828,0.016695
97.467,78.3888,0.016695
97.498,78.3951,0.016695
97.530,78.4012,0.016695
97.561,78.4075,0.016695
97.592,78.4137,0.016695
97.623,78.4199,0.016695
97.653,78.4260,0.016742
97.685,78.4324,0.016742
97.717,78.4386,0.016742
97.747,78.4448,0.016742
97.778,78.4510,0.016742
97.809,78.4571,0.016742
97.840,78.4634,0.016742
97.871,78.4695,0.016742
97.902,78.4760,0.016752
97.934,78.4822,0.016752
97.965,78.4884,0.016752
97.996,78.4946,0.016752
98.027,78.5009,0.016752
98.059,78.5070,0.016752
98.090,78.5134,0.016752
98.121,78.5196,0.016836
98.152,78.5257,0.016836
98.182,78.5318,0.016836
98.213,78.5380,0.016836
98.244,78.5443,0.016836
98.275,78.5504,0.016836
98.307,78.5567,0.016836
98.337,78.5629,0.016836
98.369,78.5692,0.016912
98.400,78.5754,0.016912
98.431,78.5816,0.016912
98.462,78.5878,0.016912
98.493,78.5940,0.016912
98.524,78.6001,0.016912
98.558,78.6069,0.016912
98.587,78.6128,0.016912
98.618,78.6191,0.016912
98.649,78.6250,0.016912
98.680,78.6315,0.016912
98.711,78.6374,0.016912
98.743,78.6440,0.016912
98.774,78.6502,0.016912
98.805,78.6565,0.016912
98.837,78.6627,0.016912
98.867,78.6688,0.016912
98.898,78.6751,0.016921
98.927,78.6808,0.016921
98.958,78.6870,0.016921
98.988,78.6930,0.016921
99.019,78.6992,0.016921
99.050,78.7055,0.016921
99.082,78.7118,0.016921
99.112,78.7179,0.016978
99.143,78.7241,0.016978
99.175,78.7303,0.016978
99.205,78.7364,0.016978
99.236,78.7425,0.016978
99.266,78.7488,0.016978
99.298,78.7549,0.016978
99.329,78.7612,0.016978
99.360,78.7674,0.017025
99.392,78.7739,0.017025
99.423,78.7799,0.017025
99.454,78.7861,0.017025
99.485,78.7923,0.017025
99.516,78.7984,0.017025
99.547,78.8049,0.017025
99.578,78.8108,0.017025
99.609,78.8170,0.017044
99.640,78.8232,0.017044
99.670,78.8293,0.017044
99.702,78.8356,0.017044
99.732,78.8417,0.017044
99.763,78.8479,0.017044
99.794,78.8542,0.017044
99.825,78.8604,0.017044
99.856,78.8665,0.017044
99.887,78.8727,0.017119
99.918,78.8790,0.017119
99.948,78.8850,0.017119
99.980,78.8914,0.017119
100.012,78.8976,0.017119
100.043,78.9038,0.017119
100.073,78.9100,0.017119
100.104,78.9161,0.017157
100.134,78.9222,0.017157
100.165,78.9284,0.017157
100.196,78.9345,0.017157
100.227,78.9408,0.017157
100.258,78.9469,0.017157
100.289,78.9532,0.017157
100.322,78.9598,0.017157
100.351,78.9656,0.017157
100.381,78.9716,0.017119
100.412,78.9779,0.017119
100.444,78.9841,0.017119
100.476,78.9905,0.017119
100.507,78.9969,0.017119
100.538,79.0032,0.017119
100.570,79.0093,0.017119
100.601,79.0155,0.017119
100.631,79.0214,0.017110
100.661,79.0276,0.017110
100.692,79.0339,0.017110
100.724,79.0400,0.017110
100.754,79.0462,0.017110
100.785,79.0524,0.017110
100.816,79.0585,0.017110
100.847,79.0648,0.017110
100.878,79.0710,0.017100
100.909,79.0771,0.017100
100.940,79.0833,0.017100
100.972,79.0896,0.017100
101.003,79.0959,0.017100
101.034,79.1021,0.017100
101.066,79.1086,0.017100
101.097,79.1147,0.017100
101.128,79.1210,0.017072
101.159,79.1271,0.017072
101.189,79.1332,0.017072
101.221,79.1396,0.017072
101.252,79.1458,0.017072
101.284,79.1521,0.017072
101.315,79.1583,0.017072
101.346,79.1647,0.017072
101.378,79.1709,0.017072
101.408,79.1769,0.017006
101.439,79.1831,0.017006
101.470,79.1893,0.017006
101.501,79.1957,0.017006
101.532,79.2017,0.017006
101.563,79.2081,0.017006
101.594,79.2140,0.017006
101.625,79.2202,0.017006
101.655,79.2264,0.016959
101.688,79.2329,0.016959
101.718,79.2388,0.016959
101.749,79.2451,0.016959
101.779,79.2511,0.016959
101.810,79.2575,0.016959
101.842,79.2636,0.016959
101.872,79.2697,0.016959
101.903,79.2759,0.016902
101.934,79.2822,0.016902
101.965,79.2884,0.016902
101.997,79.2946,0.016902
102.028,79.3008,0.016902
102.059,79.3070,0.016902
102.089,79.3131,0.016902
102.119,79.3191,0.016902
102.149,79.3251,0.016770
102.180,79.3313,0.016770
102.213,79.3378,0.016770
102.244,79.3441,0.016770
102.275,79.3502,0.016770
102.306,79.3566,0.016770
102.337,79.3627,0.016770
102.369,79.3690,0.016770
102.399,79.3751,0.016639
102.430,79.3813,0.016639
102.461,79.3877,0.016639
102.492,79.3937,0.016639
102.523,79.3999,0.016639
102.553,79.4059,0.016639
102.584,79.4121,0.016639
102.615,79.4184,0.016639
102.646,79.4245,0.016573
102.676,79.4306,0.016573
102.707,79.4366,0.016573
102.738,79.4430,0.016573
102.770,79.4494,0.016573
102.801,79.4556,0.016573
102.833,79.4618,0.016573
102.864,79.4683,0.016460
102.895,79.4742,0.016460
102.926,79.4804,0.016460
102.957,79.4866,0.016460
102.988,79.4928,0.016460
103.019,79.4991,0.016460
103.049,79.5051,0.016460
103.080,79.5114,0.016460
103.112,79.5176,0.016281
103.141,79.5237,0.016281
103.173,79.5298,0.016281
103.204,79.5362,0.016281
103.235,79.5423,0.016281
103.267,79.5488,0.016281
103.298,79.5550,0.016281
103.330,79.5614,0.016281
103.362,79.5676,0.016054
103.393,79.5738,0.016054
103.424,79.5800,0.016054
103.455,79.5863,0.016054
103.486,79.5927,0.016054
103.517,79.5986,0.016054
103.548,79.6049,0.016054
103.580,79.6114,0.016054
103.611,79.6175,0.015828
103.643,79.6239,0.015828
103.674,79.6301,0.015828
103.706,79.6364,0.015828
103.735,79.6423,0.015828
103.766,79.6487,0.015828
103.797,79.6549,0.015828
103.829,79.6612,0.015828
103.860,79.6672,0.015828
103.890,79.6735,0.015828
103.923,79.6800,0.015583
103.953,79.6861,0.015583
103.984,79.6921,0.015583
104.016,79.6986,0.015583
104.047,79.7048,0.015583
104.079,79.7111,0.015583
104.109,79.7172,0.015583
104.141,79.7234,0.015583
104.172,79.7297,0.015254
104.202,79.7357,0.015254
104.234,79.7421,0.015254
104.265,79.7482,0.015254
104.296,79.7545,0.015254
104.327,79.7608,0.015254
104.358,79.7668,0.015254
104.390,79.7734,0.014877
104.421,79.7794,0.014877
104.452,79.7858,0.014877
104.482,79.7917,0.014877
104.513,79.7980,0.014877
104.544,79.8041,0.014877
104.575,79.8104,0.014877
104.607,79.8166,0.014877
104.638,79.8231,0.014406
104.670,79.8293,0.014406
104.701,79.8355,0.014406
104.731,79.8415,0.014406
104.762,79.8477,0.014406
104.793,79.8539,0.014406
104.824,79.8599,0.014406
104.854,79.8663,0.014406
104.886,79.8726,0.013746
104.917,79.8788,0.013746
104.948,79.8850,0.013746
104.979,79.8913,0.013746
105.011,79.8975,0.013746
105.042,79.9038,0.013746
105.073,79.9098,0.013746
105.103,79.9160,0.013746
105.134,79.9222,0.012832
105.165,79.9285,0.012832
105.197,79.9346,0.012832
105.229,79.9412,0.012832
105.261,79.9474,0.012832
105.292,79.9539,0.012832
105.322,79.9598,0.012832
105.353,79.9658,0.012832
105.383,79.9718,0.011617
105.413,79.9780,0.011617
105.445,79.9843,0.011617
105.475,79.9903,0.011617
105.506,79.9967,0.011617
105.540,80.0033,0.011617
105.569,80.0093,0.011617
105.600,80.0153,0.011617
105.632,80.0218,0.011617
105.663,80.0279,0.010081
105.694,80.0342,0.010081
105.725,80.0401,0.010081
105.756,80.0465,0.010081
105.786,80.0524,0.010081
105.817,80.0587,0.010081
105.849,80.0651,0.010081
105.879,80.0711,0.008178
105.911,80.0776,0.008178
105.942,80.0837,0.008178
105.973,80.0899,0.008178
106.004,80.0962,0.008178
106.035,80.1023,0.008178
106.065,80.1084,0.008178
106.096,80.1144,0.008178
106.126,80.1206,0.008178
106.157,80.1267,0.005794
106.187,80.1327,0.005794
106.218,80.1389,0.005794
106.249,80.1451,0.005794
106.279,80.1510,0.005794
106.310,80.1572,0.005794
106.340,80.1633,0.005794
106.371,80.1695,0.005794
106.402,80.1758,0.003081
106.434,80.1819,0.003081
106.464,80.1882,0.003081
106.495,80.1942,0.003081
106.526,80.2005,0.003081
106.557,80.2067,0.003081
106.588,80.2130,0.003081
106.619,80.2191,0.000377
106.650,80.2254,0.000377
106.681,80.2314,0.000377
106.711,80.2376,0.000377
106.742,80.2437,0.000377
106.773,80.2500,0.000377
106.804,80.2562,0.000377
106.835,80.2623,0.000377
106.866,80.2685,-0.002063
106.897,80.2747,-0.002063
106.928,80.2807,-0.002063
106.958,80.2871,-0.002063
106.990,80.2933,-0.002063
107.021,80.2995,-0.002063
107.051,80.3055,-0.002063
107.082,80.3117,-0.002063
107.114,80.3178,-0.003910
107.144,80.3232,-0.003910
107.176,80.3277,-0.003910
107.206,80.3317,-0.003910
107.237,80.3348,-0.003910
107.268,80.3373,-0.003910
107.298,80.3389,-0.003910
107.329,80.3400,-0.003910
107.360,80.3403,-0.004956
107.392,80.3403,-0.004956
107.423,80.3403,-0.004956
107.454,80.3403,-0.004956
107.485,80.3403,-0.004956
107.517,80.3403,-0.004956
107.548,80.3403,-0.004956
107.580,80.3403,-0.004956
107.611,80.3403,-0.004673
107.641,80.3403,-0.004673
107.672,80.3403,-0.004673
107.704,80.3403,-0.004673
107.733,80.3403,-0.004673
107.764,80.3403,-0.004673
107.796,80.3403,-0.004673
107.827,80.3403,-0.004673
107.858,80.3403,-0.003797
107.888,80.3403,-0.003797
107.919,80.3403,-0.003797
107.950,80.3403,-0.003797
107.981,80.3403,-0.003797
108.012,80.3403,-0.003797
108.043,80.3403,-0.003797
108.074,80.3403,-0.003797
108.105,80.3403,-0.003797
108.137,80.3403,-0.003269
108.168,80.3403,-0.003269
108.199,80.3403,-0.003269
108.231,80.3403,-0.003269
108.261,80.3403,-0.003269
108.292,80.3403,-0.003269
108.323,80.3403,-0.003269
108.356,80.3403,-0.003269
108.386,80.3403,-0.003269
108.417,80.3403,-0.002826
108.447,80.3403,-0.002826
108.478,80.3403,-0.002826
108.511,80.3403,-0.002826
108.540,80.3403,-0.002826
108.572,80.3403,-0.002826
108.602,80.3403,-0.002826
108.634,80.3403,-0.002497
108.666,80.3403,-0.002497
108.697,80.3403,-0.002497
108.729,80.3403,-0.002497
108.759,80.3403,-0.002497
108.789,80.3403,-0.002497
108.820,80.3403,-0.002497
108.851,80.3403,-0.002497
108.881,80.3403,-0.002497
108.912,80.3403,-0.002233
108.943,80.3403,-0.002233
108.975,80.3403,-0.002233
109.007,80.3403,-0.002233
109.039,80.3403,-0.002233
109.070,80.3403,-0.002233
109.101,80.3403,-0.002233
109.132,80.3403,-0.002233
109.163,80.3403,-0.001988
109.193,80.3403,-0.001988
109.225,80.3403,-0.001988
109.255,80.3403,-0.001988
109.286,80.3403,-0.001988
109.316,80.3403,-0.001988
109.348,80.3403,-0.001988
109.379,80.3403,-0.001800
109.409,80.3403,-0.001800
109.440,80.3403,-0.001800
109.471,80.3403,-0.001800
109.503,80.3403,-0.001800
109.534,80.3403,-0.001800
109.565,80.3403,-0.001800
109.596,80.3403,-0.001800
109.627,80.3403,-0.001800
109.659,80.3403,-0.001602
109.690,80.3403,-0.001602
109.720,80.3403,-0.001602
109.752,80.3403,-0.001602
109.782,80.3403,-0.001602
109.813,80.3403,-0.001602
109.844,80.3403,-0.001602
109.876,80.3403,-0.001404
109.907,80.3403,-0.001404
109.938,80.3403,-0.001404
109.969,80.3403,-0.001404
110.001,80.3403,-0.001404
110.033,80.3403,-0.001404
110.064,80.3403,-0.001404
110.096,80.3403,-0.001404
110.126,80.3403,-0.001225
110.156,80.3403,-0.001225
110.188,80.3403,-0.001225
110.219,80.3403,-0.001225
110.250,80.3403,-0.001225
110.281,80.3403,-0.001225
110.311,80.3403,-0.001225
110.342,80.3403,-0.001225
110.373,80.3403,-0.001093
110.405,80.3403,-0.001093
110.436,80.3403,-0.001093
110.467,80.3403,-0.001093
110.498,80.3403,-0.001093
110.529,80.3403,-0.001093
110.559,80.3403,-0.001093
110.590,80.3403,-0.001093
110.621,80.3403,-0.000980
110.652,80.3403,-0.000980
110.683,80.3403,-0.000980
110.714,80.3403,-0.000980
110.745,80.3403,-0.000980
110.776,80.3403,-0.000980
110.807,80.3403,-0.000980
110.838,80.3403,-0.000980
110.869,80.3403,-0.000829
110.900,80.3403,-0.000829
110.931,80.3403,-0.000829
110.962,80.3403,-0.000829
110.993,80.3403,-0.000829
111.024,80.3403,-0.000829
111.055,80.3403,-0.000829
111.086,80.3403,-0.000829
111.117,80.3403,-0.000829
111.148,80.3403,-0.000707
111.179,80.3403,-0.000707
111.210,80.3403,-0.000707
111.241,80.3403,-0.000707
111.272,80.3403,-0.000707
111.302,80.3403,-0.000707
111.333,80.3403,-0.000707
111.364,80.3403,-0.000707
111.395,80.3403,-0.000575
111.426,80.3403,-0.000575
111.457,80.3403,-0.000575
111.488,80.3403,-0.000575
111.520,80.3403,-0.000575
111.550,80.3403,-0.000575
111.581,80.3403,-0.000575
111.611,80.3403,-0.000575
111.643,80.3403,-0.000424
111.675,80.3400,-0.000424
111.705,80.3390,-0.000424
111.736,80.3374,-0.000424
111.766,80.3351,-0.000424
111.798,80.3318,-0.000424
111.830,80.3280,-0.000424
111.860,80.3233,-0.000057
111.891,80.3181,-0.000057
111.922,80.3121,-0.000057
111.954,80.3059,-0.000057
111.985,80.2993,-0.000057
112.016,80.2934,-0.000057
112.047,80.2869,-0.000057
112.078,80.2809,-0.000057
112.109,80.2748,0.003307
112.140,80.2686,0.003307
112.172,80.2620,0.003307
112.202,80.2561,0.003307
112.233,80.2500,0.003307
112.264,80.2438,0.003307
112.294,80.2377,0.003307
112.326,80.2314,0.003307
112.358,80.2249,0.003307
112.387,80.2190,0.010072
112.419,80.2128,0.010072
112.449,80.2067,0.010072
112.480,80.2005,0.010072
112.511,80.1943,0.010072
112.542,80.1881,0.010072
112.573,80.1819,0.010072
112.605,80.1756,0.010072
112.635,80.1696,0.017948
112.666,80.1633,0.017948
112.698,80.1571,0.017948
112.729,80.1508,0.017948
112.760,80.1444,0.017948
112.792,80.1381,0.017948
112.823,80.1320,0.017948
112.853,80.1258,0.017948
112.885,80.1196,0.017948
112.915,80.1136,0.027379
112.947,80.1072,0.027379
112.977,80.1010,0.027379
113.008,80.0950,0.027379
113.039,80.0888,0.027379
113.070,80.0826,0.027379
113.101,80.0764,0.027379
113.132,80.0702,0.039297
113.164,80.0637,0.039297
113.195,80.0576,0.039297
113.225,80.0514,0.039297
113.256,80.0455,0.039297
113.287,80.0391,0.039297
113.318,80.0331,0.039297
113.349,80.0267,0.039297
113.380,80.0205,0.054155
113.411,80.0143,0.054155
113.442,80.0081,0.054155
113.473,80.0019,0.054155
113.503,79.9960,0.054155
113.534,79.9899,0.054155
113.565,79.9836,0.054155
113.596,79.9774,0.054155
113.626,79.9714,0.072273
113.656,79.9652,0.072273
113.688,79.9592,0.072273
113.719,79.9527,0.072273
113.750,79.9466,0.072273
113.780,79.9405,0.072273
113.812,79.9342,0.072273
113.842,79.9281,0.072273
113.874,79.9216,0.093820
113.906,79.9154,0.093820
113.937,79.9092,0.093820
113.968,79.9030,0.093820
113.999,79.8968,0.093820
114.031,79.8903,0.093820
114.061,79.8844,0.093820
114.092,79.8783,0.093820
114.123,79.8720,0.118929
114.154,79.8658,0.118929
114.185,79.8596,0.118929
114.216,79.8535,0.118929
114.247,79.8473,0.118929
114.278,79.8410,0.118929
114.309,79.8348,0.118929
114.341,79.8283,0.118929
114.372,79.8224,0.147825
114.402,79.8160,0.147825
114.434,79.8098,0.147825
114.465,79.8035,0.147825
114.496,79.7972,0.147825
114.528,79.7911,0.147825
114.559,79.7845,0.147825
114.590,79.7786,0.147825
114.620,79.7725,0.180621
114.651,79.7663,0.180621
114.681,79.7603,0.180621
114.712,79.7543,0.180621
114.744,79.7479,0.180621
114.774,79.7416,0.180621
114.805,79.7355,0.180621
114.836,79.7293,0.180621
114.866,79.7235,0.217337
114.896,79.7173,0.217337
114.927,79.7112,0.217337
114.958,79.7049,0.217337
114.989,79.6987,0.217337
115.020,79.6925,0.217337
115.051,79.6863,0.217337
115.083,79.6801,0.217337
115.113,79.6739,0.217337
115.144,79.6678,0.257850
115.175,79.6614,0.257850
115.206,79.6554,0.257850
115.238,79.6488,0.257850
115.269,79.6428,0.257850
115.301,79.6362,0.257850
115.331,79.6304,0.257850
115.363,79.6239,0.257850
115.394,79.6178,0.302339
115.425,79.6116,0.302339
115.456,79.6053,0.302339
115.487,79.5992,0.302339
115.518,79.5929,0.302339
115.549,79.5867,0.302339
115.581,79.5805,0.302339
115.612,79.5742,0.302339
115.643,79.5679,0.302339
115.673,79.5620,0.350465
115.705,79.5556,0.350465
115.735,79.5496,0.350465
115.765,79.5435,0.350465
115.796,79.5373,0.350465
115.827,79.5311,0.350465
115.858,79.5249,0.350465
115.889,79.5189,0.401398
115.921,79.5124,0.401398
115.952,79.5063,0.401398
115.983,79.4999,0.401398
116.014,79.4937,0.401398
116.045,79.4876,0.401398
116.075,79.4815,0.401398
116.107,79.4751,0.401398
116.138,79.4691,0.455176
116.169,79.4629,0.455176
116.200,79.4567,0.455176
116.230,79.4504,0.455176
116.261,79.4443,0.455176
116.292,79.4380,0.455176
116.323,79.4321,0.455176
116.353,79.4258,0.455176
116.384,79.4198,0.511989
116.415,79.4136,0.511989
116.447,79.4072,0.511989
116.478,79.4009,0.511989
116.510,79.3947,0.511989
116.540,79.3885,0.511989
116.571,79.3826,0.511989
116.602,79.3761,0.511989
116.632,79.3702,0.571467
116.664,79.3637,0.571467
116.695,79.3574,0.571467
116.726,79.3514,0.571467
116.757,79.3451,0.571467
116.789,79.3387,0.571467
116.819,79.3328,0.571467
116.850,79.3265,0.571467
116.881,79.3203,0.632943
116.912,79.3141,0.632943
116.944,79.3079,0.632943
116.975,79.3016,0.632943
117.006,79.2954,0.632943
117.037,79.2893,0.632943
117.068,79.2831,0.632943
117.099,79.2769,0.632943
117.129,79.2708,0.695729
117.160,79.2645,0.695729
117.191,79.2585,0.695729
117.222,79.2522,0.695729
117.252,79.2461,0.695729
117.283,79.2399,0.695729
117.314,79.2339,0.695729
117.345,79.2275,0.695729
117.375,79.2215,0.754180
117.407,79.2153,0.754180
117.437,79.2092,0.754180
117.468,79.2030,0.754180
117.500,79.1967,0.754180
117.531,79.1905,0.754180
117.562,79.1841,0.754180
117.593,79.1781,0.754180
117.623,79.1718,0.618509
117.654,79.1658,0.618509
117.686,79.1594,0.618509
117.718,79.1530,0.618509
117.749,79.1468,0.618509
117.781,79.1403,0.618509
117.812,79.1343,0.618509
117.844,79.1278,0.618509
117.873,79.1219,0.237509
117.904,79.1158,0.237509
117.934,79.1097,0.237509
117.965,79.1035,0.237509
117.996,79.0973,0.237509
118.028,79.0909,0.237509
118.059,79.0848,0.237509
118.090,79.0786,0.237509
118.123,79.0721,0.018919
118.152,79.0662,0.018919
118.184,79.0596,0.018919
118.215,79.0537,0.018919
118.246,79.0473,0.018919
118.278,79.0411,0.018919
118.309,79.0348,0.018919
118.340,79.0285,0.018919
118.371,79.0224,0.018919
118.403,79.0161,0.018740
118.434,79.0096,0.018740
118.465,79.0037,0.018740
118.496,78.9975,0.018740
118.527,78.9911,0.018740
118.558,78.9849,0.018740
118.589,78.9787,0.018740
118.620,78.9725,0.018740
118.651,78.9663,0.018589
118.682,78.9600,0.018589
118.714,78.9538,0.018589
118.746,78.9475,0.018589
118.777,78.9413,0.018589
118.808,78.9350,0.018589
118.839,78.9289,0.018589
118.870,78.9226,0.018627
118.901,78.9165,0.018627
118.932,78.9102,0.018627
118.964,78.9038,0.018627
118.995,78.8976,0.018627
119.025,78.8914,0.018627
119.055,78.8855,0.018627
119.086,78.8794,0.018627
119.117,78.8731,0.018627
119.149,78.8669,0.018664
119.180,78.8607,0.018664
119.211,78.8543,0.018664
119.242,78.8480,0.018664
119.273,78.8421,0.018664
119.304,78.8359,0.018664
119.335,78.8294,0.018664
119.365,78.8236,0.018608
119.394,78.8178,0.018608
119.426,78.8114,0.018608
119.456,78.8054,0.018608
119.487,78.7992,0.018608
119.518,78.7930,0.018608
119.549,78.7869,0.018608
119.580,78.7804,0.018608
119.612,78.7742,0.018598
119.643,78.7680,0.018598
119.673,78.7620,0.018598
119.704,78.7556,0.018598
119.735,78.7495,0.018598
119.766,78.7432,0.018598
119.797,78.7373,0.018598
119.828,78.7308,0.018598
119.858,78.7250,0.018608
119.890,78.7185,0.018608
119.920,78.7127,0.018608
119.951,78.7064,0.018608
119.981,78.7002,0.018608
120.012,78.6942,0.018608
120.044,78.6877,0.018608
120.075,78.6817,0.018608
120.106,78.6753,0.018608
120.136,78.6693,0.018608
120.168,78.6629,0.018608
120.199,78.6569,0.018608
120.230,78.6506,0.018608
120.261,78.6445,0.018608
120.291,78.6384,0.018608
120.322,78.6322,0.018608
120.353,78.6259,0.018608
120.384,78.6196,0.018608
120.416,78.6135,0.018608
120.447,78.6073,0.018608
120.478,78.6011,0.018608
120.509,78.5948,0.018608
120.540,78.5887,0.018608
120.571,78.5825,0.018608
120.602,78.5760,0.018608
120.633,78.5700,0.018598
120.664,78.5639,0.018598
120.695,78.5576,0.018598
120.726,78.5512,0.018598
120.758,78.5450,0.018598
120.789,78.5388,0.018598
120.820,78.5326,0.018598
120.851,78.5264,0.018598
120.882,78.5204,0.018598
120.913,78.5142,0.018598
120.943,78.5080,0.018598
120.974,78.5018,0.018598
121.006,78.4955,0.018598
121.036,78.4893,0.018598
121.068,78.4830,0.018598
121.099,78.4768,0.018598
121.130,78.4706,0.018617
121.162,78.4643,0.018617
121.192,78.4583,0.018617
121.223,78.4519,0.018617
121.254,78.4458,0.018617
121.286,78.4394,0.018617
121.316,78.4334,0.018617
121.347,78.4272,0.018617
121.378,78.4210,0.018579
121.410,78.4146,0.018579
121.441,78.4085,0.018579
121.473,78.4022,0.018579
121.503,78.3961,0.018579
121.534,78.3898,0.018579
121.565,78.3838,0.018579
121.596,78.3772,0.018579
121.627,78.3712,0.018513
121.658,78.3650,0.018513
121.690,78.3588,0.018513
121.721,78.3523,0.018513
121.752,78.3461,0.018513
121.783,78.3401,0.018513
121.814,78.3338,0.018513
121.846,78.3274,0.018513
121.876,78.3214,0.018542
121.907,78.3151,0.018542
121.939,78.3089,0.018542
121.970,78.3027,0.018542
122.001,78.2964,0.018542
122.033,78.2900,0.018542
122.064,78.2838,0.018542
122.095,78.2776,0.018542
122.127,78.2713,0.018542
122.158,78.2651,0.018542
122.188,78.2590,0.018542
122.219,78.2527,0.018542
122.250,78.2468,0.018542
122.281,78.2406,0.018542
122.312,78.2344,0.018542
122.344,78.2279,0.018542
122.373,78.2218,0.018429
122.405,78.2158,0.018429
122.436,78.2093,0.018429
122.467,78.2032,0.018429
122.499,78.1967,0.018429
122.530,78.1907,0.018429
122.561,78.1844,0.018429
122.592,78.1780,0.018429
122.623,78.1720,0.018429
122.653,78.1660,0.018419
122.686,78.1594,0.018419
122.716,78.1534,0.018419
122.748,78.1470,0.018419
122.778,78.1411,0.018419
122.809,78.1348,0.018419
122.842,78.1282,0.018419
122.872,78.1221,0.018363
122.903,78.1160,0.018363
122.934,78.1097,0.018363
122.965,78.1036,0.018363
122.996,78.0973,0.018363
123.027,78.0914,0.018363
123.058,78.0849,0.018363
123.090,78.0785,0.018363
123.119,78.0726,0.018363
123.152,78.0661,0.018344
123.181,78.0602,0.018344
123.211,78.0544,0.018344
123.242,78.0481,0.018344
123.275,78.0417,0.018344
123.305,78.0357,0.018344
123.337,78.0292,0.018344
123.368,78.0230,0.018457
123.399,78.0168,0.018457
123.430,78.0107,0.018457
123.461,78.0045,0.018457
123.492,77.9981,0.018457
123.523,77.9920,0.018457
123.555,77.9856,0.018457
123.586,77.9795,0.018457
123.617,77.9732,0.018457
123.648,77.9671,0.018334
123.679,77.9608,0.018334
123.711,77.9544,0.018334
123.740,77.9486,0.018334
123.771,77.9424,0.018334
123.803,77.9360,0.018334
123.835,77.9298,0.018334
123.867,77.9232,0.018334
123.897,77.9171,0.018203
123.928,77.9110,0.018203
123.960,77.9045,0.018203
123.991,77.8985,0.018203
124.022,77.8921,0.018203
124.054,77.8859,0.018203
124.085,77.8798,0.018203
124.116,77.8734,0.018184
124.147,77.8674,0.018184
124.178,77.8612,0.018184
124.210,77.8547,0.018184
124.240,77.8486,0.018184
124.272,77.8424,0.018184
124.303,77.8361,0.018184
124.334,77.8298,0.018184
124.365,77.8237,0.018184
124.395,77.8176,0.018184
124.427,77.8112,0.018184
124.458,77.8050,0.018184
124.489,77.7988,0.018184
124.520,77.7926,0.018184
124.551,77.7864,0.018184
124.582,77.7802,0.018184
124.613,77.7740,0.018118
124.645,77.7677,0.018118
124.675,77.7615,0.018118
124.706,77.7555,0.018118
124.738,77.7491,0.018118
124.768,77.7431,0.018118
124.799,77.7369,0.018118
124.830,77.7306,0.018118
124.861,77.7244,0.018033
124.892,77.7182,0.018033
124.923,77.7121,0.018033
124.955,77.7056,0.018033
124.986,77.6993,0.018033
125.018,77.6930,0.018033
125.049,77.6869,0.018033
125.080,77.6806,0.018033
125.111,77.6745,0.018005
125.142,77.6681,0.018005
125.174,77.6619,0.018005
125.205,77.6555,0.018005
125.236,77.6495,0.018005
125.267,77.6434,0.018005
125.298,77.6371,0.018005
125.329,77.6307,0.018005
125.360,77.6244,0.017920
125.392,77.6182,0.017920
125.422,77.6123,0.017920
125.453,77.6059,0.017920
125.487,77.5994,0.017920
125.515,77.5935,0.017920
125.546,77.5875,0.017920
125.577,77.5811,0.017920
125.607,77.5752,0.017920
125.638,77.5688,0.017892
125.670,77.5626,0.017892
125.702,77.5562,0.017892
125.735,77.5497,0.017892
125.764,77.5437,0.017892
125.795,77.5376,0.017892
125.827,77.5314,0.017892
125.857,77.5252,0.017892
125.888,77.5190,0.017892
125.919,77.5127,0.017892
125.950,77.5067,0.017892
125.980,77.5005,0.017892
126.011,77.4946,0.017892
126.041,77.4882,0.017892
126.073,77.4822,0.017892
126.104,77.4758,0.017892
126.134,77.4698,0.017779
126.165,77.4634,0.017779
126.197,77.4573,0.017779
126.229,77.4509,0.017779
126.259,77.4449,0.017779
126.290,77.4385,0.017779
126.322,77.4323,0.017779
126.354,77.4257,0.017779
126.385,77.4196,0.017628
126.417,77.4131,0.017628
126.448,77.4071,0.017628
126.479,77.4008,0.017628
126.511,77.3946,0.017628
126.541,77.3884,0.017628
126.572,77.3822,0.017628
126.604,77.3759,0.017628
126.634,77.3697,0.017552
126.665,77.3637,0.017552
126.695,77.3575,0.017552
126.726,77.3514,0.017552
126.757,77.3452,0.017552
126.788,77.3390,0.017552
126.819,77.3328,0.017552
126.851,77.3264,0.017552
126.881,77.3203,0.017505
126.913,77.3141,0.017505
126.945,77.3083,0.017505
126.977,77.3034,0.017505
127.008,77.2995,0.017505
127.040,77.2961,0.017505
127.070,77.2936,0.017505
127.102,77.2918,0.017505
127.134,77.2907,0.017298
127.165,77.2903,0.017298
127.196,77.2903,0.017298
127.227,77.2903,0.017298
127.258,77.2903,0.017298
127.288,77.2903,0.017298
127.318,77.2903,0.017298
127.350,77.2903,0.017298
127.380,77.2903,0.017298
127.411,77.2903,0.017147
127.442,77.2903,0.017147
127.473,77.2903,0.017147
127.503,77.2903,0.017147
127.534,77.2903,0.017147
127.565,77.2903,0.017147
127.597,77.2903,0.017147
127.627,77.2903,0.017147
127.659,77.2903,0.017110
127.690,77.2903,0.017110
127.721,77.2903,0.017110
127.753,77.2903,0.017110
127.784,77.2903,0.017110
127.816,77.2903,0.017110
127.847,77.2904,0.017110
127.878,77.2912,0.017110
127.910,77.2928,0.017053
127.940,77.2949,0.017053
127.971,77.2980,0.017053
128.002,77.3017,0.017053
128.033,77.3062,0.017053
128.065,77.3114,0.017053
128.096,77.3173,0.017053
128.128,77.3237,0.017053
128.159,77.3300,0.016836
128.190,77.3361,0.016836
128.220,77.3420,0.016836
128.252,77.3483,0.016836
128.284,77.3549,0.016836
128.315,77.3612,0.016836
128.348,77.3677,0.016836
128.378,77.3738,0.016676
128.409,77.3798,0.016676
128.439,77.3859,0.016676
128.470,77.3921,0.016676
128.501,77.3983,0.016676
128.534,77.4048,0.016676
128.563,77.4107,0.016676
128.595,77.4170,0.016676
128.626,77.4232,0.016676
128.656,77.4293,0.016676
128.687,77.4355,0.016676
128.718,77.4418,0.016676
128.749,77.4478,0.016676
128.780,77.4540,0.016676
128.811,77.4603,0.016676
128.842,77.4664,0.016676
128.873,77.4727,0.016629
128.904,77.4788,0.016629
128.935,77.4850,0.016629
128.966,77.4912,0.016629
128.997,77.4974,0.016629
129.028,77.5036,0.016629
129.058,77.5097,0.016629
129.090,77.5161,0.016629
129.120,77.5221,0.016629
129.151,77.5283,0.016629
129.183,77.5346,0.016629
129.214,77.5408,0.016629
129.245,77.5470,0.016629
129.276,77.5532,0.016629
129.307,77.5594,0.016629
129.338,77.5656,0.016629
129.369,77.5718,0.016535
129.400,77.5780,0.016535
129.431,77.5843,0.016535
129.462,77.5906,0.016535
129.494,77.5968,0.016535
129.525,77.6032,0.016535
129.555,77.6092,0.016535
129.586,77.6151,0.016535
129.618,77.6217,0.016535
129.648,77.6276,0.016441
129.679,77.6340,0.016441
129.711,77.6403,0.016441
129.742,77.6465,0.016441
129.774,77.6528,0.016441
129.806,77.6593,0.016441
129.837,77.6655,0.016441
129.869,77.6720,0.016441
129.900,77.6780,0.016412
129.932,77.6843,0.016412
129.961,77.6903,0.016412
129.993,77.6966,0.016412
130.024,77.7030,0.016412
130.056,77.7092,0.016412
130.086,77.7153,0.016412
130.117,77.7215,0.016450
130.148,77.7275,0.016450
130.179,77.7338,0.016450
130.210,77.7400,0.016450
130.242,77.7464,0.016450
130.273,77.7525,0.016450
130.303,77.7587,0.016450
130.335,77.7649,0.016450
130.366,77.7711,0.016450
130.397,77.7773,0.016441
130.427,77.7835,0.016441
130.458,77.7896,0.016441
130.490,77.7961,0.016441
130.521,77.8023,0.016441
130.552,77.8085,0.016441
130.583,77.8145,0.016441
130.614,77.8207,0.016346
130.644,77.8269,0.016346
130.676,77.8333,0.016346
130.708,77.8397,0.016346
130.739,77.8458,0.016346
130.770,77.8521,0.016346
130.801,77.8582,0.016346
130.832,77.8645,0.016346
130.863,77.8706,0.016346
130.894,77.8770,0.016365
130.926,77.8831,0.016365
130.957,77.8896,0.016365
130.989,77.8958,0.016365
131.018,77.9017,0.016365
131.049,77.9078,0.016365
131.083,77.9145,0.016365
131.112,77.9203,0.016365
131.144,77.9268,0.016422
131.176,77.9331,0.016422
131.206,77.9393,0.016422
131.238,77.9456,0.016422
131.269,77.9517,0.016422
131.301,77.9583,0.016422
131.333,77.9645,0.016422
131.364,77.9709,0.016441
131.395,77.9770,0.016441
131.426,77.9833,0.016441
131.458,77.9895,0.016441
131.489,77.9959,0.016441
131.521,78.0023,0.016441
131.552,78.0084,0.016441
131.582,78.0143,0.016441
131.612,78.0204,0.016441
131.644,78.0267,0.016422
131.674,78.0328,0.016422
131.705,78.0389,0.016422
131.735,78.0450,0.016422
131.766,78.0512,0.016422
131.798,78.0575,0.016422
131.828,78.0637,0.016422
131.860,78.0700,0.016431
131.893,78.0766,0.016431
131.923,78.0826,0.016431
131.953,78.0886,0.016431
131.984,78.0948,0.016431
132.015,78.1012,0.016431
132.047,78.1075,0.016431
132.078,78.1136,0.016431
132.109,78.1198,0.016431
132.140,78.1261,0.016460
132.171,78.1322,0.016460
132.202,78.1384,0.016460
132.233,78.1447,0.016460
132.265,78.1509,0.016460
132.295,78.1571,0.016460
132.327,78.1634,0.016460
132.358,78.1695,0.016450
132.390,78.1761,0.016450
132.420,78.1820,0.016450
132.452,78.1883,0.016450
132.483,78.1947,0.016450
132.514,78.2007,0.016450
132.546,78.2073,0.016450
132.577,78.2134,0.016450
132.608,78.2196,0.016450
132.639,78.2259,0.016516
132.670,78.2320,0.016516
132.702,78.2384,0.016516
132.733,78.2447,0.016516
132.765,78.2509,0.016516
132.796,78.2573,0.016516
132.827,78.2634,0.016516
132.859,78.2698,0.016516
132.889,78.2758,0.016516
132.919,78.2820,0.016563
132.950,78.2881,0.016563
132.980,78.2941,0.016563
133.012,78.3005,0.016563
133.043,78.3067,0.016563
133.074,78.3129,0.016563
133.107,78.3196,0.016563
133.136,78.3253,0.016591
133.167,78.3313,0.016591
133.198,78.3375,0.016591
133.228,78.3436,0.016591
133.260,78.3499,0.016591
133.291,78.3561,0.016591
133.323,78.3626,0.016591
133.353,78.3685,0.016591
133.384,78.3750,0.016591
133.416,78.3812,0.016610
133.447,78.3875,0.016610
133.478,78.3936,0.016610
133.509,78.3999,0.016610
133.540,78.4060,0.016610
133.571,78.4123,0.016610
133.602,78.4184,0.016610
133.634,78.4249,0.016601
133.665,78.4309,0.016601
133.696,78.4373,0.016601
133.726,78.4432,0.016601
133.757,78.4494,0.016601
133.789,78.4559,0.016601
133.821,78.4621,0.016601
133.852,78.4684,0.016601
133.883,78.4745,0.016714
133.914,78.4807,0.016714
133.945,78.4871,0.016714
133.976,78.4931,0.016714
134.007,78.4995,0.016714
134.038,78.5056,0.016714
134.070,78.5120,0.016714
134.100,78.5180,0.016714
134.132,78.5244,0.016714
134.163,78.5305,0.016752
134.194,78.5368,0.016752
134.225,78.5429,0.016752
134.257,78.5495,0.016752
134.285,78.5551,0.016752
134.319,78.5619,0.016752
134.350,78.5680,0.016752
134.381,78.5742,0.016799
134.413,78.5805,0.016799
134.444,78.5868,0.016799
134.475,78.5930,0.016799
134.506,78.5992,0.016799
134.537,78.6053,0.016799
134.568,78.6116,0.016799
134.598,78.6176,0.016799
134.630,78.6239,0.016799
134.661,78.6302,0.016846
134.692,78.6363,0.016846
134.722,78.6424,0.016846
134.754,78.6488,0.016846
134.785,78.6550,0.016846
134.817,78.6615,0.016846
134.847,78.6676,0.016846
134.878,78.6738,0.016846
134.909,78.6798,0.016902
134.940,78.6859,0.016902
134.971,78.6923,0.016902
135.002,78.6983,0.016902
135.033,78.7047,0.016902
135.064,78.7107,0.016902
135.094,78.7168,0.016902
135.125,78.7230,0.016949
135.156,78.7291,0.016949
135.187,78.7355,0.016949
135.218,78.7416,0.016949
135.250,78.7481,0.016949
135.281,78.7541,0.016949
135.312,78.7605,0.016949
135.342,78.7663,0.016949
135.374,78.7727,0.016978
135.405,78.7789,0.016978
135.436,78.7854,0.016978
135.468,78.7916,0.016978
135.499,78.7979,0.016978
135.531,78.8041,0.016978
135.562,78.8107,0.016978
135.592,78.8165,0.016978
135.624,78.8226,0.017034
135.655,78.8289,0.017034
135.686,78.8351,0.017034
135.717,78.8416,0.017034
135.749,78.8477,0.017034
135.779,78.8539,0.017034
135.810,78.8601,0.017034
135.842,78.8664,0.017034
135.872,78.8725,0.017053
135.904,78.8788,0.017053
135.934,78.8849,0.017053
135.964,78.8908,0.017053
135.995,78.8970,0.017053
136.026,78.9031,0.017053
136.057,78.9094,0.017053
136.089,78.9156,0.017053
136.120,78.9219,0.017128
136.150,78.9280,0.017128
136.182,78.9345,0.017128
136.213,78.9407,0.017128
136.244,78.9469,0.017128
136.277,78.9533,0.017128
136.308,78.9596,0.017128
136.339,78.9658,0.017128
136.369,78.9718,0.017147
136.400,78.9780,0.017147
136.431,78.9842,0.017147
136.462,78.9905,0.017147
136.493,78.9966,0.017147
136.525,79.0031,0.017147
136.555,79.0090,0.017147
136.586,79.0152,0.017147
136.618,79.0215,0.017072
136.649,79.0277,0.017072
136.680,79.0338,0.017072
136.712,79.0404,0.017072
136.743,79.0466,0.017072
136.774,79.0528,0.017072
136.804,79.0589,0.017072
136.836,79.0653,0.017072
136.866,79.0714,0.017072
136.898,79.0775,0.017072
136.929,79.0837,0.017072
136.960,79.0901,0.017072
136.991,79.0962,0.017072
137.023,79.1026,0.017072
137.055,79.1088,0.017072
137.086,79.1152,0.017072
137.115,79.1211,0.017034
137.147,79.1274,0.017034
137.178,79.1334,0.017034
137.208,79.1397,0.017034
137.240,79.1459,0.017034
137.271,79.1521,0.017034
137.302,79.1585,0.017034
137.334,79.1649,0.017034
137.366,79.1712,0.016921
137.397,79.1776,0.016921
137.429,79.1838,0.016921
137.461,79.1902,0.016921
137.492,79.1965,0.016921
137.523,79.2025,0.016921
137.554,79.2087,0.016921
137.585,79.2150,0.016921
137.617,79.2213,0.016846
137.647,79.2274,0.016846
137.678,79.2335,0.016846
137.709,79.2398,0.016846
137.739,79.2458,0.016846
137.770,79.2518,0.016846
137.800,79.2580,0.016846
137.831,79.2641,0.016846
137.863,79.2706,0.016789
137.895,79.2769,0.016789
137.927,79.2835,0.016789
137.957,79.2895,0.016789
137.989,79.2957,0.016789
138.020,79.3021,0.016789
138.052,79.3084,0.016789
138.083,79.3146,0.016789
138.113,79.3206,0.016752
138.144,79.3269,0.016752
138.176,79.3331,0.016752
138.206,79.3392,0.016752
138.237,79.3455,0.016752
138.267,79.3516,0.016752
138.298,79.3578,0.016752
138.329,79.3638,0.016752
138.360,79.3702,0.016752
138.391,79.3762,0.016752
138.422,79.3826,0.016704
138.453,79.3886,0.016704
138.484,79.3950,0.016704
138.515,79.4010,0.016704
138.547,79.4072,0.016704
138.578,79.4134,0.016704
138.609,79.4196,0.016704
138.640,79.4261,0.016704
138.671,79.4321,0.016535
138.702,79.4384,0.016535
138.733,79.4446,0.016535
138.764,79.4508,0.016535
138.795,79.4570,0.016535
138.826,79.4632,0.016535
138.858,79.4695,0.016535
138.888,79.4756,0.016535
138.920,79.4818,0.016356
138.950,79.4880,0.016356
138.982,79.4943,0.016356
139.013,79.5006,0.016356
139.045,79.5070,0.016356
139.076,79.5130,0.016356
139.107,79.5194,0.016356
139.138,79.5256,0.016356
139.170,79.5319,0.016167
139.201,79.5382,0.016167
139.231,79.5442,0.016167
139.262,79.5505,0.016167
139.295,79.5569,0.016167
139.325,79.5629,0.016167
139.356,79.5692,0.016167
139.387,79.5754,0.015923
139.418,79.5816,0.015923
139.449,79.5879,0.015923
139.480,79.5939,0.015923
139.511,79.6002,0.015923
139.542,79.6064,0.015923
139.573,79.6126,0.015923
139.604,79.6190,0.015923
139.635,79.6249,0.015923
139.668,79.6315,0.015687
139.697,79.6374,0.015687
139.728,79.6436,0.015687
139.760,79.6500,0.015687
139.791,79.6560,0.015687
139.821,79.6621,0.015687
139.853,79.6687,0.015687
139.885,79.6749,0.015348
139.915,79.6811,0.015348
139.946,79.6870,0.015348
139.976,79.6932,0.015348
140.008,79.6994,0.015348
140.040,79.7059,0.015348
140.071,79.7123,0.015348
140.102,79.7184,0.015348
140.133,79.7245,0.014924
140.164,79.7308,0.014924
140.195,79.7369,0.014924
140.224,79.7430,0.014924
140.256,79.7491,0.014924
140.288,79.7555,0.014924
140.318,79.7617,0.014924
140.348,79.7678,0.014924
140.379,79.7737,0.014453
140.411,79.7803,0.014453
140.442,79.7863,0.014453
140.473,79.7927,0.014453
140.504,79.7987,0.014453
140.535,79.8050,0.014453
140.566,79.8112,0.014453
140.597,79.8173,0.014453
140.628,79.8235,0.013803
140.658,79.8297,0.013803
140.690,79.8361,0.013803
140.722,79.8423,0.013803
140.752,79.8483,0.013803
140.783,79.8546,0.013803
140.814,79.8607,0.013803
140.844,79.8669,0.013803
140.875,79.8731,0.012908
140.906,79.8792,0.012908
140.937,79.8854,0.012908
140.968,79.8916,0.012908
141.000,79.8978,0.012908
141.030,79.9040,0.012908
141.061,79.9102,0.012908
141.092,79.9164,0.012908
141.124,79.9227,0.011692
141.155,79.9291,0.011692
141.187,79.9352,0.011692
141.217,79.9414,0.011692
141.249,79.9477,0.011692
141.280,79.9539,0.011692
141.311,79.9601,0.011692
141.342,79.9663,0.011692
141.373,79.9725,0.011692
141.405,79.9790,0.010091
141.436,79.9851,0.010091
141.466,79.9911,0.010091
141.498,79.9976,0.010091
141.529,80.0037,0.010091
141.560,80.0099,0.010091
141.592,80.0163,0.010091
141.623,80.0224,0.008150
141.653,80.0286,0.008150
141.685,80.0348,0.008150
141.715,80.0410,0.008150
141.747,80.0473,0.008150
141.778,80.0534,0.008150
141.809,80.0597,0.008150
141.840,80.0662,0.008150
141.871,80.0721,0.005870
141.902,80.0783,0.005870
141.934,80.0847,0.005870
141.965,80.0909,0.005870
141.996,80.0973,0.005870
142.027,80.1033,0.005870
142.057,80.1093,0.005870
142.088,80.1155,0.005870
142.119,80.1217,0.003222
142.152,80.1282,0.003222
142.181,80.1340,0.003222
142.212,80.1403,0.003222
142.243,80.1464,0.003222
142.274,80.1526,0.003222
142.306,80.1591,0.003222
142.337,80.1653,0.003222
142.367,80.1714,0.000584
142.398,80.1778,0.000584
142.430,80.1839,0.000584
142.461,80.1900,0.000584
142.492,80.1963,0.000584
142.523,80.2025,0.000584
142.554,80.2088,0.000584
142.585,80.2149,0.000584
142.616,80.2212,-0.001696
142.647,80.2273,-0.001696
142.678,80.2336,-0.001696
142.709,80.2396,-0.001696
142.739,80.2458,-0.001696
142.769,80.2517,-0.001696
142.800,80.2580,-0.001696
142.832,80.2642,-0.001696
142.864,80.2702,-0.003495
142.894,80.2752,-0.003495
142.925,80.2794,-0.003495
142.956,80.2831,-0.003495
142.987,80.2860,-0.003495
143.017,80.2881,-0.003495
143.048,80.2894,-0.003495
143.080,80.2902,-0.003495
143.111,80.2903,-0.004626
143.142,80.2903,-0.004626
143.173,80.2903,-0.004626
143.204,80.2903,-0.004626
143.236,80.2903,-0.004626
143.265,80.2903,-0.004626
143.296,80.2903,-0.004626
143.327,80.2903,-0.004626
143.358,80.2903,-0.004626
143.389,80.2903,-0.004485
143.421,80.2903,-0.004485
143.451,80.2903,-0.004485
143.482,80.2903,-0.004485
143.512,80.2903,-0.004485
143.543,80.2903,-0.004485
143.573,80.2903,-0.004485
143.604,80.2903,-0.004485
143.635,80.2903,-0.003599
143.666,80.2903,-0.003599
143.697,80.2903,-0.003599
143.729,80.2903,-0.003599
143.759,80.2903,-0.003599
143.790,80.2903,-0.003599
143.820,80.2903,-0.003599
143.851,80.2903,-0.003599
143.882,80.2903,-0.002940
143.913,80.2903,-0.002940
143.943,80.2903,-0.002940
143.974,80.2903,-0.002940
144.004,80.2903,-0.002940
144.035,80.2903,-0.002940
144.066,80.2903,-0.002940
144.098,80.2903,-0.002940
144.129,80.2903,-0.002497
144.160,80.2903,-0.002497
144.191,80.2903,-0.002497
144.223,80.2903,-0.002497
144.254,80.2903,-0.002497
144.285,80.2903,-0.002497
144.316,80.2903,-0.002497
144.347,80.2903,-0.002497
144.378,80.2903,-0.002186
144.409,80.2903,-0.002186
144.440,80.2903,-0.002186
144.471,80.2903,-0.002186
144.503,80.2903,-0.002186
144.534,80.2903,-0.002186
144.566,80.2903,-0.002186
144.597,80.2903,-0.002186
144.628,80.2903,-0.001875
144.659,80.2903,-0.001875
144.690,80.2903,-0.001875
144.720,80.2903,-0.001875
144.750,80.2903,-0.001875
144.781,80.2903,-0.001875
144.812,80.2903,-0.001875
144.843,80.2903,-0.001875
144.874,80.2903,-0.001592
144.907,80.2903,-0.001592
144.937,80.2903,-0.001592
144.968,80.2903,-0.001592
144.999,80.2903,-0.001592
145.030,80.2903,-0.001592
145.062,80.2903,-0.001592
145.092,80.2903,-0.001592
145.124,80.2903,-0.001328
145.155,80.2903,-0.001328
145.185,80.2903,-0.001328
145.216,80.2903,-0.001328
145.247,80.2903,-0.001328
145.278,80.2903,-0.001328
145.309,80.2903,-0.001328
145.340,80.2903,-0.001328
145.371,80.2903,-0.001112
145.402,80.2903,-0.001112
145.433,80.2903,-0.001112
145.466,80.2903,-0.001112
145.496,80.2903,-0.001112
145.527,80.2903,-0.001112
145.558,80.2903,-0.001112
145.589,80.2903,-0.001112
145.621,80.2903,-0.000980
145.653,80.2903,-0.000980
145.684,80.2903,-0.000980
145.714,80.2903,-0.000980
145.746,80.2903,-0.000980
145.778,80.2903,-0.000980
145.808,80.2903,-0.000980
145.839,80.2903,-0.000980
145.870,80.2903,-0.000829
145.902,80.2903,-0.000829
145.932,80.2903,-0.000829
145.964,80.2903,-0.000829
145.995,80.2903,-0.000829
146.026,80.2903,-0.000829
146.057,80.2903,-0.000829
146.088,80.2903,-0.000829
146.119,80.2903,-0.000688
146.149,80.2903,-0.000688
146.181,80.2903,-0.000688
146.211,80.2903,-0.000688
146.242,80.2903,-0.000688
146.273,80.2903,-0.000688
146.305,80.2903,-0.000688
146.336,80.2903,-0.000688
146.367,80.2903,-0.000546
146.397,80.2903,-0.000546
146.428,80.2903,-0.000546
146.460,80.2903,-0.000546
146.491,80.2903,-0.000546
146.523,80.2903,-0.000546
146.554,80.2903,-0.000546
146.585,80.2903,-0.000546
146.615,80.2903,-0.000424
146.646,80.2903,-0.000424
146.678,80.2903,-0.000424
146.708,80.2903,-0.000424
146.740,80.2903,-0.000424
146.771,80.2903,-0.000424
146.801,80.2903,-0.000424
146.833,80.2903,-0.000424
146.864,80.2903,-0.000311
146.896,80.2903,-0.000311
146.927,80.2903,-0.000311
146.958,80.2903,-0.000311
146.990,80.2903,-0.000311
147.022,80.2903,-0.000311
147.052,80.2903,-0.000311
147.084,80.2903,-0.000311
147.115,80.2903,-0.000198
147.146,80.2903,-0.000198
147.177,80.2903,-0.000198
147.208,80.2903,-0.000198
147.238,80.2903,-0.000198
147.270,80.2903,-0.000198
147.300,80.2903,-0.000198
147.332,80.2903,-0.000198
147.362,80.2903,-0.000094
147.393,80.2903,-0.000094
147.424,80.2903,-0.000094
147.456,80.2903,-0.000094
147.486,80.2903,-0.000094
147.517,80.2903,-0.000094
147.548,80.2903,-0.000094
147.580,80.2903,-0.000094
147.612,80.2903,0.000141
147.643,80.2903,0.000141
147.674,80.2903,0.000141
147.704,80.2903,0.000141
147.735,80.2903,0.000141
147.767,80.2903,0.000141
147.797,80.2903,0.000141
147.829,80.2903,0.000141
147.860,80.2899,0.000141
147.891,80.2889,0.000386
147.923,80.2869,0.000386
147.954,80.2845,0.000386
147.985,80.2811,0.000386
148.016,80.2771,0.000386
148.048,80.2723,0.000386
148.078,80.2670,0.000386
148.110,80.2605,0.000386
148.140,80.2547,0.001404
148.173,80.2481,0.001404
148.203,80.2420,0.001404
148.235,80.2356,0.001404
148.266,80.2295,0.001404
148.297,80.2234,0.001404
148.327,80.2174,0.001404
148.358,80.2110,0.001404
148.389,80.2047,0.001404
148.421,80.1986,0.005851
148.452,80.1922,0.005851
148.483,80.1860,0.005851
148.515,80.1797,0.005851
148.546,80.1733,0.005851
148.578,80.1671,0.005851
148.608,80.1609,0.005851
148.639,80.1547,0.005851
148.671,80.1484,0.013096
148.701,80.1425,0.013096
148.732,80.1363,0.013096
148.763,80.1299,0.013096
148.795,80.1235,0.013096
148.827,80.1173,0.013096
148.857,80.1112,0.013096
148.889,80.1050,0.013096
148.920,80.0986,0.021208
148.952,80.0924,0.021208
148.983,80.0860,0.021208
149.014,80.0799,0.021208
149.044,80.0739,0.021208
149.076,80.0674,0.021208
149.107,80.0612,0.021208
149.139,80.0549,0.031214
149.170,80.0486,0.031214
149.200,80.0425,0.031214
149.231,80.0365,0.031214
149.262,80.0302,0.031214
149.293,80.0243,0.031214
149.323,80.0182,0.031214
149.354,80.0120,0.031214
149.386,80.0055,0.031214
149.417,79.9993,0.043801
149.447,79.9933,0.043801
149.478,79.9869,0.043801
149.509,79.9809,0.043801
149.540,79.9745,0.043801
149.570,79.9686,0.043801
149.601,79.9626,0.043801
149.632,79.9564,0.059290
149.663,79.9501,0.059290
149.695,79.9436,0.059290
149.726,79.9376,0.059290
149.758,79.9311,0.059290
149.789,79.9248,0.059290
149.819,79.9188,0.059290
149.851,79.9125,0.059290
149.882,79.9063,0.059290
149.913,79.9000,0.078133
149.944,79.8939,0.078133
149.975,79.8876,0.078133
150.006,79.8814,0.078133
150.037,79.8752,0.078133
150.069,79.8690,0.078133
150.100,79.8625,0.078133
150.131,79.8565,0.100491
150.163,79.8500,0.100491
150.194,79.8439,0.100491
150.225,79.8376,0.100491
150.255,79.8318,0.100491
150.286,79.8253,0.100491
150.317,79.8193,0.100491
150.348,79.8131,0.100491
150.380,79.8066,0.126485
150.411,79.8004,0.126485
150.442,79.7942,0.126485
150.474,79.7880,0.126485
150.504,79.7819,0.126485
150.534,79.7757,0.126485
150.566,79.7695,0.126485
150.597,79.7633,0.126485
150.628,79.7571,0.156125
150.660,79.7507,0.156125
150.691,79.7446,0.156125
150.721,79.7384,0.156125
150.752,79.7324,0.156125
150.783,79.7261,0.156125
150.815,79.7198,0.156125
150.846,79.7136,0.156125
150.877,79.7074,0.189534
150.908,79.7011,0.189534
150.939,79.6950,0.189534
150.971,79.6885,0.189534
151.001,79.6825,0.189534
151.032,79.6763,0.189534
151.063,79.6701,0.189534
151.094,79.6640,0.189534
151.125,79.6576,0.226910
151.155,79.6517,0.226910
151.186,79.6454,0.226910
151.218,79.6392,0.226910
151.249,79.6327,0.226910
151.279,79.6268,0.226910
151.310,79.6204,0.226910
151.342,79.6144,0.226910
151.373,79.6082,0.268242
151.404,79.6020,0.268242
151.435,79.5958,0.268242
151.466,79.5894,0.268242
151.497,79.5832,0.268242
151.528,79.5770,0.268242
151.560,79.5707,0.268242
151.591,79.5646,0.268242
151.622,79.5583,0.313532
151.652,79.5524,0.313532
151.684,79.5459,0.313532
151.714,79.5400,0.313532
151.746,79.5334,0.313532
151.777,79.5273,0.313532
151.809,79.5209,0.313532
151.840,79.5147,0.313532
151.872,79.5083,0.313532
151.903,79.5021,0.362666
151.935,79.4956,0.362666
151.966,79.4895,0.362666
151.997,79.4831,0.362666
152.029,79.4769,0.362666
152.061,79.4706,0.362666
152.090,79.4647,0.362666
152.120,79.4586,0.362666
152.153,79.4520,0.414767
152.182,79.4463,0.414767
152.213,79.4400,0.414767
152.245,79.4338,0.414767
152.278,79.4271,0.414767
152.307,79.4214,0.414767
152.338,79.4151,0.414767
152.369,79.4089,0.414767
152.400,79.4025,0.469488
152.431,79.3965,0.469488
152.462,79.3901,0.469488
152.494,79.3839,0.469488
152.526,79.3775,0.469488
152.556,79.3715,0.469488
152.587,79.3653,0.469488
152.618,79.3590,0.527449
152.650,79.3527,0.527449
152.681,79.3465,0.527449
152.712,79.3404,0.527449
152.744,79.3339,0.527449
152.774,79.3280,0.527449
152.805,79.3218,0.527449
152.836,79.3156,0.527449
152.866,79.3095,0.527449
152.899,79.3028,0.588737
152.929,79.2970,0.588737
152.959,79.2909,0.588737
152.991,79.2846,0.588737
153.021,79.2784,0.588737
153.053,79.2721,0.588737
153.084,79.2660,0.588737
153.116,79.2594,0.653284
153.146,79.2535,0.653284
153.177,79.2473,0.653284
153.209,79.2408,0.653284
153.240,79.2346,0.653284
153.271,79.2285,0.653284
153.302,79.2223,0.653284
153.333,79.2161,0.653284
153.364,79.2097,0.721459
153.395,79.2037,0.721459
153.426,79.1975,0.721459
153.456,79.1916,0.721459
153.487,79.1852,0.721459
153.518,79.1790,0.721459
153.549,79.1730,0.721459
153.582,79.1663,0.721459
153.612,79.1603,0.721459
153.644,79.1540,0.793054
153.676,79.1475,0.793054
153.707,79.1413,0.793054
153.739,79.1348,0.793054
153.771,79.1286,0.793054
153.801,79.1225,0.793054
153.832,79.1162,0.793054
153.863,79.1100,0.793054
153.895,79.1035,0.867739
153.926,79.0976,0.867739
153.957,79.0914,0.867739
153.988,79.0853,0.867739
154.019,79.0790,0.867739
154.050,79.0729,0.867739
154.082,79.0664,0.867739
154.113,79.0600,0.945373
154.144,79.0539,0.945373
154.176,79.0476,0.945373
154.208,79.0410,0.945373
154.237,79.0352,0.945373
154.269,79.0289,0.945373
154.299,79.0228,0.945373
154.333,79.0161,0.945373
154.362,79.0101,1.025588
154.393,79.0040,1.025588
154.423,78.9981,1.025588
154.454,78.9918,1.025588
154.485,78.9858,1.025588
154.516,78.9795,1.025588
154.547,78.9734,1.025588
154.578,78.9670,1.025588
154.609,78.9609,1.108640
154.641,78.9546,1.108640
154.672,78.9484,1.108640
154.703,78.9422,1.108640
154.733,78.9360,1.108640
154.764,78.9299,1.108640
154.795,78.9237,1.108640
154.826,78.9176,1.108640
154.858,78.9112,1.108640
154.888,78.9051,1.194404
154.919,78.8989,1.194404
154.950,78.8927,1.194404
154.982,78.8862,1.194404
155.013,78.8801,1.194404
155.046,78.8734,1.194404
155.077,78.8674,1.194404
155.108,78.8610,1.194404
155.138,78.8551,1.198889
155.168,78.8490,1.198889
155.199,78.8429,1.198889
155.230,78.8366,1.198889
155.262,78.8303,1.198889
155.293,78.8241,1.198889
155.324,78.8179,1.198889
155.355,78.8118,1.198889
155.386,78.8056,1.198889
155.416,78.7994,0.589538
155.447,78.7932,0.589538
155.478,78.7871,0.589538
155.509,78.7809,0.589538
155.540,78.7747,0.589538
155.571,78.7685,0.589538
155.602,78.7624,0.589538
155.633,78.7562,0.019041
155.665,78.7497,0.019041
155.696,78.7436,0.019041
155.727,78.7373,0.019041
155.759,78.7309,0.019041
155.790,78.7247,0.019041
155.821,78.7184,0.019041
155.852,78.7122,0.019041
155.883,78.7061,0.018806
155.914,78.6999,0.018806
155.945,78.6935,0.018806
155.976,78.6875,0.018806
156.007,78.6812,0.018806
156.038,78.6751,0.018806
156.069,78.6689,0.018806
156.100,78.6627,0.018806
156.130,78.6567,0.018683
156.161,78.6505,0.018683
156.194,78.6439,0.018683
156.224,78.6379,0.018683
156.255,78.6317,0.018683
156.286,78.6257,0.018683
156.316,78.6194,0.018683
156.348,78.6132,0.018608
156.379,78.6068,0.018608
156.410,78.6007,0.018608
156.441,78.5944,0.018608
156.472,78.5884,0.018608
156.503,78.5822,0.018608
156.534,78.5760,0.018608
156.565,78.5697,0.018608
156.596,78.5636,0.018608
156.628,78.5571,0.018608
156.659,78.5510,0.018617
156.690,78.5447,0.018617
156.721,78.5386,0.018617
156.752,78.5324,0.018617
156.783,78.5263,0.018617
156.813,78.5201,0.018617
156.845,78.5137,0.018617
156.875,78.5077,0.018617
156.906,78.5015,0.018645
156.937,78.4953,0.018645
156.968,78.4891,0.018645
156.999,78.4829,0.018645
157.031,78.4767,0.018645
157.062,78.4705,0.018645
157.092,78.4643,0.018645
157.123,78.4581,0.018645
157.154,78.4519,0.018561
157.186,78.4457,0.018561
157.217,78.4394,0.018561
157.248,78.4330,0.018561
157.279,78.4268,0.018561
157.310,78.4208,0.018561
157.341,78.4144,0.018561
157.373,78.4082,0.018542
157.404,78.4019,0.018542
157.434,78.3960,0.018542
157.465,78.3898,0.018542
157.496,78.3836,0.018542
157.528,78.3772,0.018542
157.558,78.3712,0.018542
157.588,78.3651,0.018542
157.619,78.3589,0.018542
157.651,78.3526,0.018542
157.681,78.3465,0.018542
157.712,78.3403,0.018542
157.744,78.3339,0.018542
157.775,78.3276,0.018542
157.806,78.3215,0.018542
157.837,78.3152,0.018542
157.868,78.3091,0.018495
157.899,78.3029,0.018495
157.930,78.2967,0.018495
157.961,78.2907,0.018495
157.992,78.2843,0.018495
158.023,78.2783,0.018495
158.054,78.2719,0.018495
158.085,78.2657,0.018495
158.117,78.2594,0.018495
158.147,78.2533,0.018429
158.179,78.2470,0.018429
158.209,78.2409,0.018429
158.241,78.2346,0.018429
158.271,78.2285,0.018429
158.302,78.2225,0.018429
158.333,78.2161,0.018429
158.365,78.2098,0.018419
158.398,78.2031,0.018419
158.428,78.1971,0.018419
158.459,78.1909,0.018419
158.491,78.1845,0.018419
158.523,78.1783,0.018419
158.553,78.1722,0.018419
158.584,78.1660,0.018419
158.615,78.1598,0.018419
158.646,78.1535,0.018419
158.677,78.1474,0.018419
158.708,78.1410,0.018419
158.739,78.1348,0.018419
158.770,78.1288,0.018419
158.801,78.1224,0.018419
158.833,78.1160,0.018419
158.864,78.1100,0.018410
158.894,78.1040,0.018410
158.927,78.0974,0.018410
158.956,78.0916,0.018410
158.986,78.0854,0.018410
159.018,78.0791,0.018410
159.050,78.0726,0.018410
159.082,78.0664,0.018410
159.113,78.0601,0.018400
159.144,78.0539,0.018400
159.175,78.0478,0.018400
159.206,78.0415,0.018400
159.237,78.0354,0.018400
159.267,78.0292,0.018400
159.298,78.0231,0.018400
159.329,78.0168,0.018400
159.359,78.0109,0.018400
159.391,78.0044,0.018400
159.422,77.9985,0.018344
159.452,77.9921,0.018344
159.485,77.9856,0.018344
159.515,77.9796,0.018344
159.546,77.9737,0.018344
159.577,77.9672,0.018344
159.609,77.9610,0.018344
159.641,77.9547,0.018306
159.671,77.9486,0.018306
159.701,77.9425,0.018306
159.732,77.9363,0.018306
159.763,77.9301,0.018306
159.794,77.9238,0.018306
159.825,77.9177,0.018306
159.856,77.9115,0.018306
159.887,77.9053,0.018306
159.918,77.8990,0.018231
159.949,77.8929,0.018231
159.980,77.8867,0.018231
160.011,77.8805,0.018231
160.043,77.8741,0.018231
160.073,77.8681,0.018231
160.104,77.8620,0.018231
160.134,77.8560,0.018137
160.165,77.8498,0.018137
160.197,77.8434,0.018137
160.227,77.8372,0.018137
160.259,77.8310,0.018137
160.289,77.8250,0.018137
160.320,77.8188,0.018137
160.350,77.8127,0.018137
160.381,77.8065,0.018118
160.413,77.8002,0.018118
160.443,77.7941,0.018118
160.474,77.7879,0.018118
160.505,77.7817,0.018118
160.537,77.7753,0.018118
160.567,77.7693,0.018118
160.598,77.7632,0.018118
160.629,77.7570,0.018080
160.661,77.7505,0.018080
160.691,77.7446,0.018080
160.723,77.7383,0.018080
160.754,77.7319,0.018080
160.784,77.7260,0.018080
160.815,77.7198,0.018080
160.846,77.7136,0.018080
160.876,77.7074,0.018080
160.907,77.7013,0.018061
160.940,77.6947,0.018061
160.970,77.6889,0.018061
161.001,77.6827,0.018061
161.032,77.6764,0.018061
161.062,77.6703,0.018061
161.093,77.6641,0.018061
161.124,77.6579,0.018024
161.157,77.6514,0.018024
161.188,77.6454,0.018024
161.219,77.6389,0.018024
161.250,77.6328,0.018024
161.280,77.6266,0.018024
161.312,77.6206,0.018024
161.342,77.6142,0.018024
161.374,77.6080,0.017910
161.405,77.6018,0.017910
161.435,77.5958,0.017910
161.466,77.5896,0.017910
161.496,77.5835,0.017910
161.527,77.5774,0.017910
161.558,77.5712,0.017910
161.589,77.5649,0.017910
161.621,77.5587,0.017769
161.651,77.5525,0.017769
161.683,77.5463,0.017769
161.715,77.5398,0.017769
161.747,77.5334,0.017769
161.778,77.5272,0.017769
161.809,77.5210,0.017769
161.840,77.5146,0.017769
161.871,77.5086,0.017713
161.902,77.5024,0.017713
161.933,77.4962,0.017713
161.964,77.4900,0.017713
161.994,77.4839,0.017713
162.026,77.4776,0.017713
162.057,77.4714,0.017713
162.088,77.4652,0.017713
162.119,77.4587,0.017675
162.151,77.4526,0.017675
162.179,77.4469,0.017675
162.210,77.4409,0.017675
162.240,77.4349,0.017675
162.270,77.4286,0.017675
162.302,77.4225,0.017675
162.332,77.4163,0.017675
162.364,77.4101,0.017656
162.395,77.4038,0.017656
162.426,77.3976,0.017656
162.457,77.3915,0.017656
162.487,77.3852,0.017656
162.519,77.3788,0.017656
162.550,77.3726,0.017656
162.583,77.3663,0.017656
162.612,77.3604,0.017656
162.642,77.3544,0.017590
162.674,77.3480,0.017590
162.705,77.3418,0.017590
162.737,77.3353,0.017590
162.768,77.3292,0.017590
162.799,77.3230,0.017590
162.830,77.3170,0.017590
162.860,77.3106,0.017590
162.891,77.3044,0.017449
162.922,77.2984,0.017449
162.953,77.2922,0.017449
162.984,77.2859,0.017449
163.015,77.2799,0.017449
163.046,77.2735,0.017449
163.077,77.2673,0.017449
163.109,77.2613,0.017449
163.139,77.2563,0.017430
163.170,77.2518,0.017430
163.202,77.2481,0.017430
163.234,77.2450,0.017430
163.265,77.2428,0.017430
163.295,77.2412,0.017430
163.327,77.2404,0.017430
163.359,77.2403,0.017430
163.390,77.2403,0.017232
163.421,77.2403,0.017232
163.452,77.2403,0.017232
163.482,77.2403,0.017232
163.513,77.2403,0.017232
163.544,77.2403,0.017232
163.576,77.2403,0.017232
163.607,77.2403,0.017232
163.638,77.2403,0.017232
163.669,77.2403,0.017044
163.700,77.2403,0.017044
163.731,77.2403,0.017044
163.762,77.2403,0.017044
163.793,77.2403,0.017044
163.824,77.2403,0.017044
163.856,77.2403,0.017044
163.887,77.2403,0.016968
163.917,77.2404,0.016968
163.948,77.2412,0.016968
163.979,77.2425,0.016968
164.009,77.2446,0.016968
164.041,77.2477,0.016968
164.072,77.2515,0.016968
164.104,77.2559,0.016799
164.135,77.2609,0.016799
164.165,77.2666,0.016799
164.196,77.2728,0.016799
164.227,77.2791,0.016799
164.258,77.2855,0.016799
164.289,77.2915,0.016799
164.320,77.2976,0.016799
164.351,77.3039,0.016799
164.383,77.3103,0.016639
164.413,77.3163,0.016639
164.444,77.3225,0.016639
164.476,77.3290,0.016639
164.508,77.3352,0.016639
164.538,77.3411,0.016639
164.568,77.3472,0.016639
164.599,77.3533,0.016591
164.630,77.3596,0.016591
164.660,77.3656,0.016591
164.692,77.3719,0.016591
164.722,77.3780,0.016591
164.753,77.3842,0.016591
164.784,77.3905,0.016591
164.814,77.3963,0.016591
164.845,77.4025,0.016591
164.876,77.4090,0.016591
164.907,77.4151,0.016573
164.939,77.4214,0.016573
164.970,77.4276,0.016573
165.002,77.4340,0.016573
165.033,77.4402,0.016573
165.064,77.4464,0.016573
165.096,77.4529,0.016573
165.126,77.4587,0.016573
165.156,77.4648,0.016525
165.187,77.4711,0.016525
165.219,77.4773,0.016525
165.250,77.4838,0.016525
165.281,77.4898,0.016525
165.313,77.4963,0.016525
165.344,77.5025,0.016525
165.376,77.5088,0.016525
165.406,77.5148,0.016431
165.437,77.5212,0.016431
165.468,77.5272,0.016431
165.499,77.5336,0.016431
165.530,77.5397,0.016431
165.563,77.5463,0.016431
165.594,77.5525,0.016431
165.625,77.5588,0.016431
165.656,77.5648,0.016394
165.687,77.5712,0.016394
165.717,77.5770,0.016394
165.748,77.5832,0.016394
165.779,77.5894,0.016394
165.811,77.5958,0.016394
165.842,77.6020,0.016394
165.873,77.6082,0.016375
165.904,77.6145,0.016375
165.934,77.6204,0.016375
165.966,77.6269,0.016375
165.998,77.6331,0.016375
166.028,77.6393,0.016375
166.059,77.6454,0.016375
166.090,77.6517,0.016375
166.120,77.6578,0.016375
166.151,77.6638,0.016290
166.182,77.6702,0.016290
166.213,77.6763,0.016290
166.244,77.6825,0.016290
166.275,77.6887,0.016290
166.306,77.6950,0.016290
166.337,77.7009,0.016290
166.368,77.7074,0.016299
166.402,77.7138,0.016299
166.431,77.7198,0.016299
166.462,77.7261,0.016299
166.492,77.7321,0.016299
166.523,77.7384,0.016299
166.554,77.7445,0.016299
166.585,77.7508,0.016299
166.617,77.7570,0.016299
166.648,77.7633,0.016299
166.679,77.7694,0.016299
166.710,77.7757,0.016299
166.742,77.7819,0.016299
166.773,77.7884,0.016299
166.804,77.7944,0.016299
166.834,77.8003,0.016299
166.865,77.8066,0.016299
166.895,77.8127,0.016299
166.927,77.8191,0.016299
166.957,77.8250,0.016299
166.988,77.8313,0.016299
167.020,77.8376,0.016299
167.051,77.8438,0.016299
167.083,77.8501,0.016299
167.112,77.8560,0.016299
167.144,77.8625,0.016299
167.174,77.8684,0.016299
167.205,77.8747,0.016299
167.237,77.8809,0.016299
167.268,77.8872,0.016299
167.299,77.8934,0.016299
167.330,77.8995,0.016299
167.361,77.9057,0.016299
167.392,77.9120,0.016309
167.424,77.9185,0.016309
167.455,77.9245,0.016309
167.486,77.9309,0.016309
167.518,77.9372,0.016309
167.548,77.9434,0.016309
167.580,77.9495,0.016309
167.611,77.9558,0.016346
167.642,77.9619,0.016346
167.673,77.9682,0.016346
167.703,77.9744,0.016346
167.735,77.9805,0.016346
167.766,77.9868,0.016346
167.797,77.9929,0.016346
167.828,77.9993,0.016346
167.859,78.0054,0.016346
167.890,78.0117,0.016337
167.922,78.0181,0.016337
167.953,78.0243,0.016337
167.983,78.0303,0.016337
168.015,78.0368,0.016337
168.047,78.0431,0.016337
168.078,78.0491,0.016337
168.108,78.0553,0.016337
168.139,78.0612,0.016346
168.170,78.0675,0.016346
168.200,78.0736,0.016346
168.232,78.0799,0.016346
168.264,78.0864,0.016346
168.296,78.0927,0.016346
168.326,78.0988,0.016346
168.357,78.1050,0.016356
168.387,78.1110,0.016356
168.417,78.1172,0.016356
168.448,78.1232,0.016356
168.479,78.1294,0.016356
168.510,78.1355,0.016356
168.540,78.1417,0.016356
168.571,78.1478,0.016356
168.602,78.1540,0.016356
168.633,78.1603,0.016356
168.665,78.1665,0.016356
168.696,78.1728,0.016356
168.727,78.1790,0.016356
168.759,78.1852,0.016356
168.790,78.1914,0.016356
168.820,78.1978,0.016356
168.852,78.2038,0.016394
168.883,78.2102,0.016394
168.913,78.2162,0.016394
168.945,78.2227,0.016394
168.976,78.2288,0.016394
169.006,78.2347,0.016394
169.037,78.2411,0.016394
169.068,78.2473,0.016394
169.099,78.2535,0.016394
169.129,78.2595,0.016431
169.160,78.2656,0.016431
169.191,78.2718,0.016431
169.223,78.2781,0.016431
169.254,78.2843,0.016431
169.286,78.2907,0.016431
169.316,78.2969,0.016431
169.348,78.3031,0.016431
169.379,78.3093,0.016412
169.410,78.3155,0.016412
169.441,78.3219,0.016412
169.472,78.3280,0.016412
169.503,78.3342,0.016412
169.534,78.3404,0.016412
169.565,78.3466,0.016412
169.596,78.3529,0.016412
169.626,78.3589,0.016412
169.657,78.3654,0.016412
169.688,78.3713,0.016441
169.721,78.3777,0.016441
169.752,78.3839,0.016441
169.782,78.3900,0.016441
169.814,78.3963,0.016441
169.845,78.4024,0.016441
169.875,78.4087,0.016441
169.907,78.4149,0.016507
169.938,78.4211,0.016507
169.969,78.4275,0.016507
170.001,78.4337,0.016507
170.031,78.4399,0.016507
170.063,78.4462,0.016507
170.094,78.4523,0.016507
170.125,78.4587,0.016507
170.156,78.4648,0.016544
170.187,78.4709,0.016544
170.218,78.4777,0.016544
170.249,78.4834,0.016544
170.280,78.4896,0.016544
170.310,78.4957,0.016544
170.342,78.5021,0.016544
170.373,78.5082,0.016544
170.404,78.5144,0.016620
170.436,78.5206,0.016620
170.466,78.5271,0.016620
170.498,78.5333,0.016620
170.530,78.5396,0.016620
170.560,78.5455,0.016620
170.591,78.5519,0.016620
170.623,78.5583,0.016620
170.655,78.5645,0.016676
170.686,78.5710,0.016676
170.717,78.5769,0.016676
170.748,78.5831,0.016676
170.779,78.5893,0.016676
170.809,78.5954,0.016676
170.840,78.6016,0.016676
170.871,78.6078,0.016676
170.903,78.6142,0.016733
170.935,78.6206,0.016733
170.965,78.6268,0.016733
170.996,78.6327,0.016733
171.027,78.6392,0.016733
171.059,78.6455,0.016733
171.090,78.6517,0.016733
171.122,78.6579,0.016733
171.152,78.6642,0.016818
171.183,78.6703,0.016818
171.214,78.6764,0.016818
171.245,78.6826,0.016818
171.277,78.6892,0.016818
171.307,78.6951,0.016818
171.339,78.7014,0.016818
171.370,78.7076,0.016818
171.401,78.7138,0.016818
171.431,78.7198,0.016818
171.462,78.7260,0.016818
171.493,78.7322,0.016818
171.524,78.7384,0.016818
171.555,78.7445,0.016818
171.586,78.7508,0.016818
171.616,78.7569,0.016818
171.648,78.7631,0.016865
171.679,78.7694,0.016865
171.710,78.7756,0.016865
171.741,78.7819,0.016865
171.773,78.7880,0.016865
171.803,78.7942,0.016865
171.835,78.8008,0.016865
171.866,78.8067,0.016865
171.896,78.8128,0.016940
171.927,78.8189,0.016940
171.957,78.8250,0.016940
171.988,78.8312,0.016940
172.019,78.8375,0.016940
172.050,78.8437,0.016940
172.081,78.8498,0.016940
172.112,78.8561,0.016940
172.143,78.8622,0.016959
172.175,78.8685,0.016959
172.207,78.8751,0.016959
172.237,78.8809,0.016959
172.268,78.8872,0.016959
172.300,78.8937,0.016959
172.331,78.8999,0.016959
172.362,78.9059,0.016987
172.392,78.9120,0.016987
172.423,78.9182,0.016987
172.454,78.9243,0.016987
172.487,78.9309,0.016987
172.515,78.9366,0.016987
172.547,78.9430,0.016987
172.578,78.9491,0.016987
172.609,78.9556,0.016987
172.640,78.9616,0.016978
172.671,78.9680,0.016978
172.703,78.9742,0.016978
172.734,78.9805,0.016978
172.765,78.9864,0.016978
172.795,78.9926,0.016978
172.828,78.9991,0.016978
172.858,79.0053,0.016997
172.889,79.0114,0.016997
172.920,79.0176,0.016997
172.951,79.0239,0.016997
172.981,79.0298,0.016997
173.012,79.0359,0.016997
173.043,79.0421,0.016997
173.074,79.0484,0.016997
173.106,79.0546,0.016997
173.137,79.0608,0.016978
173.168,79.0672,0.016978
173.199,79.0733,0.016978
173.230,79.0796,0.016978
173.261,79.0857,0.016978
173.293,79.0922,0.016978
173.323,79.0982,0.016978
173.355,79.1046,0.016978
173.386,79.1110,0.016978
173.418,79.1172,0.016959
173.449,79.1234,0.016959
173.479,79.1294,0.016959
173.511,79.1358,0.016959
173.544,79.1422,0.016959
173.573,79.1483,0.016959
173.603,79.1541,0.016959
173.634,79.1604,0.016884
173.664,79.1664,0.016884
173.696,79.1727,0.016884
173.726,79.1787,0.016884
173.757,79.1850,0.016884
173.788,79.1912,0.016884
173.819,79.1973,0.016884
173.850,79.2035,0.016884
173.881,79.2098,0.016780
173.912,79.2160,0.016780
173.943,79.2221,0.016780
173.974,79.2283,0.016780
174.005,79.2345,0.016780
174.036,79.2407,0.016780
174.067,79.2470,0.016780
174.098,79.2532,0.016780
174.130,79.2595,0.016714
174.160,79.2655,0.016714
174.192,79.2721,0.016714
174.223,79.2781,0.016714
174.254,79.2845,0.016714
174.285,79.2905,0.016714
174.317,79.2971,0.016714
174.349,79.3033,0.016714
174.380,79.3095,0.016516
174.411,79.3158,0.016516
174.443,79.3223,0.016516
174.475,79.3285,0.016516
174.507,79.3349,0.016516
174.537,79.3409,0.016516
174.569,79.3475,0.016516
174.601,79.3538,0.016516
174.631,79.3599,0.016516
174.662,79.3661,0.016403
174.693,79.3721,0.016403
174.724,79.3783,0.016403
174.755,79.3845,0.016403
174.786,79.3906,0.016403
174.816,79.3967,0.016403
174.847,79.4030,0.016403
174.878,79.4092,0.016346
174.910,79.4156,0.016346
174.940,79.4215,0.016346
174.971,79.4278,0.016346
175.003,79.4340,0.016346
175.034,79.4404,0.016346
175.065,79.4467,0.016346
175.096,79.4526,0.016346
175.126,79.4588,0.016196
175.157,79.4649,0.016196
175.188,79.4712,0.016196
175.219,79.4776,0.016196
175.250,79.4836,0.016196
175.282,79.4898,0.016196
175.313,79.4962,0.016196
175.344,79.5024,0.016196
175.375,79.5084,0.015979
175.406,79.5148,0.015979
175.437,79.5209,0.015979
175.467,79.5271,0.015979
175.498,79.5331,0.015979
175.529,79.5395,0.015979
175.561,79.5457,0.015979
175.592,79.5520,0.015979
175.623,79.5582,0.015743
175.654,79.5644,0.015743
175.685,79.5705,0.015743
175.716,79.5767,0.015743
175.747,79.5830,0.015743
175.777,79.5889,0.015743
175.809,79.5953,0.015743
175.840,79.6015,0.015743
175.870,79.6075,0.015357
175.901,79.6137,0.015357
175.932,79.6199,0.015357
175.964,79.6263,0.015357
175.995,79.6326,0.015357
176.026,79.6388,0.015357
176.056,79.6449,0.015357
176.087,79.6508,0.015357
176.117,79.6570,0.015357
176.148,79.6631,0.014905
176.180,79.6696,0.014905
176.211,79.6758,0.014905
176.242,79.6820,0.014905
176.273,79.6880,0.014905
176.305,79.6945,0.014905
176.336,79.7006,0.014905
176.366,79.7068,0.014905
176.397,79.7128,0.014424
176.428,79.7193,0.014424
176.460,79.7255,0.014424
176.491,79.7319,0.014424
176.523,79.7380,0.014424
176.553,79.7443,0.014424
176.585,79.7505,0.014424
176.616,79.7569,0.014424
176.648,79.7631,0.013746
176.680,79.7696,0.013746
176.711,79.7757,0.013746
176.743,79.7823,0.013746
176.773,79.7881,0.013746
176.805,79.7946,0.013746
176.836,79.8006,0.013746
176.866,79.8068,0.013746
176.897,79.8132,0.012842
176.928,79.8191,0.012842
176.959,79.8253,0.012842
176.991,79.8317,0.012842
177.022,79.8379,0.012842
177.053,79.8441,0.012842
177.084,79.8503,0.012842
177.115,79.8565,0.012842
177.146,79.8628,0.011655
177.177,79.8689,0.011655
177.209,79.8753,0.011655
177.239,79.8813,0.011655
177.271,79.8876,0.011655
177.302,79.8939,0.011655
177.333,79.9001,0.011655
177.365,79.9066,0.011655
177.395,79.9125,0.011655
177.427,79.9188,0.010053
177.458,79.9252,0.010053
177.489,79.9314,0.010053
177.520,79.9376,0.010053
177.551,79.9438,0.010053
177.582,79.9498,0.010053
177.613,79.9562,0.010053
177.643,79.9621,0.007933
177.675,79.9686,0.007933
177.705,79.9747,0.007933
177.735,79.9806,0.007933
177.766,79.9867,0.007933
177.797,79.9930,0.007933
177.828,79.9991,0.007933
177.860,80.0055,0.007933
177.891,80.0117,0.005417
177.923,80.0182,0.005417
177.953,80.0243,0.005417
177.984,80.0303,0.005417
178.014,80.0363,0.005417
178.045,80.0426,0.005417
178.076,80.0487,0.005417
178.106,80.0549,0.005417
178.137,80.0611,0.002751
178.169,80.0673,0.002751
178.200,80.0735,0.002751
178.231,80.0797,0.002751
178.263,80.0862,0.002751
178.293,80.0922,0.002751
178.325,80.0984,0.002751
178.356,80.1046,0.000132
178.387,80.1108,0.000132
178.418,80.1172,0.000132
178.448,80.1231,0.000132
178.480,80.1297,0.000132
178.511,80.1358,0.000132
178.542,80.1421,0.000132
178.573,80.1482,0.000132
178.604,80.1545,0.000132
178.635,80.1604,-0.002110
178.666,80.1669,-0.002110
178.697,80.1730,-0.002110
178.727,80.1789,-0.002110
178.759,80.1854,-0.002110
178.790,80.1914,-0.002110
178.820,80.1976,-0.002110
178.851,80.2037,-0.002110
178.882,80.2099,-0.003844
178.913,80.2160,-0.003844
178.944,80.2217,-0.003844
178.977,80.2267,-0.003844
179.007,80.2306,-0.003844
179.038,80.2341,-0.003844
179.069,80.2367,-0.003844
179.100,80.2387,-0.003844
179.130,80.2398,-0.005304
179.162,80.2403,-0.005304
179.193,80.2403,-0.005304
179.226,80.2403,-0.005304
179.256,80.2403,-0.005304
179.287,80.2403,-0.005304
179.318,80.2403,-0.005304
179.348,80.2403,-0.005304
179.380,80.2403,-0.005653
179.411,80.2403,-0.005653
179.441,80.2403,-0.005653
179.473,80.2403,-0.005653
179.504,80.2403,-0.005653
179.536,80.2403,-0.005653
179.566,80.2403,-0.005653
179.598,80.2403,-0.005653
179.629,80.2403,-0.004909
179.660,80.2403,-0.004909
179.690,80.2403,-0.004909
179.721,80.2403,-0.004909
179.752,80.2403,-0.004909
179.782,80.2403,-0.004909
179.814,80.2403,-0.004909
179.845,80.2403,-0.004909
179.876,80.2403,-0.004183
179.906,80.2403,-0.004183
179.938,80.2403,-0.004183
179.970,80.2403,-0.004183
180.000,80.2403,-0.004183
180.032,80.2403,-0.004183
180.062,80.2403,-0.004183
180.094,80.2403,-0.004183
180.124,80.2403,-0.004183
180.156,80.2403,-0.003703
180.187,80.2403,-0.003703
180.217,80.2403,-0.003703
180.248,80.2403,-0.003703
180.279,80.2403,-0.003703
180.310,80.2403,-0.003703
180.340,80.2403,-0.003703
180.372,80.2403,-0.003232
180.403,80.2403,-0.003232
180.434,80.2403,-0.003232
180.468,80.2403,-0.003232
180.496,80.2403,-0.003232
180.527,80.2403,-0.003232
180.558,80.2403,-0.003232
180.589,80.2403,-0.003232
180.620,80.2403,-0.002845
180.650,80.2403,-0.002845
180.681,80.2403,-0.002845
180.712,80.2403,-0.002845
180.743,80.2403,-0.002845
180.775,80.2403,-0.002845
180.805,80.2403,-0.002845
180.836,80.2403,-0.002845
180.868,80.2403,-0.002563
180.899,80.2403,-0.002563
180.930,80.2403,-0.002563
180.961,80.2403,-0.002563
180.993,80.2403,-0.002563
181.025,80.2403,-0.002563
181.056,80.2403,-0.002563
181.087,80.2403,-0.002563
181.119,80.2403,-0.002289
181.151,80.2403,-0.002289
181.182,80.2403,-0.002289
181.213,80.2403,-0.002289
181.245,80.2403,-0.002289
181.276,80.2403,-0.002289
181.306,80.2403,-0.002289
181.337,80.2403,-0.002289
181.368,80.2403,-0.002110
181.399,80.2403,-0.002110
181.429,80.2403,-0.002110
181.460,80.2403,-0.002110
181.491,80.2403,-0.002110
181.522,80.2403,-0.002110
181.553,80.2403,-0.002110
181.584,80.2403,-0.002110
181.615,80.2403,-0.001931
181.646,80.2403,-0.001931
181.677,80.2403,-0.001931
181.709,80.2403,-0.001931
181.739,80.2403,-0.001931
181.770,80.2403,-0.001931
181.800,80.2403,-0.001931
181.831,80.2403,-0.001931
181.862,80.2403,-0.001771
181.893,80.2403,-0.001771
181.924,80.2403,-0.001771
181.955,80.2403,-0.001771
181.985,80.2403,-0.001771
182.016,80.2403,-0.001771
182.047,80.2403,-0.001771
182.078,80.2403,-0.001771
182.109,80.2403,-0.001583
182.140,80.2403,-0.001583
182.171,80.2403,-0.001583
182.202,80.2403,-0.001583
182.233,80.2403,-0.001583
182.264,80.2403,-0.001583
182.295,80.2403,-0.001583
182.325,80.2403,-0.001583
182.357,80.2403,-0.001583
182.389,80.2403,-0.001583
182.419,80.2403,-0.001432
182.450,80.2403,-0.001432
182.480,80.2403,-0.001432
182.512,80.2403,-0.001432
182.543,80.2403,-0.001432
182.575,80.2403,-0.001432
182.605,80.2403,-0.001432
182.637,80.2403,-0.001281
182.668,80.2403,-0.001281
182.699,80.2403,-0.001281
182.730,80.2403,-0.001281
182.760,80.2403,-0.001281
182.792,80.2403,-0.001281
182.823,80.2403,-0.001281
182.854,80.2403,-0.001281
182.885,80.2403,-0.001093
182.915,80.2403,-0.001093
182.946,80.2403,-0.001093
182.977,80.2403,-0.001093
183.009,80.2403,-0.001093
183.040,80.2403,-0.001093
183.071,80.2403,-0.001093
183.103,80.2403,-0.000839
183.135,80.2403,-0.000839
183.167,80.2403,-0.000839
183.197,80.2403,-0.000839
183.229,80.2403,-0.000839
183.261,80.2403,-0.000839
183.291,80.2403,-0.000839
183.322,80.2403,-0.000839
183.354,80.2403,-0.000339
183.386,80.2403,-0.000339
183.415,80.2403,-0.000339
183.447,80.2403,-0.000339
183.478,80.2397,-0.000339
183.507,80.2386,-0.000339
183.539,80.2366,-0.000339
183.569,80.2340,-0.000339
183.600,80.2305,-0.000339
183.631,80.2264,-0.000339
183.661,80.2217,0.000207
183.693,80.2160,0.000207
183.723,80.2098,0.000207
183.754,80.2040,0.000207
183.785,80.1976,0.000207
183.816,80.1914,0.000207
183.847,80.1852,0.000207
183.878,80.1788,0.003034
183.909,80.1728,0.003034
183.940,80.1665,0.003034
183.971,80.1606,0.003034
184.002,80.1540,0.003034
184.035,80.1477,0.003034
184.065,80.1416,0.003034
184.096,80.1354,0.003034
184.127,80.1291,0.009280
184.159,80.1229,0.009280
184.190,80.1164,0.009280
184.223,80.1101,0.009280
184.252,80.1040,0.009280
184.283,80.0981,0.009280
184.314,80.0919,0.009280
184.345,80.0857,0.009280
184.376,80.0796,0.016667
184.407,80.0731,0.016667
184.438,80.0671,0.016667
184.469,80.0608,0.016667
184.499,80.0545,0.016667
184.530,80.0486,0.016667
184.561,80.0426,0.016667
184.591,80.0364,0.016667
184.622,80.0302,0.024930
184.654,80.0239,0.024930
184.684,80.0178,0.024930
184.716,80.0115,0.024930
184.746,80.0053,0.024930
184.777,79.9993,0.024930
184.808,79.9930,0.024930
184.838,79.9871,0.024930
184.869,79.9809,0.024930
184.900,79.9745,0.035227
184.931,79.9683,0.035227
184.963,79.9620,0.035227
184.994,79.9559,0.035227
185.025,79.9497,0.035227
185.056,79.9433,0.035227
185.087,79.9372,0.035227
185.117,79.9311,0.035227
185.148,79.9250,0.048295
185.179,79.9190,0.048295
185.209,79.9128,0.048295
185.241,79.9066,0.048295
185.272,79.9002,0.048295
185.303,79.8940,0.048295
185.334,79.8878,0.048295
185.366,79.8814,0.048295
185.398,79.8752,0.064613
185.428,79.8690,0.064613
185.458,79.8630,0.064613
185.489,79.8570,0.064613
185.519,79.8506,0.064613
185.550,79.8446,0.064613
185.581,79.8384,0.064613
185.611,79.8324,0.064613
185.643,79.8261,0.084333
185.673,79.8200,0.084333
185.704,79.8138,0.084333
185.736,79.8075,0.084333
185.767,79.8014,0.084333
185.798,79.7952,0.084333
185.829,79.7890,0.084333
185.860,79.7827,0.084333
185.892,79.7763,0.107519
185.924,79.7698,0.107519
185.955,79.7637,0.107519
185.986,79.7575,0.107519
186.018,79.7512,0.107519
186.049,79.7448,0.107519
186.081,79.7386,0.107519
186.113,79.7321,0.107519
186.143,79.7261,0.134409
186.176,79.7195,0.134409
186.206,79.7135,0.134409
186.237,79.7073,0.134409
186.268,79.7009,0.134409
186.299,79.6949,0.134409
186.330,79.6887,0.134409
186.361,79.6826,0.134409
186.392,79.6760,0.165142
186.424,79.6699,0.165142
186.454,79.6636,0.165142
186.486,79.6575,0.165142
186.518,79.6510,0.165142
186.549,79.6449,0.165142
186.580,79.6384,0.165142
186.611,79.6325,0.165142
186.642,79.6264,0.199757
186.673,79.6201,0.199757
186.704,79.6140,0.199757
186.734,79.6077,0.199757
186.765,79.6017,0.199757
186.796,79.5955,0.199757
186.826,79.5894,0.199757
186.857,79.5832,0.199757
186.887,79.5773,0.238235
186.920,79.5707,0.238235
186.950,79.5646,0.238235
186.981,79.5584,0.238235
187.011,79.5525,0.238235
187.043,79.5460,0.238235
187.073,79.5400,0.238235
187.104,79.5339,0.238235
187.136,79.5274,0.280660
187.167,79.5212,0.280660
187.198,79.5151,0.280660
187.229,79.5088,0.280660
187.260,79.5027,0.280660
187.291,79.4965,0.280660
187.321,79.4905,0.280660
187.353,79.4840,0.280660
187.384,79.4779,0.327080
187.415,79.4717,0.327080
187.446,79.4655,0.327080
187.477,79.4592,0.327080
187.509,79.4529,0.327080
187.540,79.4467,0.327080
187.571,79.4405,0.327080
187.603,79.4342,0.377335
187.634,79.4280,0.377335
187.665,79.4216,0.377335
187.697,79.4152,0.377335
187.727,79.4091,0.377335
187.758,79.4029,0.377335
187.789,79.3968,0.377335
187.818,79.3911,0.377335
187.850,79.3847,0.430181
187.881,79.3785,0.430181
187.912,79.3721,0.430181
187.943,79.3661,0.430181
187.973,79.3599,0.430181
188.004,79.3539,0.430181
188.036,79.3473,0.430181
188.067,79.3413,0.430181
188.098,79.3349,0.430181
188.129,79.3289,0.485580
188.160,79.3227,0.485580
188.191,79.3165,0.485580
188.222,79.3103,0.485580
188.253,79.3041,0.485580
188.284,79.2979,0.485580
188.315,79.2918,0.485580
188.346,79.2856,0.485580
188.378,79.2790,0.544446
188.408,79.2729,0.544446
188.440,79.2667,0.544446
188.471,79.2607,0.544446
188.502,79.2544,0.544446
188.533,79.2482,0.544446
188.565,79.2418,0.544446
188.596,79.2356,0.544446
188.627,79.2293,0.544446
188.658,79.2231,0.606704
188.689,79.2166,0.606704
188.721,79.2105,0.606704
188.752,79.2042,0.606704
188.783,79.1980,0.606704
188.814,79.1919,0.606704
188.845,79.1856,0.606704
188.876,79.1794,0.606704
188.907,79.1732,0.606704
188.939,79.1670,0.672599
188.969,79.1608,0.672599
188.999,79.1546,0.672599
189.030,79.1487,0.672599
189.062,79.1423,0.672599
189.092,79.1364,0.672599
189.123,79.1301,0.672599
189.154,79.1240,0.741753
189.185,79.1175,0.741753
189.216,79.1115,0.741753
189.248,79.1049,0.741753
189.280,79.0988,0.741753
189.310,79.0926,0.741753
189.341,79.0865,0.741753
189.372,79.0803,0.741753
189.404,79.0739,0.814017
189.434,79.0679,0.814017
189.465,79.0617,0.814017
189.496,79.0555,0.814017
189.527,79.0493,0.814017
189.557,79.0432,0.814017
189.588,79.0370,0.814017
189.619,79.0308,0.814017
189.649,79.0250,0.889220
189.680,79.0188,0.889220
189.711,79.0126,0.889220
189.741,79.0063,0.889220
189.772,79.0004,0.889220
189.803,78.9941,0.889220
189.834,78.9879,0.889220
189.865,78.9816,0.967259
189.898,78.9751,0.967259
189.927,78.9693,0.967259
189.958,78.9630,0.967259
189.990,78.9568,0.967259
190.020,78.9505,0.967259
190.051,78.9445,0.967259
190.082,78.9382,0.967259
190.112,78.9322,1.048209
190.144,78.9258,1.048209
190.175,78.9197,1.048209
190.206,78.9135,1.048209
190.237,78.9074,1.048209
190.267,78.9014,1.048209
190.298,78.8949,1.048209
190.330,78.8887,1.048209
190.361,78.8825,1.131675
190.392,78.8763,1.131675
190.423,78.8701,1.131675
190.454,78.8639,1.131675
190.485,78.8577,1.131675
190.516,78.8515,1.131675
190.547,78.8453,1.131675
190.578,78.8391,1.131675
190.609,78.8328,1.131675
190.639,78.8269,1.218250
190.670,78.8207,1.218250
190.701,78.8145,1.218250
190.731,78.8083,1.218250
190.762,78.8023,1.218250
190.794,78.7959,1.218250
190.825,78.7899,1.218250
190.856,78.7834,1.218250
190.888,78.7772,1.308067
190.919,78.7709,1.308067
190.949,78.7649,1.308067
190.981,78.7585,1.308067
191.011,78.7525,1.308067
191.042,78.7462,1.308067
191.072,78.7402,1.308067
191.103,78.7339,1.308067
191.135,78.7276,1.400907
191.166,78.7215,1.400907
191.197,78.7153,1.400907
191.228,78.7091,1.400907
191.259,78.7029,1.400907
191.291,78.6965,1.400907
191.322,78.6904,1.400907
191.353,78.6839,1.400907
191.384,78.6779,1.496555
191.415,78.6718,1.496555
191.446,78.6656,1.496555
191.477,78.6593,1.496555
191.509,78.6528,1.496555
191.541,78.6466,1.496555
191.571,78.6405,1.496555
191.604,78.6340,1.496555
191.633,78.6281,1.594606
191.665,78.6217,1.594606
191.696,78.6155,1.594606
191.728,78.6090,1.594606
191.759,78.6028,1.594606
191.791,78.5965,1.594606
191.822,78.5903,1.594606
191.853,78.5840,1.594606
191.884,78.5780,1.694851
191.914,78.5717,1.694851
191.946,78.5656,1.694851
191.977,78.5592,1.694851
192.008,78.5531,1.694851
192.040,78.5466,1.694851
192.070,78.5407,1.694851
192.102,78.5342,1.797707
192.133,78.5282,1.797707
192.164,78.5218,1.797707
192.195,78.5155,1.797707
192.226,78.5094,1.797707
192.256,78.5035,1.797707
192.287,78.4974,1.797707
192.317,78.4913,1.797707
192.348,78.4851,1.797707
192.379,78.4789,1.903710
192.410,78.4729,1.903710
192.441,78.4667,1.903710
192.472,78.4603,1.903710
192.503,78.4541,1.903710
192.535,78.4477,1.903710
192.565,78.4416,1.903710
192.596,78.4355,1.903710
192.627,78.4293,2.010786
192.658,78.4230,2.010786
192.689,78.4168,2.010786
192.720,78.4106,2.010786
192.751,78.4045,2.010786
192.782,78.3983,2.010786
192.814,78.3917,2.010786
192.845,78.3858,2.010786
192.877,78.3793,1.178755
192.907,78.3733,1.178755
192.939,78.3669,1.178755
192.969,78.3609,1.178755
193.001,78.3545,1.178755
193.032,78.3483,1.178755
193.064,78.3420,1.178755
193.095,78.3357,1.178755
193.127,78.3294,1.178755
193.158,78.3232,0.156229
193.189,78.3170,0.156229
193.220,78.3106,0.156229
193.251,78.3046,0.156229
193.282,78.2982,0.156229
193.315,78.2918,0.156229
193.344,78.2858,0.156229
193.373,78.2799,0.018919
193.405,78.2737,0.018919
193.435,78.2676,0.018919
193.467,78.2614,0.018919
193.498,78.2549,0.018919
193.530,78.2487,0.018919
193.561,78.2424,0.018919
193.592,78.2365,0.018919
193.622,78.2301,0.018919
193.654,78.2241,0.018749
193.686,78.2174,0.018749
193.717,78.2113,0.018749
193.749,78.2048,0.018749
193.781,78.1986,0.018749
193.812,78.1922,0.018749
193.843,78.1860,0.018749
193.875,78.1798,0.018702
193.905,78.1737,0.018702
193.936,78.1674,0.018702
193.968,78.1612,0.018702
193.998,78.1551,0.018702
194.029,78.1490,0.018702
194.059,78.1428,0.018702
194.090,78.1366,0.018702
194.121,78.1304,0.018702
194.153,78.1242,0.018570
194.185,78.1178,0.018570
194.215,78.1117,0.018570
194.247,78.1052,0.018570
194.278,78.0992,0.018570
194.308,78.0931,0.018570
194.339,78.0869,0.018570
194.370,78.0807,0.018570
194.401,78.0746,0.018570
194.432,78.0684,0.018457
194.463,78.0621,0.018457
194.494,78.0559,0.018457
194.525,78.0497,0.018457
194.558,78.0432,0.018457
194.587,78.0373,0.018457
194.618,78.0310,0.018457
194.649,78.0249,0.018457
194.680,78.0188,0.018457
194.711,78.0126,0.018457
194.742,78.0064,0.018457
194.773,78.0002,0.018457
194.804,77.9939,0.018457
194.835,77.9878,0.018457
194.866,77.9815,0.018457
194.896,77.9755,0.018438
194.928,77.9692,0.018438
194.958,77.9629,0.018438
194.989,77.9568,0.018438
195.020,77.9507,0.018438
195.052,77.9444,0.018438
195.082,77.9384,0.018438
195.113,77.9320,0.018438
195.144,77.9260,0.018410
195.176,77.9195,0.018410
195.206,77.9135,0.018410
195.238,77.9072,0.018410
195.268,77.9011,0.018410
195.300,77.8947,0.018410
195.331,77.8885,0.018410
195.363,77.8821,0.018410
195.393,77.8762,0.018306
195.424,77.8699,0.018306
195.456,77.8637,0.018306
195.487,77.8572,0.018306
195.518,77.8511,0.018306
195.549,77.8448,0.018306
195.580,77.8388,0.018306
195.612,77.8323,0.018306
195.642,77.8263,0.018259
195.673,77.8200,0.018259
195.704,77.8139,0.018259
195.736,77.8075,0.018259
195.767,77.8014,0.018259
195.799,77.7948,0.018259
195.832,77.7884,0.018259
195.862,77.7822,0.018259
195.893,77.7761,0.018212
195.925,77.7698,0.018212
195.955,77.7638,0.018212
195.987,77.7574,0.018212
196.019,77.7508,0.018212
196.049,77.7450,0.018212
196.080,77.7388,0.018212
196.111,77.7324,0.018118
196.143,77.7262,0.018118
196.174,77.7198,0.018118
196.206,77.7137,0.018118
196.237,77.7074,0.018118
196.267,77.7012,0.018118
196.299,77.6949,0.018118
196.329,77.6888,0.018118
196.359,77.6827,0.018118
196.391,77.6766,0.018080
196.422,77.6703,0.018080
196.453,77.6642,0.018080
196.483,77.6580,0.018080
196.514,77.6519,0.018080
196.545,77.6456,0.018080
196.577,77.6393,0.018080
196.608,77.6331,0.018080
196.639,77.6270,0.017995
196.670,77.6207,0.017995
196.702,77.6144,0.017995
196.731,77.6085,0.017995
196.762,77.6025,0.017995
196.793,77.5961,0.017995
196.824,77.5899,0.017995
196.856,77.5836,0.017995
196.887,77.5774,0.017967
196.918,77.5711,0.017967
196.949,77.5649,0.017967
196.981,77.5586,0.017967
197.012,77.5522,0.017967
197.043,77.5460,0.017967
197.074,77.5401,0.017967
197.105,77.5337,0.017929
197.136,77.5275,0.017929
197.168,77.5212,0.017929
197.198,77.5151,0.017929
197.229,77.5091,0.017929
197.260,77.5026,0.017929
197.290,77.4967,0.017929
197.321,77.4905,0.017929
197.352,77.4844,0.017929
197.383,77.4779,0.017854
197.415,77.4717,0.017854
197.446,77.4654,0.017854
197.478,77.4592,0.017854
197.511,77.4525,0.017854
197.540,77.4467,0.017854
197.571,77.4405,0.017854
197.601,77.4344,0.017854
197.633,77.4280,0.017779
197.663,77.4220,0.017779
197.694,77.4160,0.017779
197.725,77.4096,0.017779
197.755,77.4039,0.017779
197.785,77.3976,0.017779
197.817,77.3914,0.017779
197.848,77.3849,0.017779
197.880,77.3788,0.017694
197.911,77.3725,0.017694
197.941,77.3664,0.017694
197.972,77.3602,0.017694
198.003,77.3543,0.017694
198.034,77.3476,0.017694
198.065,77.3418,0.017694
198.096,77.3356,0.017694
198.127,77.3294,0.017647
198.157,77.3233,0.017647
198.188,77.3170,0.017647
198.219,77.3109,0.017647
198.251,77.3046,0.017647
198.281,77.2985,0.017647
198.312,77.2922,0.017647
198.343,77.2861,0.017647
198.375,77.2797,0.017647
198.406,77.2735,0.017534
198.438,77.2671,0.017534
198.469,77.2610,0.017534
198.501,77.2546,0.017534
198.532,77.2482,0.017534
198.564,77.2419,0.017534
198.595,77.2357,0.017534
198.627,77.2294,0.017534
198.658,77.2232,0.017439
198.689,77.2171,0.017439
198.720,77.2112,0.017439
198.751,77.2060,0.017439
198.781,77.2015,0.017439
198.812,77.1979,0.017439
198.843,77.1948,0.017439
198.874,77.1927,0.017289
198.904,77.1912,0.017289
198.935,77.1903,0.017289
198.966,77.1902,0.017289
198.997,77.1902,0.017289
199.029,77.1902,0.017289
199.060,77.1902,0.017289
199.091,77.1902,0.017289
199.123,77.1902,0.017289
199.154,77.1902,0.017091
199.185,77.1902,0.017091
199.217,77.1902,0.017091
199.247,77.1902,0.017091
199.278,77.1902,0.017091
199.310,77.1902,0.017091
199.341,77.1902,0.017091
199.373,77.1902,0.017091
199.404,77.1902,0.017044
199.436,77.1902,0.017044
199.466,77.1902,0.017044
199.497,77.1902,0.017044
199.528,77.1902,0.017044
199.559,77.1902,0.017044
199.591,77.1902,0.017044
199.623,77.1902,0.017044
199.654,77.1902,0.016949
199.685,77.1905,0.016949
199.715,77.1914,0.016949
199.746,77.1932,0.016949
199.777,77.1957,0.016949
199.807,77.1988,0.016949
199.838,77.2026,0.016949
199.870,77.2073,0.016949
199.901,77.2127,0.016752
199.932,77.2187,0.016752
199.963,77.2252,0.016752
199.994,77.2311,0.016752
200.024,77.2372,0.016752
200.056,77.2437,0.016752
200.087,77.2497,0.016752
200.119,77.2561,0.016752
200.150,77.2624,0.016620
200.180,77.2685,0.016620
200.212,77.2748,0.016620
200.244,77.2812,0.016620
200.275,77.2874,0.016620
200.306,77.2938,0.016620
200.336,77.2996,0.016620
200.367,77.3058,0.016620
200.398,77.3120,0.016573
200.430,77.3184,0.016573
200.460,77.3245,0.016573
200.491,77.3307,0.016573
200.522,77.3367,0.016573
200.553,77.3430,0.016573
200.583,77.3490,0.016573
200.615,77.3554,0.016573
200.645,77.3614,0.016516
200.677,77.3678,0.016516
200.709,77.3741,0.016516
200.739,77.3802,0.016516
200.770,77.3863,0.016516
200.801,77.3925,0.016516
200.832,77.3988,0.016516
200.863,77.4049,0.016516
200.894,77.4113,0.016488
200.926,77.4175,0.016488
200.957,77.4237,0.016488
200.988,77.4299,0.016488
201.019,77.4361,0.016488
201.050,77.4423,0.016488
201.081,77.4485,0.016488
201.112,77.4547,0.016488
201.142,77.4608,0.016460
201.173,77.4670,0.016460
201.204,77.4732,0.016460
201.235,77.4793,0.016460
201.266,77.4856,0.016460
201.297,77.4917,0.016460
201.329,77.4980,0.016460
201.359,77.5044,0.016460
201.390,77.5103,0.016441
201.421,77.5166,0.016441
201.453,77.5228,0.016441
201.484,77.5292,0.016441
201.514,77.5354,0.016441
201.546,77.5414,0.016441
201.577,77.5479,0.016441
201.608,77.5540,0.016441
201.639,77.5603,0.016441
201.671,77.5665,0.016375
201.702,77.5729,0.016375
201.733,77.5790,0.016375
201.764,77.5851,0.016375
201.795,77.5914,0.016375
201.826,77.5975,0.016375
201.857,77.6038,0.016375
201.888,77.6099,0.016309
201.919,77.6161,0.016309
201.951,77.6224,0.016309
201.982,77.6287,0.016309
202.013,77.6350,0.016309
202.044,77.6413,0.016309
202.076,77.6475,0.016309
202.106,77.6536,0.016309
202.137,77.6598,0.016281
202.168,77.6660,0.016281
202.199,77.6723,0.016281
202.230,77.6785,0.016281
202.261,77.6846,0.016281
202.292,77.6908,0.016281
202.324,77.6972,0.016281
202.355,77.7034,0.016281
202.386,77.7097,0.016233
202.418,77.7159,0.016233
202.449,77.7221,0.016233
202.481,77.7285,0.016233
202.511,77.7347,0.016233
202.542,77.7409,0.016233
202.573,77.7471,0.016233
202.604,77.7531,0.016233
202.635,77.7593,0.016224
202.666,77.7655,0.016224
202.696,77.7715,0.016224
202.727,77.7780,0.016224
202.758,77.7839,0.016224
202.789,77.7902,0.016224
202.819,77.7962,0.016224
202.851,77.8026,0.016224
202.881,77.8086,0.016205
202.913,77.8149,0.016205
202.944,77.8211,0.016205
202.975,77.8273,0.016205
203.006,77.8335,0.016205
203.037,77.8398,0.016205
203.069,77.8460,0.016205
203.100,77.8524,0.016205
203.131,77.8586,0.016177
203.162,77.8648,0.016177
203.193,77.8710,0.016177
203.224,77.8772,0.016177
203.256,77.8836,0.016177
203.286,77.8897,0.016177
203.320,77.8964,0.016177
203.349,77.9022,0.016243
203.379,77.9081,0.016243
203.409,77.9144,0.016243
203.440,77.9203,0.016243
203.471,77.9265,0.016243
203.502,77.9326,0.016243
203.533,77.9388,0.016243
203.564,77.9451,0.016243
203.596,77.9516,0.016243
203.627,77.9578,0.016252
203.659,77.9641,0.016252
203.689,77.9702,0.016252
203.719,77.9763,0.016252
203.751,77.9826,0.016252
203.782,77.9889,0.016252
203.813,77.9949,0.016252
203.844,78.0013,0.016252
203.878,78.0080,0.016262
203.906,78.0136,0.016262
203.937,78.0198,0.016262
203.968,78.0260,0.016262
203.999,78.0322,0.016262
204.030,78.0383,0.016262
204.060,78.0446,0.016262
204.091,78.0506,0.016262
204.122,78.0570,0.016262
204.153,78.0631,0.016262
204.185,78.0695,0.016262
204.215,78.0754,0.016262
204.246,78.0814,0.016262
204.276,78.0875,0.016262
204.307,78.0938,0.016262
204.338,78.1000,0.016262
204.369,78.1061,0.016262
204.399,78.1127,0.016224
204.431,78.1185,0.016224
204.462,78.1246,0.016224
204.493,78.1309,0.016224
204.524,78.1372,0.016224
204.555,78.1434,0.016224
204.586,78.1496,0.016224
204.617,78.1557,0.016224
204.649,78.1621,0.016318
204.680,78.1683,0.016318
204.712,78.1748,0.016318
204.742,78.1808,0.016318
204.774,78.1871,0.016318
204.803,78.1931,0.016318
204.834,78.1993,0.016318
204.866,78.2055,0.016365
204.897,78.2118,0.016365
204.927,78.2177,0.016365
204.959,78.2241,0.016365
204.989,78.2301,0.016365
205.020,78.2365,0.016365
205.052,78.2427,0.016365
205.083,78.2490,0.016365
205.114,78.2552,0.016422
205.146,78.2616,0.016422
205.176,78.2676,0.016422
205.208,78.2740,0.016422
205.239,78.2801,0.016422
205.270,78.2863,0.016422
205.300,78.2924,0.016422
205.332,78.2987,0.016422
205.364,78.3052,0.016488
205.394,78.3113,0.016488
205.426,78.3177,0.016488
205.457,78.3238,0.016488
205.488,78.3301,0.016488
205.518,78.3361,0.016488
205.550,78.3423,0.016488
205.580,78.3483,0.016488
205.611,78.3545,0.016497
205.642,78.3607,0.016497
205.673,78.3669,0.016497
205.705,78.3734,0.016497
205.736,78.3796,0.016497
205.767,78.3858,0.016497
205.798,78.3919,0.016497
205.829,78.3982,0.016497
205.860,78.4044,0.016497
205.892,78.4106,0.016497
205.923,78.4169,0.016497
205.954,78.4231,0.016497
205.987,78.4297,0.016497
206.016,78.4355,0.016497
206.047,78.4416,0.016497
206.077,78.4478,0.016497
206.109,78.4541,0.016497
206.140,78.4603,0.016497
206.170,78.4665,0.016507
206.202,78.4727,0.016507
206.233,78.4788,0.016507
206.264,78.4851,0.016507
206.297,78.4918,0.016507
206.327,78.4978,0.016507
206.359,78.5042,0.016507
206.389,78.5101,0.016507
206.420,78.5163,0.016629
206.451,78.5226,0.016629
206.481,78.5285,0.016629
206.512,78.5347,0.016629
206.543,78.5409,0.016629
206.574,78.5471,0.016629
206.605,78.5533,0.016629
206.635,78.5593,0.016629
206.666,78.5656,0.016704
206.697,78.5717,0.016704
206.729,78.5783,0.016704
206.760,78.5842,0.016704
206.790,78.5904,0.016704
206.822,78.5966,0.016704
206.853,78.6030,0.016704
206.884,78.6092,0.016714
206.916,78.6155,0.016714
206.947,78.6217,0.016714
206.978,78.6279,0.016714
207.009,78.6340,0.016714
207.039,78.6400,0.016714
207.069,78.6464,0.016714
207.100,78.6523,0.016714
207.131,78.6588,0.016714
207.163,78.6650,0.016752
207.193,78.6710,0.016752
207.224,78.6771,0.016752
207.255,78.6834,0.016752
207.286,78.6896,0.016752
207.317,78.6958,0.016752
207.349,78.7020,0.016752
207.379,78.7081,0.016827
207.410,78.7143,0.016827
207.440,78.7204,0.016827
207.472,78.7267,0.016827
207.503,78.7329,0.016827
207.534,78.7391,0.016827
207.565,78.7452,0.016827
207.596,78.7514,0.016827
207.627,78.7576,0.016884
207.658,78.7639,0.016884
207.689,78.7701,0.016884
207.720,78.7765,0.016884
207.751,78.7825,0.016884
207.782,78.7887,0.016884
207.813,78.7949,0.016884
207.845,78.8013,0.016884
207.875,78.8072,0.016893
207.905,78.8134,0.016893
207.936,78.8195,0.016893
207.967,78.8257,0.016893
207.998,78.8318,0.016893
208.029,78.8381,0.016893
208.060,78.8443,0.016893
208.091,78.8506,0.016893
208.122,78.8567,0.016931
208.153,78.8629,0.016931
208.183,78.8690,0.016931
208.214,78.8751,0.016931
208.245,78.8813,0.016931
208.277,78.8876,0.016931
208.307,78.8937,0.016931
208.338,78.9000,0.016931
208.369,78.9062,0.016959
208.401,78.9125,0.016959
208.432,78.9186,0.016959
208.464,78.9250,0.016959
208.495,78.9314,0.016959
208.527,78.9376,0.016959
208.557,78.9439,0.016959
208.588,78.9501,0.016959
208.619,78.9562,0.016931
208.651,78.9625,0.016931
208.682,78.9686,0.016931
208.713,78.9750,0.016931
208.744,78.9811,0.016931
208.776,78.9876,0.016931
208.806,78.9935,0.016931
208.838,79.0000,0.016931
208.868,79.0059,0.016931
208.899,79.0124,0.016921
208.930,79.0183,0.016921
208.962,79.0248,0.016921
208.993,79.0310,0.016921
209.024,79.0373,0.016921
209.055,79.0434,0.016921
209.087,79.0497,0.016921
209.118,79.0559,0.016846
209.149,79.0622,0.016846
209.181,79.0685,0.016846
209.212,79.0749,0.016846
209.243,79.0809,0.016846
209.275,79.0873,0.016846
209.306,79.0935,0.016846
209.336,79.0997,0.016846
209.367,79.1056,0.016846
209.397,79.1118,0.016818
209.428,79.1180,0.016818
209.459,79.1242,0.016818
209.490,79.1303,0.016818
209.522,79.1366,0.016818
209.552,79.1427,0.016818
209.584,79.1492,0.016818
209.615,79.1552,0.016808
209.647,79.1618,0.016808
209.677,79.1678,0.016808
209.709,79.1741,0.016808
209.739,79.1802,0.016808
209.770,79.1864,0.016808
209.801,79.1926,0.016808
209.832,79.1988,0.016808
209.863,79.2048,0.016667
209.895,79.2113,0.016667
209.925,79.2175,0.016667
209.956,79.2236,0.016667
209.988,79.2298,0.016667
210.020,79.2363,0.016667
210.052,79.2427,0.016667
210.081,79.2486,0.016667
210.113,79.2549,0.016667
210.144,79.2613,0.016667
210.176,79.2673,0.016469
210.206,79.2735,0.016469
210.236,79.2795,0.016469
210.267,79.2858,0.016469
210.298,79.2919,0.016469
210.329,79.2981,0.016469
210.360,79.3044,0.016469
210.391,79.3105,0.016318
210.423,79.3168,0.016318
210.454,79.3232,0.016318
210.484,79.3291,0.016318
210.518,79.3358,0.016318
210.547,79.3416,0.016318
210.577,79.3477,0.016318
210.609,79.3542,0.016318
210.640,79.3604,0.016318
210.672,79.3667,0.016149
210.703,79.3729,0.016149
210.734,79.3790,0.016149
210.764,79.3852,0.016149
210.795,79.3912,0.016149
210.827,79.3978,0.016149
210.859,79.4040,0.016149
210.890,79.4102,0.016149
210.920,79.4163,0.015970
210.952,79.4226,0.015970
210.983,79.4290,0.015970
211.014,79.4350,0.015970
211.045,79.4414,0.015970
211.076,79.4476,0.015970
211.107,79.4536,0.015970
211.137,79.4597,0.015630
211.169,79.4662,0.015630
211.200,79.4722,0.015630
211.231,79.4784,0.015630
211.262,79.4846,0.015630
211.294,79.4912,0.015630
211.325,79.4972,0.015630
211.356,79.5035,0.015630
211.387,79.5097,0.015263
211.418,79.5160,0.015263
211.450,79.5225,0.015263
211.482,79.5288,0.015263
211.513,79.5347,0.015263
211.544,79.5411,0.015263
211.575,79.5473,0.015263
211.605,79.5533,0.015263
211.636,79.5594,0.015263
211.668,79.5659,0.014896
211.698,79.5719,0.014896
211.730,79.5783,0.014896
211.760,79.5844,0.014896
211.793,79.5908,0.014896
211.823,79.5969,0.014896
211.855,79.6036,0.014896
211.886,79.6095,0.014274
211.917,79.6159,0.014274
211.948,79.6219,0.014274
211.979,79.6283,0.014274
212.010,79.6345,0.014274
212.041,79.6405,0.014274
212.071,79.6465,0.014274
212.102,79.6527,0.014274
212.133,79.6589,0.013482
212.164,79.6651,0.013482
212.195,79.6713,0.013482
212.225,79.6774,0.013482
212.257,79.6836,0.013482
212.287,79.6898,0.013482
212.319,79.6961,0.013482
212.350,79.7024,0.013482
212.383,79.7087,0.012389
212.414,79.7152,0.012389
212.447,79.7215,0.012389
212.478,79.7278,0.012389
212.509,79.7340,0.012389
212.539,79.7402,0.012389
212.570,79.7462,0.012389
212.601,79.7525,0.012389
212.632,79.7586,0.010920
212.662,79.7647,0.010920
212.692,79.7709,0.010920
212.723,79.7770,0.010920
212.754,79.7832,0.010920
212.785,79.7894,0.010920
212.816,79.7956,0.010920
212.847,79.8016,0.010920
212.879,79.8081,0.009026
212.910,79.8143,0.009026
212.940,79.8204,0.009026
212.971,79.8266,0.009026
213.002,79.8326,0.009026
213.033,79.8388,0.009026
213.063,79.8449,0.009026
213.094,79.8511,0.009026
213.126,79.8576,0.006623
213.157,79.8637,0.006623
213.188,79.8701,0.006623
213.220,79.8762,0.006623
213.251,79.8825,0.006623
213.282,79.8888,0.006623
213.313,79.8949,0.006623
213.344,79.9011,0.006623
213.375,79.9073,0.003825
213.406,79.9134,0.003825
213.438,79.9198,0.003825
213.468,79.9259,0.003825
213.499,79.9321,0.003825
213.531,79.9384,0.003825
213.562,79.9445,0.003825
213.593,79.9510,0.003825
213.624,79.9572,0.000904
213.655,79.9634,0.000904
213.687,79.9697,0.000904
213.718,79.9759,0.000904
213.749,79.9822,0.000904
213.780,79.9883,0.000904
213.812,79.9949,0.000904
213.846,80.0014,0.000904
213.874,80.0070,0.000904
213.905,80.0133,-0.001743
213.936,80.0194,-0.001743
213.967,80.0258,-0.001743
213.999,80.0320,-0.001743
214.029,80.0383,-0.001743
214.060,80.0444,-0.001743
214.091,80.0506,-0.001743
214.122,80.0568,-0.003891
214.154,80.0630,-0.003891
214.185,80.0693,-0.003891
214.217,80.0757,-0.003891
214.248,80.0818,-0.003891
214.280,80.0883,-0.003891
214.311,80.0945,-0.003891
214.343,80.1010,-0.003891
214.374,80.1070,-0.003891
214.405,80.1134,-0.005455
214.436,80.1194,-0.005455
214.466,80.1255,-0.005455
214.497,80.1317,-0.005455
214.527,80.1377,-0.005455
214.558,80.1438,-0.005455
214.590,80.1501,-0.005455
214.621,80.1566,-0.006821
214.653,80.1629,-0.006821
214.684,80.1689,-0.006821
214.715,80.1741,-0.006821
214.746,80.1785,-0.006821
214.777,80.1823,-0.006821
214.808,80.1854,-0.006821
214.839,80.1876,-0.006821
214.870,80.1892,-0.008866
214.902,80.1901,-0.008866
214.933,80.1902,-0.008866
214.964,80.1902,-0.008866
214.996,80.1902,-0.008866
215.026,80.1902,-0.008866
