Elapsed Time (s),Position (mm),Force (N)
-0.015,63.3807,0.015590
0.047,63.3807,0.015590
0.109,63.3807,0.015590
0.170,63.3807,0.015590
0.233,63.3807,0.015609
0.296,63.3807,0.015609
0.358,63.3807,0.015609
0.421,63.3807,0.015609
0.483,63.3807,0.015656
0.544,63.3807,0.015656
0.606,63.3807,0.015656
0.668,63.3807,0.015656
0.728,63.3807,0.015637
0.790,63.3807,0.015637
0.852,63.3807,0.015637
0.915,63.3807,0.015637
0.978,63.3807,0.015656
1.042,63.3807,0.015656
1.105,63.3807,0.015656
1.168,63.3807,0.015656
1.228,63.3807,0.015656
1.290,63.3807,0.015656
1.352,63.3807,0.015656
1.414,63.3807,0.015656
1.478,63.3807,0.015609
1.540,63.3807,0.015609
1.603,63.3807,0.015609
1.669,63.3807,0.015609
1.730,63.3807,0.015637
1.792,63.3807,0.015637
1.851,63.3807,0.015637
1.914,63.3807,0.015637
1.975,63.3807,0.015713
2.038,63.3807,0.015713
2.101,63.3807,0.015713
2.163,63.3807,0.015713
2.224,63.3807,0.015713
2.286,63.3807,0.015741
2.351,63.3807,0.015741
2.412,63.3807,0.015741
2.475,63.3807,0.015741
2.537,63.3807,0.015713
2.599,63.3807,0.015713
2.662,63.3807,0.015713
2.723,63.3807,0.015713
2.785,63.3807,0.015637
2.847,63.3807,0.015637
2.910,63.3807,0.015637
2.972,63.3807,0.015637
3.034,63.3807,0.015637
3.095,63.3807,0.015637
3.158,63.3807,0.015637
3.220,63.3807,0.015637
3.283,63.3807,0.015675
3.345,63.3807,0.015675
3.407,63.3807,0.015675
3.469,63.3807,0.015675
3.532,63.3807,0.015684
3.595,63.3807,0.015684
3.657,63.3807,0.015684
3.721,63.3807,0.015684
3.784,63.3807,0.015684
3.846,63.3807,0.015684
3.908,63.3807,0.015684
3.970,63.3807,0.015684
4.033,63.3807,0.015647
4.092,63.3807,0.015647
4.154,63.3802,0.015647
4.216,63.3771,0.015647
4.278,63.3711,0.015628
4.341,63.3623,0.015628
4.403,63.3507,0.015628
4.465,63.3381,0.015628
4.526,63.3259,0.015665
4.590,63.3130,0.015665
4.651,63.3009,0.015665
4.713,63.2884,0.015665
4.774,63.2761,0.015731
4.840,63.2630,0.015731
4.899,63.2513,0.015731
4.963,63.2383,0.015731
5.023,63.2265,0.015694
5.084,63.2142,0.015694
5.147,63.2017,0.015694
5.209,63.1893,0.015694
5.272,63.1765,0.015647
5.335,63.1641,0.015647
5.396,63.1517,0.015647
5.457,63.1397,0.015647
5.518,63.1274,0.015637
5.580,63.1150,0.015637
5.642,63.1028,0.015637
5.704,63.0902,0.015637
5.769,63.0773,0.015637
5.828,63.0653,0.015637
5.890,63.0531,0.015637
5.953,63.0406,0.015637
6.015,63.0281,0.015647
6.077,63.0157,0.015647
6.140,63.0030,0.015647
6.202,62.9908,0.015647
6.264,62.9782,0.015637
6.328,62.9656,0.015637
6.390,62.9532,0.015637
6.450,62.9410,0.015637
6.513,62.9285,0.015637
6.576,62.9160,0.015694
6.638,62.9036,0.015694
6.700,62.8912,0.015694
6.763,62.8785,0.015694
6.825,62.8661,0.015694
6.890,62.8532,0.015694
6.950,62.8411,0.015694
7.013,62.8284,0.015665
7.075,62.8163,0.015665
7.136,62.8039,0.015665
7.200,62.7911,0.015665
7.261,62.7789,0.015703
7.324,62.7664,0.015703
7.386,62.7539,0.015703
7.449,62.7413,0.015703
7.512,62.7287,0.015722
7.573,62.7164,0.015722
7.638,62.7034,0.015722
7.698,62.6916,0.015722
7.760,62.6790,0.015703
7.823,62.6664,0.015703
7.886,62.6540,0.015703
7.948,62.6415,0.015703
8.011,62.6290,0.015675
8.074,62.6165,0.015675
8.135,62.6041,0.015675
8.198,62.5914,0.015675
8.259,62.5792,0.015675
8.322,62.5668,0.015675
8.383,62.5544,0.015675
8.446,62.5419,0.015675
8.508,62.5295,0.015656
8.570,62.5172,0.015656
8.631,62.5048,0.015656
8.694,62.4923,0.015656
8.757,62.4797,0.015628
8.820,62.4670,0.015628
8.881,62.4550,0.015628
8.943,62.4425,0.015628
9.006,62.4300,0.015656
9.068,62.4175,0.015656
9.130,62.4051,0.015656
9.192,62.3928,0.015656
9.255,62.3802,0.015647
9.316,62.3678,0.015647
9.379,62.3554,0.015647
9.441,62.3430,0.015647
9.503,62.3306,0.015628
9.565,62.3182,0.015628
9.627,62.3057,0.015628
9.690,62.2933,0.015628
9.751,62.2810,0.015647
9.812,62.2687,0.015647
9.875,62.2562,0.015647
9.935,62.2441,0.015647
9.998,62.2316,0.015656
10.060,62.2192,0.015656
10.122,62.2068,0.015656
10.185,62.1942,0.015656
10.248,62.1816,0.015665
10.309,62.1691,0.015665
10.372,62.1567,0.015665
10.435,62.1442,0.015665
10.496,62.1319,0.015665
10.559,62.1192,0.015609
10.621,62.1068,0.015609
10.682,62.0947,0.015609
10.745,62.0822,0.015609
10.808,62.0696,0.015628
10.870,62.0571,0.015628
10.931,62.0448,0.015628
10.993,62.0326,0.015665
11.056,62.0200,0.015665
11.118,62.0075,0.015665
11.181,61.9949,0.015665
11.243,61.9827,0.015647
11.305,61.9703,0.015647
11.367,61.9579,0.015647
11.429,61.9454,0.015647
11.492,61.9327,0.015656
11.554,61.9204,0.015656
11.615,61.9083,0.015656
11.677,61.8958,0.015656
11.739,61.8834,0.015675
11.801,61.8710,0.015675
11.864,61.8584,0.015675
11.926,61.8460,0.015675
11.989,61.8335,0.015675
12.050,61.8211,0.015675
12.113,61.8084,0.015675
12.176,61.7960,0.015675
12.238,61.7836,0.015694
12.300,61.7712,0.015694
12.362,61.7587,0.015694
12.425,61.7461,0.015694
12.489,61.7334,0.015684
12.550,61.7213,0.015684
12.611,61.7089,0.015684
12.673,61.6965,0.015684
12.738,61.6834,0.015618
12.799,61.6712,0.015618
12.863,61.6584,0.015618
12.924,61.6463,0.015618
12.986,61.6339,0.015618
13.048,61.6215,0.015656
13.111,61.6090,0.015656
13.174,61.5965,0.015656
13.235,61.5841,0.015703
13.296,61.5719,0.015703
13.358,61.5595,0.015703
13.421,61.5469,0.015703
13.484,61.5342,0.015703
13.547,61.5217,0.015675
13.608,61.5094,0.015675
13.671,61.4969,0.015675
13.732,61.4846,0.015665
13.795,61.4722,0.015665
13.857,61.4598,0.015665
13.919,61.4474,0.015665
13.981,61.4350,0.015647
14.044,61.4225,0.015647
14.106,61.4100,0.015647
14.168,61.3974,0.015647
14.231,61.3849,0.015628
14.292,61.3727,0.015628
14.355,61.3602,0.015628
14.418,61.3476,0.015628
14.481,61.3348,0.015618
14.544,61.3224,0.015618
14.606,61.3101,0.015618
14.668,61.2976,0.015618
14.729,61.2853,0.015618
14.793,61.2725,0.015609
14.856,61.2599,0.015609
14.916,61.2479,0.015609
14.978,61.2356,0.015609
15.040,61.2232,0.015618
15.104,61.2100,0.015618
15.163,61.1985,0.015618
15.226,61.1860,0.015637
15.288,61.1736,0.015637
15.350,61.1612,0.015637
15.411,61.1488,0.015637
15.473,61.1364,0.015637
15.535,61.1240,0.015684
15.598,61.1114,0.015684
15.661,61.0990,0.015684
15.725,61.0861,0.015684
15.786,61.0739,0.015684
15.850,61.0612,0.015684
15.913,61.0482,0.015684
15.977,61.0357,0.015628
16.038,61.0235,0.015628
16.101,61.0110,0.015628
16.163,60.9986,0.015628
16.226,60.9859,0.015656
16.288,60.9736,0.015656
16.350,60.9612,0.015656
16.411,60.9490,0.015656
16.475,60.9363,0.015703
16.537,60.9238,0.015703
16.600,60.9110,0.015703
16.662,60.8987,0.015703
16.724,60.8865,0.015703
16.785,60.8743,0.015665
16.847,60.8618,0.015665
16.909,60.8492,0.015665
16.972,60.8367,0.015665
17.034,60.8243,0.015665
17.096,60.8119,0.015665
17.158,60.7995,0.015665
17.220,60.7870,0.015665
17.283,60.7747,0.015647
17.346,60.7619,0.015647
17.408,60.7495,0.015647
17.473,60.7365,0.015647
17.532,60.7249,0.015618
17.594,60.7123,0.015618
17.659,60.6993,0.015618
17.719,60.6874,0.015618
17.781,60.6751,0.015628
17.844,60.6622,0.015628
17.904,60.6504,0.015628
17.965,60.6380,0.015628
18.026,60.6260,0.015656
18.089,60.6135,0.015656
18.152,60.6008,0.015656
18.213,60.5885,0.015656
18.276,60.5760,0.015703
18.338,60.5637,0.015703
18.402,60.5508,0.015703
18.463,60.5384,0.015703
18.524,60.5263,0.015656
18.588,60.5136,0.015656
18.651,60.5010,0.015656
18.710,60.4891,0.015656
18.772,60.4768,0.015618
18.833,60.4645,0.015618
18.896,60.4519,0.015618
18.958,60.4396,0.015618
19.021,60.4269,0.015703
19.083,60.4147,0.015703
19.145,60.4021,0.015703
19.206,60.3899,0.015703
19.269,60.3773,0.015703
19.333,60.3647,0.015703
19.394,60.3524,0.015703
19.456,60.3400,0.015703
19.519,60.3274,0.015684
19.581,60.3150,0.015684
19.643,60.3026,0.015684
19.705,60.2901,0.015684
19.767,60.2777,0.015731
19.829,60.2655,0.015731
19.891,60.2531,0.015731
19.953,60.2407,0.015731
20.015,60.2283,0.015665
20.078,60.2156,0.015665
20.140,60.2033,0.015665
20.202,60.1908,0.015665
20.264,60.1783,0.015637
20.328,60.1658,0.015637
20.389,60.1535,0.015637
20.450,60.1412,0.015637
20.511,60.1292,0.015656
20.573,60.1165,0.015656
20.636,60.1040,0.015656
20.698,60.0915,0.015656
20.760,60.0791,0.015694
20.824,60.0664,0.015694
20.886,60.0539,0.015694
20.949,60.0412,0.015694
21.011,60.0291,0.015694
21.074,60.0164,0.015703
21.136,60.0042,0.015703
21.197,59.9917,0.015703
21.259,59.9793,0.015665
21.323,59.9667,0.015665
21.385,59.9543,0.015665
21.447,59.9419,0.015665
21.510,59.9294,0.015675
21.574,59.9162,0.015675
21.634,59.9044,0.015675
21.696,59.8920,0.015675
21.759,59.8795,0.015656
21.821,59.8671,0.015656
21.883,59.8546,0.015656
21.945,59.8422,0.015656
22.008,59.8295,0.015675
22.072,59.8169,0.015675
22.134,59.8043,0.015675
22.195,59.7921,0.015675
22.258,59.7798,0.015684
22.321,59.7670,0.015684
22.384,59.7544,0.015684
22.444,59.7422,0.015684
22.506,59.7301,0.015665
22.569,59.7175,0.015665
22.632,59.7049,0.015665
22.695,59.6922,0.015665
22.758,59.6797,0.015713
22.820,59.6669,0.015713
22.880,59.6551,0.015713
22.944,59.6424,0.015713
23.009,59.6294,0.015731
23.067,59.6178,0.015731
23.129,59.6053,0.015731
23.191,59.5930,0.015731
23.255,59.5802,0.015750
23.317,59.5678,0.015750
23.377,59.5557,0.015750
23.439,59.5434,0.015750
23.501,59.5309,0.015722
23.564,59.5184,0.015722
23.626,59.5059,0.015722
23.686,59.4938,0.015722
23.749,59.4813,0.015741
23.812,59.4689,0.015741
23.872,59.4567,0.015741
23.935,59.4441,0.015741
23.998,59.4315,0.015750
24.063,59.4185,0.015750
24.123,59.4066,0.015750
24.186,59.3941,0.015750
24.246,59.3819,0.015675
24.308,59.3696,0.015675
24.369,59.3575,0.015675
24.431,59.3463,0.015675
24.494,59.3383,0.015637
24.557,59.3331,0.015637
24.621,59.3308,0.015637
24.682,59.3307,0.015637
24.746,59.3307,0.015637
24.806,59.3307,0.015581
24.868,59.3307,0.015581
24.930,59.3307,0.015581
24.993,59.3307,0.015581
25.056,59.3307,0.015562
25.118,59.3307,0.015562
25.179,59.3307,0.015562
25.242,59.3307,0.015562
25.303,59.3311,0.015647
25.365,59.3342,0.015647
25.427,59.3400,0.015647
25.489,59.3488,0.015647
25.551,59.3606,0.015647
25.613,59.3730,0.015647
25.675,59.3853,0.015647
25.737,59.3977,0.015647
25.799,59.4100,0.015656
25.860,59.4221,0.015656
25.923,59.4348,0.015656
25.985,59.4472,0.015656
26.046,59.4596,0.015675
26.108,59.4717,0.015675
26.170,59.4842,0.015675
26.233,59.4969,0.015675
26.297,59.5095,0.015675
26.359,59.5219,0.015675
26.422,59.5348,0.015675
26.484,59.5471,0.015675
26.549,59.5600,0.015675
26.610,59.5722,0.015675
26.671,59.5843,0.015675
26.734,59.5969,0.015675
26.796,59.6094,0.015656
26.858,59.6218,0.015656
26.921,59.6344,0.015656
26.983,59.6468,0.015694
27.047,59.6596,0.015694
27.109,59.6719,0.015694
27.172,59.6845,0.015694
27.234,59.6968,0.015722
27.294,59.7091,0.015722
27.358,59.7217,0.015722
27.419,59.7340,0.015722
27.482,59.7467,0.015722
27.545,59.7591,0.015741
27.607,59.7717,0.015741
27.671,59.7843,0.015741
27.732,59.7967,0.015665
27.794,59.8089,0.015665
27.855,59.8212,0.015665
27.918,59.8337,0.015665
27.980,59.8461,0.015665
28.045,59.8592,0.015609
28.106,59.8713,0.015609
28.169,59.8838,0.015609
28.229,59.8961,0.015665
28.291,59.9083,0.015665
28.353,59.9207,0.015665
28.416,59.9333,0.015665
28.478,59.9456,0.015703
28.540,59.9580,0.015703
28.602,59.9704,0.015703
28.664,59.9828,0.015703
28.726,59.9953,0.015741
28.790,60.0082,0.015741
28.851,60.0204,0.015741
28.915,60.0330,0.015741
28.977,60.0456,0.015741
29.039,60.0579,0.015694
29.101,60.0704,0.015694
29.163,60.0828,0.015694
29.225,60.0952,0.015694
29.287,60.1076,0.015637
29.349,60.1200,0.015637
29.412,60.1325,0.015637
29.474,60.1449,0.015637
29.536,60.1572,0.015637
29.598,60.1698,0.015637
29.661,60.1824,0.015637
29.723,60.1948,0.015637
29.786,60.2073,0.015637
29.849,60.2200,0.015637
29.911,60.2325,0.015637
29.972,60.2445,0.015637
30.037,60.2577,0.015684
30.096,60.2694,0.015684
30.158,60.2817,0.015684
30.221,60.2942,0.015684
30.283,60.3066,0.015694
30.345,60.3192,0.015694
30.408,60.3318,0.015694
30.469,60.3440,0.015694
30.532,60.3565,0.015684
30.593,60.3689,0.015684
30.656,60.3813,0.015684
30.718,60.3937,0.015684
30.781,60.4064,0.015694
30.843,60.4188,0.015694
30.905,60.4313,0.015694
30.968,60.4439,0.015694
31.030,60.4561,0.015694
31.091,60.4682,0.015694
31.154,60.4810,0.015694
31.217,60.4935,0.015694
31.280,60.5062,0.015656
31.342,60.5187,0.015656
31.405,60.5313,0.015656
31.467,60.5438,0.015656
31.530,60.5562,0.015647
31.593,60.5688,0.015647
31.656,60.5814,0.015647
31.717,60.5935,0.015665
31.778,60.6057,0.015665
31.839,60.6179,0.015665
31.901,60.6303,0.015665
31.965,60.6430,0.015665
32.027,60.6554,0.015637
32.089,60.6679,0.015637
32.150,60.6801,0.015637
32.212,60.6927,0.015637
32.274,60.7049,0.015637
32.337,60.7175,0.015637
32.398,60.7298,0.015637
32.460,60.7422,0.015637
32.523,60.7547,0.015656
32.585,60.7670,0.015656
32.647,60.7795,0.015656
32.709,60.7919,0.015656
32.772,60.8046,0.015703
32.833,60.8168,0.015703
32.896,60.8294,0.015703
32.959,60.8418,0.015703
33.024,60.8550,0.015731
33.084,60.8670,0.015731
33.148,60.8799,0.015731
33.208,60.8918,0.015731
33.271,60.9044,0.015675
33.333,60.9167,0.015675
33.396,60.9292,0.015675
33.457,60.9416,0.015675
33.520,60.9540,0.015647
33.581,60.9663,0.015647
33.644,60.9791,0.015647
33.711,60.9924,0.015647
33.770,61.0040,0.015684
33.832,61.0166,0.015684
33.893,61.0288,0.015684
33.956,61.0414,0.015684
34.018,61.0536,0.015722
34.081,61.0662,0.015722
34.143,61.0788,0.015722
34.204,61.0910,0.015722
34.267,61.1035,0.015722
34.331,61.1164,0.015722
34.392,61.1285,0.015722
34.454,61.1411,0.015722
34.520,61.1541,0.015665
34.579,61.1659,0.015665
34.642,61.1784,0.015665
34.704,61.1911,0.015665
34.767,61.2035,0.015694
34.829,61.2159,0.015694
34.892,61.2285,0.015694
34.952,61.2405,0.015694
35.015,61.2533,0.015694
35.077,61.2656,0.015694
35.140,61.2781,0.015694
35.203,61.2908,0.015694
35.266,61.3032,0.015713
35.328,61.3157,0.015713
35.391,61.3283,0.015713
35.454,61.3409,0.015713
35.517,61.3535,0.015694
35.579,61.3661,0.015694
35.643,61.3787,0.015694
35.706,61.3914,0.015694
35.767,61.4035,0.015628
35.829,61.4159,0.015628
35.891,61.4286,0.015628
35.954,61.4411,0.015628
36.017,61.4535,0.015628
36.080,61.4661,0.015656
36.142,61.4785,0.015656
36.203,61.4907,0.015656
36.265,61.5030,0.015684
36.327,61.5154,0.015684
36.388,61.5278,0.015684
36.450,61.5402,0.015684
36.513,61.5528,0.015713
36.575,61.5650,0.015713
36.637,61.5775,0.015713
36.699,61.5899,0.015713
36.762,61.6026,0.015684
36.825,61.6150,0.015684
36.886,61.6272,0.015684
36.949,61.6400,0.015684
37.010,61.6522,0.015665
37.073,61.6647,0.015665
37.139,61.6780,0.015665
37.199,61.6900,0.015665
37.262,61.7027,0.015665
37.324,61.7148,0.015665
37.385,61.7272,0.015665
37.447,61.7396,0.015665
37.509,61.7520,0.015675
37.574,61.7649,0.015675
37.633,61.7768,0.015675
37.699,61.7900,0.015675
37.759,61.8019,0.015694
37.821,61.8143,0.015694
37.885,61.8270,0.015694
37.947,61.8395,0.015694
38.008,61.8517,0.015694
38.070,61.8643,0.015684
38.133,61.8767,0.015684
38.195,61.8891,0.015684
38.258,61.9017,0.015684
38.320,61.9142,0.015731
38.382,61.9265,0.015731
38.444,61.9389,0.015731
38.507,61.9516,0.015713
38.568,61.9637,0.015713
38.630,61.9761,0.015713
38.693,61.9889,0.015713
38.755,62.0012,0.015684
38.816,62.0133,0.015684
38.878,62.0257,0.015684
38.941,62.0384,0.015684
39.004,62.0508,0.015694
39.067,62.0636,0.015694
39.128,62.0758,0.015694
39.190,62.0881,0.015694
39.253,62.1008,0.015694
39.316,62.1132,0.015656
39.378,62.1256,0.015656
39.440,62.1380,0.015656
39.502,62.1504,0.015713
39.564,62.1629,0.015713
39.627,62.1753,0.015713
39.688,62.1877,0.015713
39.750,62.2002,0.015731
39.812,62.2124,0.015731
39.875,62.2250,0.015731
39.937,62.2373,0.015731
39.999,62.2498,0.015722
40.062,62.2624,0.015722
40.125,62.2750,0.015722
40.187,62.2874,0.015722
40.249,62.2998,0.015750
40.310,62.3121,0.015750
40.373,62.3246,0.015750
40.435,62.3370,0.015750
40.496,62.3493,0.015722
40.558,62.3618,0.015722
40.620,62.3742,0.015722
40.683,62.3868,0.015722
40.744,62.3990,0.015741
40.807,62.4114,0.015741
40.869,62.4240,0.015741
40.931,62.4363,0.015741
40.993,62.4487,0.015713
41.055,62.4613,0.015713
41.118,62.4738,0.015713
41.180,62.4862,0.015713
41.243,62.4988,0.015713
41.305,62.5112,0.015675
41.368,62.5237,0.015675
41.429,62.5358,0.015675
41.491,62.5482,0.015731
41.554,62.5609,0.015731
41.617,62.5734,0.015731
41.679,62.5859,0.015731
41.739,62.5981,0.015750
41.803,62.6108,0.015750
41.864,62.6230,0.015750
41.927,62.6356,0.015750
41.989,62.6478,0.015722
42.052,62.6604,0.015722
42.114,62.6729,0.015722
42.176,62.6853,0.015722
42.238,62.6977,0.015694
42.301,62.7101,0.015694
42.362,62.7225,0.015694
42.424,62.7349,0.015694
42.488,62.7475,0.015694
42.550,62.7601,0.015675
42.612,62.7724,0.015675
42.674,62.7850,0.015675
42.737,62.7974,0.015684
42.799,62.8099,0.015684
42.862,62.8226,0.015684
42.924,62.8349,0.015684
42.986,62.8473,0.015713
43.049,62.8599,0.015713
43.111,62.8722,0.015713
43.173,62.8846,0.015713
43.235,62.8971,0.015713
43.296,62.9094,0.015713
43.359,62.9219,0.015713
43.423,62.9347,0.015713
43.483,62.9469,0.015656
43.546,62.9594,0.015656
43.610,62.9722,0.015656
43.673,62.9847,0.015656
43.735,62.9971,0.015694
43.797,63.0094,0.015694
43.859,63.0219,0.015694
43.922,63.0344,0.015694
43.984,63.0469,0.015713
44.047,63.0595,0.015713
44.110,63.0721,0.015713
44.172,63.0845,0.015713
44.235,63.0970,0.015665
44.298,63.1097,0.015665
44.362,63.1223,0.015665
44.423,63.1348,0.015665
44.485,63.1470,0.015684
44.548,63.1597,0.015684
44.610,63.1721,0.015684
44.672,63.1844,0.015684
44.736,63.1974,0.015713
44.796,63.2094,0.015713
44.858,63.2218,0.015713
44.922,63.2347,0.015713
44.983,63.2469,0.015703
45.047,63.2594,0.015703
45.107,63.2715,0.015703
45.169,63.2838,0.015703
45.230,63.2961,0.015694
45.293,63.3085,0.015694
45.357,63.3186,0.015694
45.417,63.3255,0.015694
45.481,63.3296,0.015741
45.541,63.3307,0.015741
45.605,63.3307,0.015741
45.666,63.3307,0.015741
45.728,63.3307,0.015741
45.791,63.3307,0.015713
45.856,63.3307,0.015713
45.917,63.3307,0.015713
45.980,63.3307,0.015713
46.041,63.3307,0.015675
46.104,63.3307,0.015675
46.167,63.3307,0.015675
46.230,63.3307,0.015731
46.290,63.3307,0.015731
46.353,63.3307,0.015731
46.414,63.3307,0.015731
46.477,63.3307,0.015694
46.539,63.3307,0.015694
46.601,63.3307,0.015694
46.664,63.3307,0.015694
46.726,63.3307,0.015694
46.789,63.3307,0.015637
46.851,63.3307,0.015637
46.913,63.3307,0.015637
46.975,63.3307,0.015637
47.037,63.3307,0.015637
47.101,63.3307,0.015637
47.164,63.3307,0.015637
47.226,63.3307,0.015637
47.287,63.3307,0.015694
47.349,63.3307,0.015694
47.412,63.3307,0.015694
47.475,63.3307,0.015694
47.538,63.3307,0.015694
47.601,63.3307,0.015694
47.663,63.3307,0.015694
47.726,63.3307,0.015675
47.788,63.3307,0.015675
47.850,63.3307,0.015675
47.915,63.3307,0.015675
47.977,63.3307,0.015675
48.038,63.3307,0.015713
48.101,63.3307,0.015713
48.164,63.3307,0.015713
48.225,63.3307,0.015713
48.287,63.3307,0.015731
48.350,63.3307,0.015731
48.413,63.3307,0.015731
48.476,63.3307,0.015731
48.540,63.3307,0.015741
48.599,63.3307,0.015741
48.661,63.3307,0.015741
48.725,63.3307,0.015741
48.786,63.3307,0.015703
48.848,63.3307,0.015703
48.911,63.3307,0.015703
48.971,63.3307,0.015703
49.033,63.3307,0.015656
49.094,63.3307,0.015656
49.157,63.3307,0.015656
49.219,63.3307,0.015656
49.280,63.3307,0.015637
49.343,63.3307,0.015637
49.405,63.3307,0.015637
49.469,63.3307,0.015637
49.530,63.3307,0.015647
49.592,63.3307,0.015647
49.655,63.3307,0.015647
49.717,63.3307,0.015647
49.780,63.3307,0.015637
49.844,63.3307,0.015637
49.904,63.3307,0.015637
49.965,63.3307,0.015637
50.029,63.3307,0.015618
50.090,63.3307,0.015618
50.153,63.3307,0.015618
50.216,63.3305,0.015618
50.279,63.3277,0.015647
50.341,63.3222,0.015647
50.403,63.3137,0.015647
50.466,63.3021,0.015647
50.532,63.2888,0.015741
50.591,63.2770,0.015741
50.652,63.2650,0.015741
50.715,63.2524,0.015741
50.783,63.2387,0.015788
50.840,63.2275,0.015788
50.902,63.2150,0.015788
50.963,63.2026,0.015788
51.025,63.1902,0.015722
51.087,63.1779,0.015722
51.149,63.1656,0.015722
51.211,63.1531,0.015722
51.274,63.1405,0.015656
51.336,63.1281,0.015656
51.397,63.1160,0.015656
51.460,63.1034,0.015656
51.522,63.0910,0.015675
51.584,63.0784,0.015675
51.646,63.0662,0.015675
51.707,63.0539,0.015675
51.769,63.0415,0.015722
51.831,63.0290,0.015722
51.894,63.0166,0.015722
51.957,63.0040,0.015722
52.019,62.9915,0.015684
52.081,62.9790,0.015684
52.144,62.9666,0.015684
52.206,62.9542,0.015684
52.270,62.9414,0.015628
52.332,62.9291,0.015628
52.393,62.9167,0.015628
52.454,62.9044,0.015628
52.518,62.8915,0.015675
52.579,62.8795,0.015675
52.641,62.8670,0.015675
52.703,62.8547,0.015675
52.765,62.8423,0.015722
52.827,62.8298,0.015722
52.891,62.8171,0.015722
52.954,62.8045,0.015722
53.015,62.7923,0.015703
53.076,62.7802,0.015703
53.137,62.7680,0.015703
53.200,62.7554,0.015703
53.262,62.7431,0.015684
53.322,62.7309,0.015684
53.387,62.7179,0.015684
53.447,62.7060,0.015684
53.511,62.6931,0.015694
53.572,62.6808,0.015694
53.635,62.6683,0.015694
53.697,62.6559,0.015694
53.760,62.6434,0.015665
53.823,62.6307,0.015665
53.886,62.6183,0.015665
53.948,62.6058,0.015665
54.010,62.5934,0.015675
54.072,62.5810,0.015675
54.133,62.5686,0.015675
54.196,62.5562,0.015675
54.260,62.5435,0.015675
54.322,62.5310,0.015675
54.385,62.5185,0.015675
54.447,62.5061,0.015675
54.509,62.4935,0.015647
54.571,62.4811,0.015647
54.633,62.4687,0.015647
54.696,62.4563,0.015647
54.757,62.4441,0.015694
54.820,62.4313,0.015694
54.881,62.4191,0.015694
54.945,62.4065,0.015694
55.007,62.3940,0.015731
55.070,62.3814,0.015731
55.131,62.3692,0.015731
55.195,62.3565,0.015731
55.256,62.3441,0.015722
55.320,62.3313,0.015722
55.382,62.3190,0.015722
55.444,62.3066,0.015722
55.506,62.2941,0.015731
55.571,62.2812,0.015731
55.631,62.2691,0.015731
55.694,62.2565,0.015731
55.756,62.2440,0.015731
55.818,62.2317,0.015741
55.881,62.2191,0.015741
55.942,62.2068,0.015741
56.004,62.1945,0.015713
56.066,62.1821,0.015713
56.130,62.1695,0.015713
56.193,62.1568,0.015713
56.256,62.1442,0.015647
56.318,62.1316,0.015647
56.380,62.1192,0.015647
56.443,62.1066,0.015647
56.506,62.0942,0.015647
56.567,62.0818,0.015647
56.629,62.0696,0.015647
56.690,62.0574,0.015647
56.753,62.0448,0.015665
56.815,62.0326,0.015665
56.877,62.0202,0.015665
56.938,62.0077,0.015665
57.001,61.9951,0.015656
57.064,61.9827,0.015656
57.126,61.9702,0.015656
57.188,61.9579,0.015656
57.250,61.9454,0.015647
57.312,61.9328,0.015647
57.375,61.9206,0.015647
57.436,61.9083,0.015647
57.498,61.8959,0.015684
57.560,61.8835,0.015684
57.621,61.8711,0.015684
57.685,61.8584,0.015684
57.747,61.8460,0.015684
57.811,61.8332,0.015684
57.875,61.8205,0.015684
57.939,61.8075,0.015684
58.001,61.7952,0.015684
58.060,61.7834,0.015684
58.124,61.7705,0.015684
58.184,61.7586,0.015684
58.244,61.7464,0.015731
58.307,61.7338,0.015731
58.371,61.7211,0.015731
58.433,61.7087,0.015731
58.493,61.6966,0.015722
58.557,61.6839,0.015722
58.620,61.6710,0.015722
58.682,61.6589,0.015722
58.744,61.6466,0.015694
58.808,61.6337,0.015694
58.867,61.6219,0.015694
58.930,61.6093,0.015694
58.994,61.5966,0.015665
59.055,61.5845,0.015665
59.117,61.5721,0.015665
59.177,61.5599,0.015665
59.241,61.5473,0.015675
59.303,61.5347,0.015675
59.366,61.5223,0.015675
59.427,61.5099,0.015675
59.490,61.4974,0.015656
59.552,61.4849,0.015656
59.615,61.4725,0.015656
59.679,61.4594,0.015656
59.738,61.4478,0.015656
59.801,61.4353,0.015675
59.864,61.4226,0.015675
59.924,61.4105,0.015675
59.987,61.3981,0.015675
60.049,61.3856,0.015684
60.111,61.3732,0.015684
60.172,61.3610,0.015684
60.235,61.3483,0.015684
60.298,61.3358,0.015684
60.360,61.3235,0.015684
60.423,61.3109,0.015684
60.485,61.2985,0.015675
60.547,61.2859,0.015675
60.609,61.2738,0.015675
60.671,61.2613,0.015675
60.733,61.2487,0.015703
60.796,61.2363,0.015703
60.858,61.2238,0.015703
60.922,61.2111,0.015703
60.985,61.1985,0.015703
61.048,61.1857,0.015703
61.110,61.1734,0.015703
61.172,61.1612,0.015703
61.233,61.1488,0.015628
61.295,61.1364,0.015628
61.357,61.1241,0.015628
61.419,61.1116,0.015628
61.482,61.0992,0.015703
61.545,61.0865,0.015703
61.608,61.0739,0.015703
61.670,61.0613,0.015703
61.732,61.0490,0.015731
61.795,61.0365,0.015731
61.857,61.0241,0.015731
61.919,61.0116,0.015731
61.982,60.9992,0.015694
62.043,60.9868,0.015694
62.106,60.9743,0.015694
62.168,60.9619,0.015694
62.230,60.9495,0.015694
62.293,60.9369,0.015731
62.354,60.9247,0.015731
62.416,60.9121,0.015731
62.479,60.8996,0.015731
62.541,60.8872,0.015731
62.604,60.8744,0.015731
62.670,60.8615,0.015731
62.730,60.8492,0.015741
62.794,60.8366,0.015741
62.858,60.8238,0.015741
62.917,60.8120,0.015741
62.981,60.7990,0.015741
63.042,60.7871,0.015731
63.105,60.7743,0.015731
63.168,60.7617,0.015731
63.230,60.7492,0.015731
63.293,60.7368,0.015741
63.357,60.7241,0.015741
63.417,60.7120,0.015741
63.480,60.6992,0.015731
63.544,60.6867,0.015731
63.609,60.6736,0.015731
63.668,60.6618,0.015731
63.730,60.6494,0.015731
63.792,60.6369,0.015684
63.855,60.6245,0.015684
63.916,60.6122,0.015684
63.979,60.5996,0.015684
64.041,60.5873,0.015684
64.103,60.5748,0.015684
64.166,60.5624,0.015684
64.227,60.5499,0.015684
64.290,60.5375,0.015703
64.352,60.5249,0.015703
64.414,60.5126,0.015703
64.475,60.5004,0.015675
64.537,60.4881,0.015675
64.600,60.4756,0.015675
64.663,60.4629,0.015675
64.726,60.4503,0.015675
64.789,60.4375,0.015675
64.850,60.4255,0.015675
64.912,60.4132,0.015675
64.975,60.4004,0.015675
65.039,60.3875,0.015703
65.102,60.3751,0.015703
65.162,60.3632,0.015703
65.224,60.3505,0.015703
65.287,60.3380,0.015731
65.349,60.3256,0.015731
65.411,60.3132,0.015731
65.475,60.3004,0.015731
65.536,60.2884,0.015675
65.597,60.2759,0.015675
65.660,60.2632,0.015675
65.723,60.2510,0.015675
65.783,60.2387,0.015675
65.848,60.2260,0.015675
65.908,60.2139,0.015675
65.970,60.2015,0.015675
66.033,60.1888,0.015656
66.095,60.1764,0.015656
66.158,60.1639,0.015656
66.221,60.1512,0.015656
66.283,60.1387,0.015647
66.347,60.1261,0.015647
66.408,60.1138,0.015647
66.472,60.1009,0.015647
66.532,60.0891,0.015703
66.595,60.0765,0.015703
66.657,60.0641,0.015703
66.720,60.0514,0.015703
66.782,60.0390,0.015684
66.844,60.0267,0.015684
66.906,60.0142,0.015684
66.967,60.0020,0.015647
67.030,59.9894,0.015647
67.092,59.9770,0.015647
67.154,59.9646,0.015647
67.218,59.9518,0.015647
67.280,59.9394,0.015675
67.343,59.9269,0.015675
67.409,59.9136,0.015675
67.469,59.9016,0.015675
67.529,59.8896,0.015731
67.592,59.8769,0.015731
67.653,59.8649,0.015731
67.715,59.8525,0.015731
67.777,59.8401,0.015703
67.838,59.8278,0.015703
67.900,59.8154,0.015703
67.963,59.8029,0.015703
68.028,59.7898,0.015684
68.087,59.7781,0.015684
68.149,59.7657,0.015684
68.212,59.7531,0.015684
68.276,59.7404,0.015694
68.335,59.7284,0.015694
68.399,59.7157,0.015694
68.461,59.7033,0.015694
68.523,59.6907,0.015694
68.586,59.6783,0.015694
68.648,59.6659,0.015694
68.711,59.6532,0.015694
68.773,59.6408,0.015722
68.835,59.6286,0.015722
68.897,59.6162,0.015722
68.959,59.6037,0.015722
69.021,59.5913,0.015703
69.084,59.5786,0.015703
69.146,59.5663,0.015703
69.208,59.5539,0.015703
69.270,59.5415,0.015703
69.333,59.5289,0.015703
69.396,59.5162,0.015703
69.459,59.5037,0.015703
69.523,59.4908,0.015694
69.583,59.4787,0.015694
69.646,59.4663,0.015694
69.709,59.4535,0.015694
69.772,59.4410,0.015656
69.835,59.4284,0.015656
69.895,59.4165,0.015656
69.957,59.4041,0.015656
70.019,59.3916,0.015703
70.081,59.3794,0.015703
70.144,59.3667,0.015703
70.205,59.3544,0.015703
70.266,59.3422,0.015703
70.329,59.3297,0.015713
70.391,59.3172,0.015713
70.453,59.3050,0.015713
70.516,59.2945,0.015713
70.578,59.2869,0.015713
70.640,59.2823,0.015713
70.702,59.2807,0.015713
70.764,59.2807,0.015665
70.826,59.2807,0.015665
70.888,59.2822,0.015665
70.951,59.2867,0.015665
71.013,59.2941,0.015665
71.076,59.3047,0.015665
71.138,59.3169,0.015665
71.199,59.3291,0.015665
71.260,59.3412,0.015722
71.323,59.3538,0.015722
71.384,59.3662,0.015722
71.447,59.3787,0.015722
71.509,59.3911,0.015684
71.571,59.4036,0.015684
71.635,59.4163,0.015684
71.697,59.4289,0.015684
71.761,59.4415,0.015684
71.822,59.4540,0.015684
71.885,59.4664,0.015684
71.947,59.4787,0.015684
72.008,59.4911,0.015741
72.070,59.5033,0.015741
72.132,59.5157,0.015741
72.194,59.5281,0.015741
72.257,59.5406,0.015741
72.319,59.5532,0.015741
72.382,59.5656,0.015741
72.444,59.5781,0.015741
72.507,59.5908,0.015741
72.570,59.6033,0.015741
72.632,59.6156,0.015741
72.694,59.6281,0.015741
72.757,59.6408,0.015694
72.818,59.6528,0.015694
72.881,59.6654,0.015694
72.943,59.6777,0.015694
73.005,59.6902,0.015703
73.068,59.7029,0.015703
73.134,59.7160,0.015703
73.192,59.7276,0.015703
73.254,59.7401,0.015694
73.316,59.7528,0.015694
73.379,59.7652,0.015694
73.441,59.7774,0.015694
73.504,59.7901,0.015694
73.566,59.8024,0.015665
73.629,59.8150,0.015665
73.692,59.8277,0.015665
73.754,59.8402,0.015722
73.817,59.8527,0.015722
73.880,59.8652,0.015722
73.942,59.8776,0.015722
74.002,59.8897,0.015741
74.064,59.9021,0.015741
74.127,59.9149,0.015741
74.190,59.9274,0.015741
74.252,59.9399,0.015684
74.315,59.9524,0.015684
74.378,59.9651,0.015684
74.442,59.9776,0.015684
74.503,59.9900,0.015665
74.566,60.0025,0.015665
74.627,60.0146,0.015665
74.689,60.0271,0.015665
74.752,60.0396,0.015703
74.814,60.0521,0.015703
74.877,60.0647,0.015703
74.941,60.0773,0.015703
75.002,60.0896,0.015741
75.064,60.1020,0.015741
75.126,60.1144,0.015741
75.190,60.1273,0.015741
75.252,60.1397,0.015713
75.317,60.1527,0.015713
75.381,60.1656,0.015713
75.439,60.1770,0.015713
75.501,60.1896,0.015684
75.566,60.2026,0.015684
75.629,60.2150,0.015684
75.692,60.2276,0.015684
75.756,60.2404,0.015703
75.819,60.2531,0.015703
75.879,60.2650,0.015703
75.940,60.2774,0.015703
76.003,60.2899,0.015741
76.067,60.3028,0.015741
76.127,60.3146,0.015741
76.189,60.3272,0.015741
76.251,60.3396,0.015731
76.314,60.3522,0.015731
76.376,60.3646,0.015731
76.438,60.3768,0.015731
76.500,60.3892,0.015694
76.563,60.4018,0.015694
76.625,60.4144,0.015694
76.690,60.4272,0.015694
76.751,60.4393,0.015694
76.813,60.4519,0.015656
76.876,60.4644,0.015656
76.939,60.4771,0.015656
77.000,60.4892,0.015656
77.061,60.5015,0.015628
77.123,60.5138,0.015628
77.185,60.5262,0.015628
77.246,60.5387,0.015628
77.310,60.5512,0.015665
77.372,60.5637,0.015665
77.434,60.5761,0.015665
77.496,60.5885,0.015722
77.558,60.6010,0.015722
77.621,60.6136,0.015722
77.684,60.6263,0.015722
77.748,60.6388,0.015731
77.809,60.6509,0.015731
77.871,60.6633,0.015731
77.932,60.6757,0.015731
77.993,60.6879,0.015665
78.056,60.7004,0.015665
78.118,60.7128,0.015665
78.181,60.7253,0.015665
78.243,60.7380,0.015731
78.305,60.7502,0.015731
78.368,60.7628,0.015731
78.430,60.7753,0.015731
78.492,60.7877,0.015778
78.554,60.8001,0.015778
78.617,60.8127,0.015778
78.679,60.8251,0.015778
78.741,60.8375,0.015675
78.802,60.8499,0.015675
78.864,60.8620,0.015675
78.927,60.8745,0.015675
78.988,60.8868,0.015703
79.050,60.8994,0.015703
79.112,60.9116,0.015703
79.174,60.9242,0.015703
79.237,60.9366,0.015741
79.299,60.9491,0.015741
79.361,60.9615,0.015741
79.424,60.9741,0.015741
79.486,60.9864,0.015722
79.546,60.9984,0.015722
79.607,61.0107,0.015722
79.672,61.0236,0.015722
79.735,61.0363,0.015703
79.796,61.0486,0.015703
79.857,61.0607,0.015703
79.919,61.0730,0.015703
79.980,61.0854,0.015703
80.043,61.0979,0.015637
80.106,61.1106,0.015637
80.170,61.1232,0.015637
80.235,61.1362,0.015665
80.294,61.1480,0.015665
80.357,61.1605,0.015665
80.420,61.1733,0.015665
80.480,61.1852,0.015722
80.541,61.1974,0.015722
80.604,61.2100,0.015722
80.665,61.2222,0.015722
80.727,61.2346,0.015722
80.788,61.2470,0.015731
80.850,61.2593,0.015731
80.913,61.2719,0.015731
80.975,61.2843,0.015731
81.037,61.2968,0.015694
81.101,61.3095,0.015694
81.164,61.3221,0.015694
81.228,61.3350,0.015694
81.292,61.3477,0.015703
81.354,61.3602,0.015703
81.417,61.3726,0.015703
81.479,61.3850,0.015703
81.544,61.3982,0.015750
81.605,61.4101,0.015750
81.665,61.4222,0.015750
81.727,61.4346,0.015722
81.790,61.4472,0.015722
81.852,61.4597,0.015722
81.914,61.4720,0.015722
81.977,61.4846,0.015694
82.041,61.4974,0.015694
82.102,61.5095,0.015694
82.163,61.5217,0.015694
82.227,61.5347,0.015694
82.288,61.5469,0.015656
82.349,61.5592,0.015656
82.412,61.5716,0.015656
82.475,61.5842,0.015656
82.535,61.5962,0.015684
82.596,61.6085,0.015684
82.659,61.6210,0.015684
82.721,61.6334,0.015684
82.783,61.6457,0.015713
82.845,61.6581,0.015713
82.907,61.6705,0.015713
82.968,61.6831,0.015713
83.031,61.6955,0.015722
83.094,61.7081,0.015722
83.156,61.7204,0.015722
83.219,61.7333,0.015722
83.278,61.7448,0.015750
83.341,61.7577,0.015750
83.407,61.7709,0.015750
83.466,61.7824,0.015750
83.528,61.7948,0.015750
83.591,61.8073,0.015750
83.653,61.8197,0.015750
83.715,61.8324,0.015750
83.777,61.8447,0.015731
83.839,61.8571,0.015731
83.901,61.8695,0.015731
83.962,61.8816,0.015731
84.025,61.8943,0.015741
84.087,61.9065,0.015741
84.148,61.9189,0.015741
84.210,61.9314,0.015741
84.273,61.9439,0.015703
84.334,61.9560,0.015703
84.398,61.9688,0.015703
84.458,61.9810,0.015703
84.521,61.9935,0.015656
84.583,62.0059,0.015656
84.645,62.0182,0.015656
84.707,62.0306,0.015656
84.769,62.0430,0.015741
84.830,62.0553,0.015741
84.892,62.0675,0.015741
84.954,62.0799,0.015741
85.018,62.0927,0.015750
85.080,62.1052,0.015750
85.143,62.1178,0.015750
85.206,62.1303,0.015750
85.268,62.1428,0.015703
85.331,62.1555,0.015703
85.395,62.1684,0.015703
85.457,62.1806,0.015703
85.520,62.1932,0.015788
85.581,62.2054,0.015788
85.643,62.2178,0.015788
85.704,62.2300,0.015788
85.766,62.2424,0.015807
85.827,62.2547,0.015807
85.889,62.2671,0.015807
85.951,62.2795,0.015807
86.015,62.2924,0.015750
86.078,62.3049,0.015750
86.143,62.3178,0.015750
86.203,62.3300,0.015750
86.266,62.3425,0.015694
86.329,62.3551,0.015694
86.392,62.3675,0.015694
86.456,62.3803,0.015694
86.518,62.3928,0.015684
86.582,62.4055,0.015684
86.642,62.4176,0.015684
86.705,62.4302,0.015684
86.769,62.4431,0.015694
86.829,62.4552,0.015694
86.892,62.4678,0.015694
86.955,62.4804,0.015694
87.017,62.4927,0.015694
87.079,62.5052,0.015694
87.141,62.5174,0.015694
87.202,62.5296,0.015694
87.264,62.5420,0.015675
87.326,62.5544,0.015675
87.389,62.5670,0.015675
87.451,62.5794,0.015675
87.513,62.5918,0.015703
87.576,62.6043,0.015703
87.638,62.6167,0.015703
87.699,62.6290,0.015703
87.762,62.6418,0.015741
87.825,62.6543,0.015741
87.887,62.6666,0.015741
87.950,62.6791,0.015741
88.012,62.6915,0.015694
88.074,62.7041,0.015694
88.136,62.7163,0.015694
88.197,62.7285,0.015694
88.260,62.7411,0.015713
88.322,62.7534,0.015713
88.385,62.7662,0.015713
88.446,62.7783,0.015713
88.508,62.7907,0.015731
88.570,62.8031,0.015731
88.632,62.8156,0.015731
88.695,62.8280,0.015731
88.756,62.8404,0.015703
88.819,62.8530,0.015703
88.881,62.8654,0.015703
88.942,62.8777,0.015703
89.005,62.8903,0.015750
89.067,62.9025,0.015750
89.130,62.9150,0.015750
89.192,62.9275,0.015750
89.255,62.9402,0.015731
89.318,62.9527,0.015731
89.379,62.9650,0.015731
89.441,62.9772,0.015731
89.503,62.9896,0.015675
89.565,63.0023,0.015675
89.628,63.0148,0.015675
89.691,63.0273,0.015675
89.753,63.0397,0.015675
89.815,63.0520,0.015675
89.878,63.0647,0.015675
89.940,63.0772,0.015675
90.002,63.0897,0.015675
90.063,63.1019,0.015750
90.126,63.1144,0.015750
90.188,63.1268,0.015750
90.249,63.1391,0.015750
90.312,63.1515,0.015778
90.374,63.1640,0.015778
90.437,63.1765,0.015778
90.499,63.1889,0.015778
90.563,63.2017,0.015713
90.624,63.2140,0.015713
90.688,63.2268,0.015713
90.749,63.2389,0.015722
90.811,63.2512,0.015722
90.873,63.2630,0.015722
90.936,63.2718,0.015722
90.999,63.2776,0.015788
91.061,63.2804,0.015788
91.123,63.2807,0.015788
91.189,63.2807,0.015788
91.249,63.2807,0.015778
91.309,63.2807,0.015778
91.370,63.2807,0.015778
91.433,63.2807,0.015778
91.495,63.2807,0.015778
91.556,63.2807,0.015741
91.618,63.2807,0.015741
91.681,63.2807,0.015741
91.744,63.2807,0.015731
91.807,63.2807,0.015731
91.869,63.2807,0.015731
91.932,63.2807,0.015731
91.994,63.2807,0.015665
92.058,63.2807,0.015665
92.119,63.2807,0.015665
92.181,63.2807,0.015665
92.245,63.2807,0.015722
92.305,63.2807,0.015722
92.368,63.2807,0.015722
92.432,63.2807,0.015722
92.495,63.2807,0.015778
92.558,63.2807,0.015778
92.623,63.2807,0.015778
92.686,63.2807,0.015778
92.745,63.2807,0.015797
92.807,63.2807,0.015797
92.868,63.2807,0.015797
92.931,63.2807,0.015797
92.995,63.2807,0.015797
93.056,63.2807,0.015797
93.118,63.2807,0.015797
93.179,63.2807,0.015797
93.243,63.2807,0.015741
93.305,63.2807,0.015741
93.369,63.2807,0.015741
93.432,63.2807,0.015741
93.495,63.2807,0.015731
93.558,63.2807,0.015731
93.617,63.2807,0.015731
93.681,63.2807,0.015731
93.744,63.2807,0.015722
93.806,63.2807,0.015722
93.869,63.2807,0.015722
93.929,63.2807,0.015722
93.992,63.2807,0.015731
94.055,63.2807,0.015731
94.118,63.2807,0.015731
94.183,63.2807,0.015731
94.241,63.2807,0.015760
94.303,63.2807,0.015760
94.366,63.2807,0.015760
94.427,63.2807,0.015760
94.488,63.2807,0.015731
94.550,63.2807,0.015731
94.615,63.2807,0.015731
94.676,63.2807,0.015731
94.738,63.2807,0.015731
94.799,63.2807,0.015694
94.861,63.2807,0.015694
94.924,63.2807,0.015694
94.985,63.2807,0.015694
95.050,63.2807,0.015722
95.110,63.2807,0.015722
95.173,63.2807,0.015722
95.234,63.2807,0.015722
95.296,63.2807,0.015760
95.359,63.2807,0.015760
95.423,63.2807,0.015760
95.484,63.2807,0.015760
95.546,63.2807,0.015750
95.610,63.2807,0.015750
95.670,63.2807,0.015750
95.733,63.2807,0.015750
95.794,63.2799,0.015722
95.855,63.2761,0.015722
95.921,63.2691,0.015722
95.982,63.2595,0.015741
96.045,63.2474,0.015741
96.106,63.2351,0.015741
96.168,63.2227,0.015741
96.230,63.2103,0.015741
96.292,63.1978,0.015807
96.353,63.1856,0.015807
96.415,63.1731,0.015807
96.478,63.1605,0.015788
96.541,63.1480,0.015788
96.605,63.1351,0.015788
96.668,63.1227,0.015788
96.730,63.1102,0.015722
96.793,63.0978,0.015722
96.855,63.0851,0.015722
96.919,63.0724,0.015722
96.978,63.0607,0.015675
97.040,63.0483,0.015675
97.102,63.0359,0.015675
97.163,63.0235,0.015675
97.226,63.0109,0.015703
97.288,62.9986,0.015703
97.350,62.9863,0.015703
97.412,62.9738,0.015703
97.475,62.9612,0.015703
97.538,62.9487,0.015713
97.599,62.9366,0.015713
97.662,62.9238,0.015713
97.725,62.9114,0.015703
97.786,62.8990,0.015703
97.850,62.8863,0.015703
97.911,62.8739,0.015703
97.974,62.8614,0.015703
98.037,62.8489,0.015703
98.100,62.8364,0.015703
98.161,62.8241,0.015703
98.223,62.8117,0.015703
98.286,62.7990,0.015665
98.349,62.7864,0.015665
98.411,62.7741,0.015665
98.475,62.7614,0.015665
98.538,62.7487,0.015647
98.600,62.7363,0.015647
98.662,62.7240,0.015647
98.725,62.7113,0.015647
98.785,62.6991,0.015665
98.848,62.6867,0.015665
98.911,62.6740,0.015665
98.973,62.6618,0.015665
99.034,62.6494,0.015656
99.097,62.6369,0.015656
99.159,62.6245,0.015656
99.222,62.6119,0.015656
99.284,62.5995,0.015694
99.346,62.5869,0.015694
99.407,62.5747,0.015694
99.469,62.5624,0.015694
99.532,62.5499,0.015741
99.594,62.5373,0.015741
99.657,62.5248,0.015741
99.723,62.5117,0.015760
99.781,62.5000,0.015760
99.843,62.4877,0.015760
99.905,62.4753,0.015760
99.968,62.4628,0.015750
100.030,62.4504,0.015750
100.091,62.4381,0.015750
100.153,62.4256,0.015750
100.215,62.4132,0.015750
100.277,62.4009,0.015769
100.340,62.3883,0.015769
100.403,62.3757,0.015769
100.465,62.3634,0.015769
100.526,62.3509,0.015788
100.589,62.3385,0.015788
100.652,62.3257,0.015788
100.714,62.3135,0.015797
100.777,62.3009,0.015797
100.838,62.2888,0.015797
100.899,62.2765,0.015797
100.961,62.2641,0.015797
101.022,62.2518,0.015778
101.083,62.2395,0.015778
101.145,62.2273,0.015778
101.208,62.2147,0.015778
101.271,62.2022,0.015788
101.334,62.1896,0.015788
101.396,62.1770,0.015788
101.458,62.1648,0.015788
101.521,62.1521,0.015788
101.584,62.1396,0.015760
101.647,62.1268,0.015760
101.710,62.1143,0.015760
101.772,62.1019,0.015760
101.835,62.0894,0.015713
101.896,62.0770,0.015713
101.958,62.0646,0.015713
102.020,62.0522,0.015722
102.082,62.0397,0.015722
102.145,62.0272,0.015722
102.207,62.0147,0.015722
102.269,62.0023,0.015731
102.331,61.9901,0.015731
102.394,61.9776,0.015731
102.455,61.9652,0.015731
102.518,61.9528,0.015731
102.580,61.9403,0.015731
102.642,61.9279,0.015731
102.705,61.9155,0.015731
102.768,61.9027,0.015694
102.828,61.8907,0.015694
102.891,61.8781,0.015694
102.955,61.8652,0.015694
103.017,61.8527,0.015656
103.083,61.8397,0.015656
103.143,61.8278,0.015656
103.205,61.8154,0.015656
103.267,61.8029,0.015694
103.331,61.7900,0.015694
103.391,61.7779,0.015694
103.454,61.7655,0.015694
103.515,61.7533,0.015713
103.580,61.7402,0.015713
103.642,61.7280,0.015713
103.702,61.7158,0.015713
103.765,61.7034,0.015741
103.828,61.6906,0.015741
103.890,61.6783,0.015741
103.952,61.6659,0.015741
104.013,61.6537,0.015778
104.075,61.6413,0.015778
104.138,61.6286,0.015778
104.199,61.6165,0.015778
104.265,61.6031,0.015750
104.325,61.5913,0.015750
104.387,61.5790,0.015750
104.449,61.5666,0.015750
104.512,61.5539,0.015731
104.574,61.5414,0.015731
104.636,61.5290,0.015731
104.698,61.5167,0.015731
104.760,61.5043,0.015741
104.823,61.4917,0.015741
104.885,61.4794,0.015741
104.948,61.4666,0.015741
105.011,61.4541,0.015778
105.072,61.4420,0.015778
105.134,61.4294,0.015778
105.197,61.4169,0.015778
105.260,61.4044,0.015788
105.323,61.3917,0.015788
105.385,61.3793,0.015788
105.448,61.3665,0.015788
105.512,61.3538,0.015778
105.573,61.3416,0.015778
105.636,61.3292,0.015778
105.697,61.3171,0.015778
105.759,61.3045,0.015769
105.822,61.2919,0.015769
105.885,61.2795,0.015769
105.947,61.2670,0.015769
106.010,61.2544,0.015750
106.072,61.2419,0.015750
106.136,61.2291,0.015750
106.197,61.2167,0.015750
106.261,61.2042,0.015750
106.321,61.1922,0.015713
106.383,61.1798,0.015713
106.446,61.1672,0.015713
106.507,61.1550,0.015713
106.571,61.1422,0.015722
106.634,61.1295,0.015722
106.694,61.1175,0.015722
106.755,61.1054,0.015750
106.817,61.0928,0.015750
106.882,61.0801,0.015750
106.945,61.0672,0.015750
107.005,61.0552,0.015741
107.067,61.0430,0.015741
107.129,61.0304,0.015741
107.192,61.0180,0.015741
107.255,61.0051,0.015713
107.316,60.9931,0.015713
107.380,60.9805,0.015713
107.442,60.9681,0.015713
107.503,60.9558,0.015694
107.565,60.9434,0.015694
107.627,60.9311,0.015694
107.691,60.9183,0.015694
107.753,60.9058,0.015722
107.816,60.8933,0.015722
107.878,60.8807,0.015722
107.940,60.8683,0.015722
108.003,60.8558,0.015760
108.065,60.8433,0.015760
108.127,60.8310,0.015760
108.188,60.8186,0.015760
108.250,60.8065,0.015750
108.313,60.7938,0.015750
108.375,60.7814,0.015750
108.437,60.7690,0.015750
108.502,60.7559,0.015731
108.563,60.7437,0.015731
108.625,60.7312,0.015731
108.686,60.7191,0.015731
108.749,60.7066,0.015656
108.810,60.6943,0.015656
108.873,60.6817,0.015656
108.935,60.6694,0.015656
108.998,60.6566,0.015665
109.062,60.6437,0.015665
109.122,60.6320,0.015665
109.185,60.6194,0.015665
109.247,60.6070,0.015703
109.309,60.5945,0.015703
109.371,60.5821,0.015703
109.435,60.5695,0.015703
109.497,60.5569,0.015684
109.560,60.5444,0.015684
109.621,60.5321,0.015684
109.683,60.5197,0.015684
109.746,60.5071,0.015722
109.808,60.4949,0.015722
109.871,60.4823,0.015722
109.934,60.4696,0.015722
109.995,60.4573,0.015741
110.057,60.4451,0.015741
110.119,60.4327,0.015741
110.182,60.4200,0.015741
110.244,60.4075,0.015722
110.307,60.3949,0.015722
110.369,60.3825,0.015722
110.431,60.3701,0.015722
110.494,60.3574,0.015656
110.556,60.3450,0.015656
110.619,60.3324,0.015656
110.682,60.3199,0.015656
110.745,60.3074,0.015656
110.806,60.2950,0.015656
110.869,60.2826,0.015656
110.931,60.2702,0.015656
110.991,60.2582,0.015694
111.053,60.2457,0.015694
111.115,60.2333,0.015694
111.178,60.2207,0.015694
111.240,60.2084,0.015675
111.303,60.1958,0.015675
111.367,60.1831,0.015675
111.429,60.1706,0.015675
111.492,60.1581,0.015675
111.554,60.1454,0.015703
111.615,60.1333,0.015703
111.678,60.1207,0.015703
111.740,60.1085,0.015731
111.803,60.0958,0.015731
111.865,60.0835,0.015731
111.927,60.0710,0.015731
111.989,60.0586,0.015713
112.054,60.0457,0.015713
112.112,60.0338,0.015713
112.178,60.0205,0.015713
112.238,60.0089,0.015760
112.299,59.9966,0.015760
112.369,59.9827,0.015760
112.425,59.9713,0.015760
112.486,59.9593,0.015797
112.548,59.9467,0.015797
112.611,59.9341,0.015797
112.674,59.9216,0.015797
112.736,59.9091,0.015797
112.798,59.8967,0.015788
112.860,59.8843,0.015788
112.925,59.8714,0.015788
112.988,59.8588,0.015788
113.049,59.8465,0.015713
113.111,59.8341,0.015713
113.173,59.8218,0.015713
113.236,59.8093,0.015703
113.299,59.7965,0.015703
113.360,59.7844,0.015703
113.423,59.7717,0.015703
113.486,59.7592,0.015750
113.548,59.7467,0.015750
113.609,59.7344,0.015750
113.672,59.7220,0.015750
113.735,59.7095,0.015750
113.798,59.6968,0.015760
113.864,59.6837,0.015760
113.920,59.6723,0.015760
113.981,59.6602,0.015722
114.044,59.6477,0.015722
114.106,59.6352,0.015722
114.169,59.6225,0.015722
114.232,59.6100,0.015694
114.294,59.5976,0.015694
114.355,59.5852,0.015694
114.417,59.5729,0.015694
114.479,59.5605,0.015760
114.541,59.5482,0.015760
114.603,59.5357,0.015760
114.665,59.5233,0.015760
114.727,59.5110,0.015760
114.788,59.4988,0.015713
114.850,59.4865,0.015713
114.913,59.4740,0.015713
114.976,59.4613,0.015675
115.038,59.4488,0.015675
115.104,59.4356,0.015675
115.165,59.4230,0.015675
115.233,59.4095,0.015675
115.288,59.3987,0.015684
115.349,59.3865,0.015684
115.412,59.3741,0.015684
115.473,59.3617,0.015684
115.535,59.3494,0.015665
115.596,59.3372,0.015665
115.659,59.3245,0.015665
115.725,59.3115,0.015713
115.785,59.2993,0.015713
115.847,59.2869,0.015713
115.909,59.2745,0.015713
115.972,59.2620,0.015760
116.034,59.2502,0.015760
116.094,59.2412,0.015760
116.157,59.2348,0.015760
116.220,59.2314,0.015760
116.286,59.2307,0.015694
116.346,59.2307,0.015694
116.407,59.2307,0.015694
116.469,59.2320,0.015694
116.532,59.2363,0.015665
116.593,59.2431,0.015665
116.658,59.2539,0.015665
116.718,59.2658,0.015665
116.782,59.2785,0.015647
116.843,59.2908,0.015647
116.905,59.3030,0.015647
116.966,59.3153,0.015647
117.027,59.3276,0.015665
117.091,59.3401,0.015665
117.152,59.3525,0.015665
117.213,59.3648,0.015665
117.275,59.3772,0.015778
117.338,59.3897,0.015778
117.399,59.4019,0.015778
117.460,59.4140,0.015778
117.522,59.4267,0.015778
117.587,59.4395,0.015778
117.649,59.4520,0.015778
117.711,59.4644,0.015778
117.779,59.4780,0.015760
117.837,59.4895,0.015760
117.898,59.5016,0.015760
117.960,59.5140,0.015760
118.021,59.5263,0.015788
118.082,59.5384,0.015788
118.146,59.5512,0.015788
118.206,59.5634,0.015788
118.268,59.5758,0.015750
118.329,59.5882,0.015750
118.393,59.6008,0.015750
118.456,59.6134,0.015750
118.520,59.6261,0.015731
118.584,59.6388,0.015731
118.645,59.6511,0.015731
118.708,59.6637,0.015731
118.770,59.6761,0.015741
118.832,59.6886,0.015741
118.893,59.7008,0.015741
118.955,59.7132,0.015741
119.018,59.7257,0.015713
119.081,59.7382,0.015713
119.145,59.7513,0.015713
119.205,59.7629,0.015713
119.267,59.7755,0.015741
119.329,59.7879,0.015741
119.391,59.8003,0.015741
119.452,59.8125,0.015741
119.514,59.8249,0.015675
119.576,59.8375,0.015675
119.638,59.8496,0.015675
119.700,59.8621,0.015675
119.763,59.8747,0.015647
119.826,59.8872,0.015647
119.888,59.8997,0.015647
119.950,59.9120,0.015647
120.013,59.9247,0.015647
120.075,59.9369,0.015647
120.137,59.9493,0.015647
120.198,59.9617,0.015647
120.261,59.9744,0.015656
120.324,59.9869,0.015656
120.385,59.9993,0.015656
120.449,60.0120,0.015656
120.510,60.0242,0.015722
120.573,60.0368,0.015722
120.637,60.0497,0.015722
120.695,60.0612,0.015722
120.758,60.0737,0.015760
120.820,60.0861,0.015760
120.882,60.0984,0.015760
120.944,60.1108,0.015760
121.007,60.1235,0.015741
121.068,60.1357,0.015741
121.130,60.1480,0.015741
121.191,60.1604,0.015741
121.253,60.1727,0.015703
121.316,60.1852,0.015703
121.379,60.1979,0.015703
121.440,60.2102,0.015703
121.502,60.2226,0.015731
121.566,60.2352,0.015731
121.628,60.2477,0.015731
121.690,60.2601,0.015731
121.752,60.2724,0.015713
121.815,60.2852,0.015713
121.878,60.2977,0.015713
121.940,60.3101,0.015713
122.002,60.3226,0.015703
122.064,60.3348,0.015703
122.126,60.3472,0.015703
122.188,60.3596,0.015703
122.250,60.3721,0.015713
122.312,60.3845,0.015713
122.373,60.3967,0.015713
122.436,60.4091,0.015713
122.497,60.4215,0.015713
122.560,60.4340,0.015713
122.623,60.4467,0.015713
122.686,60.4593,0.015713
122.748,60.4716,0.015722
122.811,60.4842,0.015722
122.873,60.4966,0.015722
122.934,60.5088,0.015722
122.996,60.5212,0.015656
123.058,60.5336,0.015656
123.120,60.5461,0.015656
123.183,60.5588,0.015656
123.247,60.5714,0.015684
123.308,60.5838,0.015684
123.371,60.5961,0.015684
123.433,60.6086,0.015684
123.495,60.6210,0.015703
123.557,60.6333,0.015703
123.619,60.6457,0.015703
123.681,60.6581,0.015703
123.742,60.6707,0.015684
123.805,60.6832,0.015684
123.867,60.6953,0.015684
123.929,60.7079,0.015684
123.991,60.7201,0.015656
124.054,60.7328,0.015656
124.116,60.7452,0.015656
124.178,60.7578,0.015656
124.239,60.7699,0.015656
124.302,60.7825,0.015694
124.366,60.7954,0.015694
124.427,60.8073,0.015694
124.487,60.8195,0.015694
124.551,60.8324,0.015750
124.613,60.8445,0.015750
124.675,60.8572,0.015750
124.737,60.8696,0.015750
124.800,60.8821,0.015760
124.862,60.8946,0.015760
124.925,60.9072,0.015760
124.986,60.9193,0.015760
125.049,60.9317,0.015797
125.111,60.9442,0.015797
125.173,60.9567,0.015797
125.236,60.9693,0.015788
125.298,60.9816,0.015788
125.360,60.9941,0.015788
125.422,61.0065,0.015788
125.485,61.0190,0.015788
125.547,61.0316,0.015797
125.608,61.0437,0.015797
125.670,61.0560,0.015797
125.732,61.0684,0.015778
125.794,61.0809,0.015778
125.857,61.0934,0.015778
125.920,61.1061,0.015778
125.983,61.1186,0.015694
126.045,61.1309,0.015694
126.106,61.1433,0.015694
126.169,61.1558,0.015694
126.231,61.1681,0.015722
126.293,61.1806,0.015722
126.355,61.1929,0.015722
126.417,61.2054,0.015722
126.479,61.2180,0.015750
126.541,61.2302,0.015750
126.604,61.2428,0.015750
126.665,61.2552,0.015750
126.730,61.2681,0.015750
126.790,61.2802,0.015694
126.853,61.2926,0.015694
126.913,61.3047,0.015694
126.975,61.3172,0.015694
127.037,61.3296,0.015665
127.101,61.3424,0.015665
127.161,61.3543,0.015665
127.224,61.3669,0.015665
127.287,61.3794,0.015713
127.350,61.3921,0.015713
127.411,61.4041,0.015713
127.474,61.4167,0.015731
127.535,61.4291,0.015731
127.598,61.4416,0.015731
127.659,61.4539,0.015731
127.722,61.4664,0.015731
127.784,61.4789,0.015731
127.847,61.4914,0.015731
127.909,61.5040,0.015731
127.971,61.5164,0.015731
128.034,61.5288,0.015760
128.096,61.5413,0.015760
128.159,61.5538,0.015760
128.221,61.5662,0.015760
128.282,61.5784,0.015750
128.343,61.5907,0.015750
128.405,61.6031,0.015750
128.467,61.6155,0.015750
128.529,61.6280,0.015750
128.591,61.6401,0.015750
128.653,61.6525,0.015750
128.716,61.6653,0.015750
128.778,61.6776,0.015713
128.841,61.6901,0.015713
128.903,61.7028,0.015713
128.966,61.7152,0.015713
129.028,61.7276,0.015703
129.091,61.7404,0.015703
129.153,61.7526,0.015703
129.216,61.7653,0.015703
129.277,61.7773,0.015722
129.337,61.7896,0.015722
129.399,61.8017,0.015722
129.462,61.8144,0.015722
129.525,61.8270,0.015731
129.588,61.8396,0.015731
129.651,61.8522,0.015731
129.714,61.8648,0.015731
129.777,61.8774,0.015703
129.838,61.8897,0.015703
129.900,61.9021,0.015703
129.962,61.9145,0.015703
130.025,61.9271,0.015647
130.087,61.9395,0.015647
130.150,61.9521,0.015647
130.211,61.9643,0.015647
130.275,61.9770,0.015731
130.336,61.9896,0.015731
130.399,62.0019,0.015731
130.460,62.0140,0.015731
130.523,62.0267,0.015760
130.587,62.0394,0.015760
130.648,62.0517,0.015760
130.711,62.0642,0.015760
130.773,62.0766,0.015703
130.835,62.0891,0.015703
130.896,62.1013,0.015703
130.959,62.1138,0.015703
131.021,62.1262,0.015731
131.084,62.1388,0.015731
131.147,62.1515,0.015731
131.209,62.1638,0.015731
131.270,62.1759,0.015778
131.332,62.1883,0.015778
131.395,62.2010,0.015778
131.457,62.2135,0.015778
131.520,62.2260,0.015722
131.582,62.2384,0.015722
131.643,62.2508,0.015722
131.706,62.2632,0.015722
131.769,62.2760,0.015694
131.833,62.2887,0.015694
131.895,62.3012,0.015694
131.958,62.3137,0.015694
132.020,62.3260,0.015694
132.083,62.3386,0.015694
132.145,62.3509,0.015694
132.207,62.3633,0.015694
132.269,62.3759,0.015722
132.330,62.3879,0.015722
132.392,62.4004,0.015722
132.456,62.4132,0.015722
132.518,62.4256,0.015797
132.581,62.4381,0.015797
132.643,62.4508,0.015797
132.705,62.4629,0.015797
132.767,62.4754,0.015769
132.830,62.4881,0.015769
132.891,62.5002,0.015769
132.954,62.5126,0.015769
133.015,62.5251,0.015731
133.078,62.5375,0.015731
133.140,62.5501,0.015731
133.203,62.5626,0.015731
133.265,62.5750,0.015750
133.328,62.5877,0.015750
133.392,62.6003,0.015750
133.453,62.6126,0.015750
133.515,62.6249,0.015778
133.576,62.6372,0.015778
133.637,62.6493,0.015778
133.700,62.6621,0.015778
133.762,62.6745,0.015835
133.825,62.6869,0.015835
133.886,62.6992,0.015835
133.949,62.7117,0.015835
134.012,62.7244,0.015807
134.074,62.7369,0.015807
134.136,62.7492,0.015807
134.198,62.7617,0.015807
134.261,62.7742,0.015778
134.325,62.7869,0.015778
134.386,62.7993,0.015778
134.448,62.8117,0.015778
134.511,62.8242,0.015750
134.573,62.8366,0.015750
134.635,62.8490,0.015750
134.696,62.8612,0.015750
134.758,62.8736,0.015713
134.820,62.8860,0.015713
134.882,62.8985,0.015713
134.946,62.9111,0.015713
135.007,62.9234,0.015731
135.070,62.9359,0.015731
135.132,62.9485,0.015731
135.195,62.9610,0.015731
135.256,62.9730,0.015731
135.318,62.9854,0.015722
135.379,62.9978,0.015722
135.442,63.0105,0.015722
135.504,63.0230,0.015713
135.567,63.0355,0.015713
135.629,63.0479,0.015713
135.692,63.0606,0.015713
135.755,63.0731,0.015741
135.817,63.0853,0.015741
135.881,63.0983,0.015741
135.939,63.1097,0.015741
136.002,63.1223,0.015778
136.065,63.1349,0.015778
136.127,63.1473,0.015778
136.189,63.1598,0.015778
136.252,63.1722,0.015816
136.314,63.1846,0.015816
136.376,63.1971,0.015816
136.439,63.2094,0.015816
136.500,63.2191,0.015816
136.564,63.2260,0.015797
136.624,63.2298,0.015797
136.687,63.2307,0.015797
136.751,63.2307,0.015778
136.813,63.2307,0.015778
136.873,63.2307,0.015778
136.935,63.2307,0.015778
136.996,63.2307,0.015778
137.059,63.2307,0.015778
137.121,63.2307,0.015778
137.184,63.2307,0.015778
137.246,63.2307,0.015769
137.308,63.2307,0.015769
137.369,63.2307,0.015769
137.432,63.2307,0.015769
137.495,63.2307,0.015760
137.558,63.2307,0.015760
137.619,63.2307,0.015760
137.682,63.2307,0.015760
137.744,63.2307,0.015713
137.806,63.2307,0.015713
137.869,63.2307,0.015713
137.932,63.2307,0.015713
137.994,63.2307,0.015778
138.056,63.2307,0.015778
138.118,63.2307,0.015778
138.182,63.2307,0.015778
138.245,63.2307,0.015778
138.307,63.2307,0.015788
138.369,63.2307,0.015788
138.433,63.2307,0.015788
138.496,63.2307,0.015750
138.557,63.2307,0.015750
138.620,63.2307,0.015750
138.682,63.2307,0.015750
138.744,63.2307,0.015741
138.807,63.2307,0.015741
138.869,63.2307,0.015741
138.930,63.2307,0.015741
138.993,63.2307,0.015713
139.055,63.2307,0.015713
139.117,63.2307,0.015713
139.179,63.2307,0.015713
139.242,63.2307,0.015760
139.304,63.2307,0.015760
139.369,63.2307,0.015760
139.430,63.2307,0.015760
139.492,63.2307,0.015760
139.553,63.2307,0.015750
139.615,63.2307,0.015750
139.677,63.2307,0.015750
139.740,63.2307,0.015750
139.803,63.2307,0.015731
139.865,63.2307,0.015731
139.927,63.2307,0.015731
139.988,63.2307,0.015713
140.051,63.2307,0.015713
140.113,63.2307,0.015713
140.177,63.2307,0.015713
140.240,63.2307,0.015694
140.302,63.2307,0.015694
140.365,63.2307,0.015694
140.428,63.2307,0.015694
140.492,63.2307,0.015694
140.553,63.2307,0.015741
140.614,63.2307,0.015741
140.677,63.2307,0.015741
140.739,63.2307,0.015741
140.801,63.2307,0.015760
140.866,63.2307,0.015760
140.926,63.2307,0.015760
140.988,63.2307,0.015760
141.050,63.2307,0.015731
141.112,63.2307,0.015731
141.178,63.2307,0.015731
141.240,63.2307,0.015750
141.300,63.2300,0.015750
141.362,63.2264,0.015750
141.424,63.2197,0.015750
141.486,63.2103,0.015750
141.548,63.1983,0.015750
141.610,63.1860,0.015750
141.672,63.1736,0.015750
141.735,63.1610,0.015703
141.796,63.1488,0.015703
141.858,63.1364,0.015703
141.919,63.1241,0.015703
141.982,63.1116,0.015684
142.044,63.0989,0.015684
142.106,63.0868,0.015684
142.169,63.0741,0.015684
142.234,63.0611,0.015684
142.293,63.0492,0.015684
142.356,63.0365,0.015684
142.419,63.0240,0.015684
142.481,63.0118,0.015713
142.542,62.9994,0.015713
142.605,62.9870,0.015713
142.666,62.9748,0.015713
142.728,62.9624,0.015713
142.791,62.9498,0.015760
142.852,62.9374,0.015760
142.917,62.9247,0.015760
142.978,62.9123,0.015769
143.042,62.8996,0.015769
143.104,62.8872,0.015769
143.167,62.8744,0.015769
143.228,62.8621,0.015769
143.291,62.8499,0.015750
143.353,62.8373,0.015750
143.414,62.8251,0.015750
143.477,62.8125,0.015750
143.539,62.8001,0.015769
143.602,62.7876,0.015769
143.665,62.7751,0.015769
143.726,62.7627,0.015769
143.790,62.7500,0.015760
143.851,62.7376,0.015760
143.913,62.7251,0.015760
143.976,62.7127,0.015760
144.039,62.7002,0.015788
144.101,62.6876,0.015788
144.164,62.6751,0.015788
144.227,62.6625,0.015788
144.289,62.6502,0.015835
144.350,62.6378,0.015835
144.412,62.6254,0.015835
144.475,62.6129,0.015835
144.539,62.6002,0.015741
144.601,62.5877,0.015741
144.664,62.5752,0.015741
144.726,62.5628,0.015722
144.786,62.5507,0.015722
144.847,62.5386,0.015722
144.911,62.5257,0.015722
144.972,62.5136,0.015750
145.035,62.5010,0.015750
145.098,62.4883,0.015750
145.161,62.4757,0.015750
145.226,62.4627,0.015750
145.287,62.4506,0.015731
145.347,62.4386,0.015731
145.411,62.4258,0.015731
145.472,62.4136,0.015731
145.534,62.4012,0.015750
145.596,62.3886,0.015750
145.660,62.3760,0.015750
145.722,62.3636,0.015750
145.783,62.3514,0.015731
145.847,62.3385,0.015731
145.908,62.3262,0.015731
145.970,62.3140,0.015703
146.033,62.3014,0.015703
146.095,62.2890,0.015703
146.157,62.2766,0.015703
146.223,62.2634,0.015703
146.281,62.2518,0.015713
146.343,62.2393,0.015713
146.404,62.2271,0.015713
146.466,62.2147,0.015769
146.529,62.2021,0.015769
146.592,62.1896,0.015769
146.654,62.1772,0.015769
146.715,62.1649,0.015769
146.777,62.1525,0.015750
146.842,62.1393,0.015750
146.902,62.1276,0.015750
146.964,62.1152,0.015750
147.026,62.1028,0.015675
147.088,62.0905,0.015675
147.149,62.0782,0.015675
147.211,62.0658,0.015675
147.273,62.0534,0.015694
147.336,62.0409,0.015694
147.398,62.0282,0.015694
147.460,62.0159,0.015694
147.521,62.0038,0.015750
147.583,61.9915,0.015750
147.645,61.9791,0.015750
147.706,61.9667,0.015750
147.769,61.9542,0.015722
147.832,61.9416,0.015722
147.895,61.9290,0.015722
147.958,61.9162,0.015722
148.021,61.9037,0.015713
148.081,61.8917,0.015713
148.143,61.8794,0.015713
148.205,61.8669,0.015713
148.267,61.8545,0.015760
148.329,61.8422,0.015760
148.391,61.8298,0.015760
148.456,61.8168,0.015760
148.517,61.8045,0.015731
148.578,61.7922,0.015731
148.640,61.7800,0.015731
148.701,61.7678,0.015731
148.764,61.7552,0.015694
148.826,61.7427,0.015694
148.888,61.7302,0.015694
148.950,61.7178,0.015694
149.011,61.7055,0.015722
149.074,61.6931,0.015722
149.137,61.6803,0.015722
149.198,61.6683,0.015722
149.262,61.6555,0.015684
149.324,61.6431,0.015684
149.385,61.6310,0.015684
149.446,61.6188,0.015684
149.508,61.6063,0.015684
149.571,61.5936,0.015703
149.633,61.5815,0.015703
149.695,61.5688,0.015703
149.761,61.5557,0.015769
149.819,61.5442,0.015769
149.882,61.5317,0.015769
149.943,61.5195,0.015769
150.005,61.5071,0.015769
150.065,61.4950,0.015769
150.127,61.4825,0.015769
150.189,61.4702,0.015769
150.251,61.4577,0.015750
150.311,61.4459,0.015750
150.374,61.4333,0.015750
150.437,61.4206,0.015750
150.498,61.4085,0.015741
150.560,61.3961,0.015741
150.622,61.3835,0.015741
150.689,61.3700,0.015741
150.750,61.3580,0.015741
150.813,61.3453,0.015713
150.876,61.3329,0.015713
150.939,61.3203,0.015713
151.002,61.3076,0.015722
151.064,61.2950,0.015722
151.126,61.2828,0.015722
151.188,61.2704,0.015722
151.249,61.2582,0.015722
151.311,61.2459,0.015750
151.373,61.2335,0.015750
151.434,61.2212,0.015750
151.497,61.2087,0.015760
151.559,61.1961,0.015760
151.622,61.1837,0.015760
151.683,61.1712,0.015760
151.745,61.1589,0.015731
151.807,61.1467,0.015731
151.870,61.1340,0.015731
151.933,61.1215,0.015731
151.996,61.1090,0.015731
152.057,61.0965,0.015731
152.120,61.0839,0.015731
152.182,61.0715,0.015731
152.244,61.0592,0.015741
152.305,61.0469,0.015741
152.368,61.0345,0.015741
152.431,61.0218,0.015741
152.492,61.0095,0.015694
152.555,60.9970,0.015694
152.617,60.9844,0.015694
152.680,60.9718,0.015694
152.743,60.9594,0.015675
152.805,60.9469,0.015675
152.868,60.9342,0.015675
152.932,60.9217,0.015675
152.993,60.9094,0.015760
153.059,60.8963,0.015760
153.118,60.8843,0.015760
153.184,60.8711,0.015760
153.245,60.8592,0.015788
153.306,60.8468,0.015788
153.367,60.8345,0.015788
153.429,60.8223,0.015788
153.491,60.8097,0.015731
153.555,60.7969,0.015731
153.616,60.7846,0.015731
153.677,60.7726,0.015731
153.741,60.7598,0.015731
153.804,60.7473,0.015769
153.867,60.7345,0.015769
153.930,60.7221,0.015769
153.990,60.7100,0.015769
154.052,60.6976,0.015769
154.115,60.6850,0.015769
154.178,60.6724,0.015769
154.241,60.6597,0.015769
154.301,60.6478,0.015731
154.364,60.6352,0.015731
154.428,60.6224,0.015731
154.487,60.6106,0.015731
154.549,60.5981,0.015769
154.610,60.5859,0.015769
154.673,60.5733,0.015769
154.736,60.5609,0.015769
154.798,60.5484,0.015760
154.861,60.5358,0.015760
154.924,60.5232,0.015760
154.986,60.5109,0.015769
155.047,60.4985,0.015769
155.109,60.4862,0.015769
155.170,60.4740,0.015769
155.232,60.4615,0.015769
155.293,60.4494,0.015807
155.356,60.4367,0.015807
155.419,60.4243,0.015807
155.482,60.4116,0.015807
155.544,60.3992,0.015750
155.607,60.3865,0.015750
155.667,60.3744,0.015750
155.729,60.3623,0.015750
155.791,60.3497,0.015694
155.854,60.3372,0.015694
155.918,60.3245,0.015694
155.979,60.3123,0.015694
156.042,60.2996,0.015731
156.107,60.2867,0.015731
156.170,60.2740,0.015731
156.229,60.2622,0.015741
156.291,60.2498,0.015741
156.353,60.2376,0.015741
156.416,60.2247,0.015741
156.479,60.2123,0.015741
156.539,60.2002,0.015741
156.601,60.1880,0.015741
156.663,60.1754,0.015741
156.726,60.1629,0.015741
156.788,60.1506,0.015741
156.849,60.1382,0.015741
156.912,60.1256,0.015741
156.975,60.1132,0.015778
157.036,60.1010,0.015778
157.098,60.0886,0.015778
157.161,60.0758,0.015778
157.222,60.0637,0.015778
157.283,60.0514,0.015769
157.345,60.0389,0.015769
157.408,60.0262,0.015769
157.470,60.0142,0.015769
157.533,60.0014,0.015731
157.598,59.9885,0.015731
157.658,59.9764,0.015731
157.720,59.9640,0.015731
157.784,59.9512,0.015778
157.848,59.9384,0.015778
157.908,59.9264,0.015778
157.971,59.9136,0.015778
158.035,59.9008,0.015797
158.095,59.8888,0.015797
158.158,59.8764,0.015797
158.220,59.8640,0.015797
158.281,59.8519,0.015797
158.344,59.8392,0.015797
158.405,59.8269,0.015797
158.467,59.8146,0.015797
158.530,59.8021,0.015722
158.592,59.7895,0.015722
158.653,59.7773,0.015722
158.716,59.7648,0.015722
158.778,59.7524,0.015713
158.840,59.7400,0.015713
158.902,59.7276,0.015713
158.964,59.7153,0.015713
159.026,59.7029,0.015750
159.089,59.6902,0.015750
159.150,59.6781,0.015750
159.212,59.6656,0.015750
159.276,59.6529,0.015703
159.337,59.6406,0.015703
159.401,59.6277,0.015703
159.463,59.6156,0.015703
159.526,59.6028,0.015769
159.587,59.5907,0.015769
159.650,59.5781,0.015769
159.713,59.5655,0.015769
159.775,59.5532,0.015807
159.835,59.5410,0.015807
159.898,59.5284,0.015807
159.960,59.5161,0.015807
160.021,59.5038,0.015760
160.082,59.4916,0.015760
160.144,59.4793,0.015760
160.206,59.4669,0.015760
160.268,59.4545,0.015703
160.330,59.4421,0.015703
160.393,59.4296,0.015703
160.456,59.4169,0.015703
160.519,59.4044,0.015713
160.581,59.3918,0.015713
160.643,59.3794,0.015713
160.706,59.3669,0.015713
160.768,59.3545,0.015769
160.831,59.3420,0.015769
160.893,59.3295,0.015769
160.956,59.3169,0.015769
161.018,59.3044,0.015741
161.081,59.2918,0.015741
161.145,59.2790,0.015741
161.208,59.2666,0.015741
161.270,59.2542,0.015750
161.332,59.2417,0.015750
161.395,59.2293,0.015750
161.456,59.2170,0.015750
161.521,59.2040,0.015769
161.579,59.1944,0.015769
161.641,59.1870,0.015769
161.702,59.1824,0.015769
161.764,59.1808,0.015713
161.826,59.1808,0.015713
161.888,59.1808,0.015713
161.950,59.1808,0.015713
162.012,59.1808,0.015713
162.074,59.1808,0.015713
162.136,59.1808,0.015713
162.199,59.1808,0.015713
162.261,59.1808,0.015760
162.323,59.1809,0.015760
162.386,59.1831,0.015760
162.449,59.1883,0.015760
162.510,59.1964,0.015760
162.574,59.2075,0.015760
162.636,59.2198,0.015760
162.699,59.2326,0.015760
162.760,59.2448,0.015694
162.826,59.2580,0.015694
162.888,59.2704,0.015694
162.948,59.2825,0.015694
163.012,59.2952,0.015703
163.073,59.3074,0.015703
163.135,59.3198,0.015703
163.198,59.3324,0.015703
163.260,59.3448,0.015731
163.324,59.3576,0.015731
163.384,59.3698,0.015731
163.446,59.3820,0.015731
163.509,59.3946,0.015769
163.571,59.4070,0.015769
163.633,59.4195,0.015769
163.695,59.4320,0.015769
163.759,59.4444,0.015769
163.819,59.4566,0.015769
163.882,59.4692,0.015769
163.945,59.4816,0.015769
164.007,59.4942,0.015769
164.070,59.5067,0.015760
164.132,59.5192,0.015760
164.194,59.5315,0.015760
164.257,59.5443,0.015769
164.318,59.5566,0.015769
164.380,59.5690,0.015769
164.443,59.5815,0.015769
164.506,59.5940,0.015769
164.569,59.6067,0.015750
164.629,59.6188,0.015750
164.692,59.6312,0.015750
164.754,59.6436,0.015722
164.817,59.6561,0.015722
164.880,59.6687,0.015722
164.942,59.6811,0.015722
165.005,59.6937,0.015703
165.068,59.7064,0.015703
165.129,59.7186,0.015703
165.191,59.7309,0.015703
165.253,59.7432,0.015778
165.315,59.7559,0.015778
165.377,59.7684,0.015778
165.440,59.7810,0.015778
165.503,59.7934,0.015713
165.566,59.8061,0.015713
165.631,59.8191,0.015713
165.690,59.8310,0.015713
165.756,59.8442,0.015684
165.816,59.8561,0.015684
165.879,59.8686,0.015684
165.943,59.8812,0.015684
166.006,59.8939,0.015778
166.068,59.9063,0.015778
166.132,59.9192,0.015778
166.191,59.9310,0.015778
166.255,59.9438,0.015741
166.314,59.9558,0.015741
166.377,59.9684,0.015741
166.440,59.9808,0.015741
166.502,59.9934,0.015750
166.565,60.0059,0.015750
166.628,60.0185,0.015750
166.691,60.0311,0.015750
166.755,60.0437,0.015788
166.817,60.0561,0.015788
166.879,60.0686,0.015788
166.941,60.0809,0.015788
167.004,60.0937,0.015769
167.067,60.1062,0.015769
167.129,60.1187,0.015769
167.193,60.1314,0.015769
167.255,60.1438,0.015769
167.317,60.1563,0.015750
167.380,60.1687,0.015750
167.443,60.1815,0.015750
167.504,60.1937,0.015750
167.567,60.2061,0.015788
167.630,60.2187,0.015788
167.691,60.2310,0.015788
167.753,60.2435,0.015816
167.816,60.2559,0.015816
167.878,60.2684,0.015816
167.940,60.2807,0.015816
168.000,60.2928,0.015760
168.063,60.3053,0.015760
168.125,60.3177,0.015760
168.187,60.3301,0.015760
168.248,60.3426,0.015741
168.310,60.3549,0.015741
168.372,60.3673,0.015741
168.435,60.3799,0.015741
168.498,60.3923,0.015750
168.561,60.4049,0.015750
168.622,60.4173,0.015750
168.686,60.4299,0.015750
168.747,60.4422,0.015760
168.809,60.4545,0.015760
168.873,60.4673,0.015760
168.934,60.4798,0.015760
168.997,60.4921,0.015769
169.059,60.5046,0.015769
169.122,60.5172,0.015769
169.184,60.5296,0.015769
169.246,60.5420,0.015760
169.308,60.5544,0.015760
169.371,60.5670,0.015760
169.433,60.5796,0.015760
169.495,60.5917,0.015760
169.557,60.6041,0.015731
169.620,60.6166,0.015731
169.682,60.6291,0.015731
169.745,60.6418,0.015760
169.807,60.6542,0.015760
169.869,60.6664,0.015760
169.932,60.6791,0.015760
169.995,60.6916,0.015760
170.056,60.7038,0.015760
170.118,60.7163,0.015760
170.180,60.7287,0.015760
170.242,60.7412,0.015760
170.305,60.7539,0.015769
170.368,60.7664,0.015769
170.431,60.7789,0.015769
170.494,60.7916,0.015769
170.556,60.8040,0.015778
170.618,60.8165,0.015778
170.680,60.8287,0.015778
170.741,60.8408,0.015778
170.803,60.8533,0.015788
170.865,60.8659,0.015788
170.927,60.8780,0.015788
170.988,60.8904,0.015788
171.050,60.9029,0.015741
171.112,60.9154,0.015741
171.173,60.9276,0.015741
171.235,60.9399,0.015684
171.298,60.9524,0.015684
171.362,60.9652,0.015684
171.422,60.9772,0.015684
171.486,60.9903,0.015731
171.549,61.0028,0.015731
171.613,61.0153,0.015731
171.672,61.0271,0.015731
171.734,61.0396,0.015750
171.796,61.0519,0.015750
171.859,61.0646,0.015750
171.921,61.0771,0.015750
171.984,61.0894,0.015731
172.046,61.1019,0.015731
172.110,61.1148,0.015731
172.170,61.1267,0.015731
172.233,61.1393,0.015760
172.296,61.1520,0.015760
172.358,61.1643,0.015760
172.420,61.1768,0.015760
172.484,61.1894,0.015797
172.546,61.2018,0.015797
172.607,61.2142,0.015797
172.670,61.2267,0.015797
172.733,61.2394,0.015788
172.795,61.2518,0.015788
172.856,61.2640,0.015788
172.919,61.2765,0.015788
172.984,61.2897,0.015788
173.044,61.3014,0.015788
173.106,61.3142,0.015788
173.169,61.3264,0.015788
173.231,61.3389,0.015788
173.295,61.3519,0.015797
173.354,61.3636,0.015797
173.417,61.3761,0.015797
173.481,61.3887,0.015797
173.542,61.4012,0.015797
173.604,61.4137,0.015797
173.666,61.4260,0.015797
173.728,61.4384,0.015807
173.791,61.4509,0.015807
173.853,61.4633,0.015807
173.915,61.4758,0.015807
173.978,61.4883,0.015778
174.040,61.5006,0.015778
174.102,61.5130,0.015778
174.165,61.5258,0.015778
174.227,61.5379,0.015722
174.289,61.5506,0.015722
174.351,61.5629,0.015722
174.413,61.5754,0.015722
174.476,61.5881,0.015722
174.538,61.6003,0.015741
174.605,61.6137,0.015741
174.663,61.6254,0.015741
174.726,61.6379,0.015741
174.787,61.6502,0.015807
174.852,61.6631,0.015807
174.913,61.6752,0.015807
174.975,61.6878,0.015807
175.036,61.6999,0.015797
175.096,61.7120,0.015797
175.160,61.7249,0.015797
175.219,61.7365,0.015797
175.282,61.7490,0.015778
175.346,61.7619,0.015778
175.407,61.7741,0.015778
175.468,61.7864,0.015778
175.530,61.7988,0.015778
175.591,61.8110,0.015778
175.652,61.8233,0.015778
175.715,61.8357,0.015778
175.778,61.8483,0.015750
175.840,61.8607,0.015750
175.902,61.8731,0.015750
175.964,61.8856,0.015750
176.027,61.8981,0.015750
176.090,61.9106,0.015750
176.151,61.9230,0.015750
176.214,61.9354,0.015750
176.276,61.9478,0.015760
176.338,61.9602,0.015760
176.401,61.9729,0.015760
176.463,61.9853,0.015760
176.526,61.9978,0.015769
176.587,62.0101,0.015769
176.651,62.0229,0.015769
176.712,62.0350,0.015769
176.775,62.0477,0.015797
176.836,62.0598,0.015797
176.898,62.0722,0.015797
176.959,62.0845,0.015797
177.022,62.0970,0.015797
177.085,62.1096,0.015807
177.147,62.1222,0.015807
177.210,62.1346,0.015807
177.272,62.1472,0.015741
177.334,62.1593,0.015741
177.394,62.1715,0.015741
177.457,62.1840,0.015741
177.519,62.1965,0.015713
177.582,62.2092,0.015713
177.644,62.2214,0.015713
177.705,62.2337,0.015713
177.767,62.2461,0.015788
177.830,62.2585,0.015788
177.892,62.2712,0.015788
177.955,62.2837,0.015788
178.017,62.2960,0.015844
178.080,62.3086,0.015844
178.142,62.3210,0.015844
178.203,62.3334,0.015844
178.266,62.3460,0.015807
178.327,62.3581,0.015807
178.389,62.3706,0.015807
178.452,62.3832,0.015807
178.515,62.3959,0.015769
178.579,62.4086,0.015769
178.642,62.4211,0.015769
178.706,62.4338,0.015769
178.768,62.4463,0.015750
178.829,62.4585,0.015750
178.894,62.4715,0.015750
178.953,62.4835,0.015750
179.016,62.4960,0.015731
179.078,62.5083,0.015731
179.140,62.5206,0.015731
179.203,62.5332,0.015731
179.265,62.5456,0.015741
179.327,62.5580,0.015741
179.390,62.5707,0.015741
179.456,62.5840,0.015741
179.515,62.5956,0.015760
179.578,62.6083,0.015760
179.640,62.6207,0.015760
179.701,62.6328,0.015760
179.763,62.6454,0.015769
179.826,62.6579,0.015769
179.889,62.6705,0.015769
179.950,62.6828,0.015769
180.012,62.6952,0.015722
180.074,62.7075,0.015722
180.135,62.7198,0.015722
180.198,62.7324,0.015722
180.261,62.7449,0.015722
180.324,62.7575,0.015722
180.387,62.7700,0.015722
180.449,62.7825,0.015722
180.512,62.7952,0.015722
180.575,62.8077,0.015797
180.636,62.8199,0.015797
180.699,62.8324,0.015797
180.761,62.8448,0.015760
180.823,62.8572,0.015760
180.887,62.8701,0.015760
180.950,62.8826,0.015760
181.010,62.8948,0.015750
181.073,62.9072,0.015750
181.134,62.9194,0.015750
181.197,62.9321,0.015750
181.259,62.9444,0.015750
181.321,62.9569,0.015760
181.384,62.9694,0.015760
181.448,62.9822,0.015760
181.509,62.9944,0.015750
181.570,63.0068,0.015750
181.632,63.0190,0.015750
181.694,63.0314,0.015750
181.755,63.0437,0.015750
181.817,63.0561,0.015760
181.881,63.0689,0.015760
181.943,63.0813,0.015760
182.006,63.0938,0.015816
182.068,63.1062,0.015816
182.131,63.1189,0.015816
182.193,63.1314,0.015816
182.256,63.1439,0.015854
182.318,63.1562,0.015854
182.382,63.1670,0.015854
182.444,63.1746,0.015854
182.506,63.1790,0.015882
182.567,63.1808,0.015882
182.630,63.1808,0.015882
182.692,63.1808,0.015882
182.755,63.1808,0.015873
182.816,63.1808,0.015873
182.879,63.1808,0.015873
182.942,63.1808,0.015873
183.003,63.1808,0.015778
183.066,63.1808,0.015778
183.129,63.1808,0.015778
183.191,63.1808,0.015778
183.255,63.1808,0.015778
183.318,63.1808,0.015741
183.380,63.1808,0.015741
183.441,63.1808,0.015741
183.505,63.1808,0.015731
183.566,63.1808,0.015731
183.628,63.1808,0.015731
183.689,63.1808,0.015731
183.751,63.1808,0.015750
183.815,63.1808,0.015750
183.878,63.1808,0.015750
183.941,63.1808,0.015750
184.002,63.1808,0.015816
184.063,63.1808,0.015816
184.128,63.1808,0.015816
184.188,63.1808,0.015816
184.251,63.1808,0.015826
184.314,63.1808,0.015826
184.378,63.1808,0.015826
184.439,63.1808,0.015826
184.499,63.1808,0.015816
184.562,63.1808,0.015816
184.624,63.1808,0.015816
184.687,63.1808,0.015816
184.751,63.1808,0.015797
184.813,63.1808,0.015797
184.877,63.1808,0.015797
184.938,63.1808,0.015797
185.001,63.1808,0.015788
185.061,63.1808,0.015788
185.123,63.1808,0.015788
185.187,63.1808,0.015788
185.248,63.1808,0.015788
185.309,63.1808,0.015816
185.373,63.1808,0.015816
185.436,63.1808,0.015816
185.499,63.1808,0.015788
185.562,63.1808,0.015788
185.624,63.1808,0.015788
185.684,63.1808,0.015788
185.747,63.1808,0.015788
185.810,63.1808,0.015750
185.874,63.1808,0.015750
185.936,63.1808,0.015750
185.999,63.1808,0.015760
186.062,63.1808,0.015760
186.125,63.1808,0.015760
186.187,63.1808,0.015760
186.250,63.1808,0.015778
186.313,63.1808,0.015778
186.377,63.1808,0.015778
186.443,63.1808,0.015778
186.502,63.1808,0.015797
186.565,63.1808,0.015797
186.628,63.1808,0.015797
186.691,63.1808,0.015797
186.753,63.1808,0.015816
186.816,63.1808,0.015816
186.878,63.1808,0.015816
186.941,63.1808,0.015816
187.003,63.1808,0.015788
187.065,63.1808,0.015788
187.126,63.1808,0.015788
187.191,63.1788,0.015788
187.252,63.1739,0.015769
187.316,63.1660,0.015769
187.376,63.1555,0.015769
187.438,63.1431,0.015769
187.500,63.1308,0.015863
187.564,63.1180,0.015863
187.626,63.1056,0.015863
187.686,63.0935,0.015863
187.749,63.0810,0.015807
187.811,63.0686,0.015807
187.873,63.0562,0.015807
187.935,63.0438,0.015807
187.996,63.0316,0.015760
188.059,63.0190,0.015760
188.121,63.0065,0.015760
188.184,62.9941,0.015760
188.246,62.9816,0.015769
188.308,62.9692,0.015769
188.372,62.9563,0.015769
188.433,62.9443,0.015769
188.495,62.9317,0.015731
188.558,62.9192,0.015731
188.621,62.9067,0.015731
188.683,62.8943,0.015731
188.745,62.8819,0.015731
188.807,62.8693,0.015722
188.874,62.8561,0.015722
188.932,62.8444,0.015722
188.995,62.8319,0.015713
189.058,62.8194,0.015713
189.119,62.8070,0.015713
189.181,62.7948,0.015713
189.243,62.7823,0.015750
189.305,62.7699,0.015750
189.368,62.7573,0.015750
189.431,62.7447,0.015750
189.494,62.7322,0.015769
189.556,62.7196,0.015769
189.618,62.7072,0.015769
189.679,62.6951,0.015769
189.742,62.6824,0.015778
189.804,62.6700,0.015778
189.866,62.6575,0.015778
189.928,62.6450,0.015778
189.990,62.6328,0.015788
190.053,62.6202,0.015788
190.116,62.6075,0.015788
190.179,62.5951,0.015788
190.240,62.5828,0.015741
190.303,62.5704,0.015741
190.365,62.5579,0.015741
190.429,62.5451,0.015741
190.491,62.5326,0.015741
190.554,62.5198,0.015750
190.618,62.5073,0.015750
190.680,62.4950,0.015750
190.742,62.4825,0.015741
190.803,62.4702,0.015741
190.866,62.4576,0.015741
190.929,62.4451,0.015741
190.991,62.4325,0.015703
191.053,62.4204,0.015703
191.115,62.4078,0.015703
191.178,62.3952,0.015703
191.241,62.3827,0.015750
191.304,62.3700,0.015750
191.366,62.3577,0.015750
191.426,62.3456,0.015750
191.489,62.3331,0.015807
191.552,62.3205,0.015807
191.617,62.3073,0.015807
191.677,62.2952,0.015807
191.741,62.2826,0.015769
191.803,62.2702,0.015769
191.866,62.2577,0.015769
191.926,62.2456,0.015769
191.988,62.2332,0.015722
192.051,62.2208,0.015722
192.113,62.2082,0.015722
192.177,62.1954,0.015722
192.237,62.1835,0.015741
192.299,62.1711,0.015741
192.361,62.1587,0.015741
192.424,62.1460,0.015741
192.487,62.1334,0.015741
192.547,62.1216,0.015760
192.608,62.1092,0.015760
192.672,62.0964,0.015760
192.731,62.0846,0.015750
192.793,62.0722,0.015750
192.856,62.0597,0.015750
192.918,62.0473,0.015750
192.980,62.0347,0.015788
193.043,62.0223,0.015788
193.106,62.0097,0.015788
193.169,61.9972,0.015788
193.230,61.9848,0.015741
193.292,61.9725,0.015741
193.353,61.9602,0.015741
193.416,61.9475,0.015741
193.482,61.9343,0.015741
193.541,61.9224,0.015750
193.603,61.9101,0.015750
193.668,61.8972,0.015750
193.729,61.8852,0.015797
193.791,61.8727,0.015797
193.853,61.8602,0.015797
193.915,61.8476,0.015797
193.980,61.8350,0.015797
194.039,61.8230,0.015788
194.102,61.8104,0.015788
194.163,61.7982,0.015788
194.224,61.7860,0.015788
194.287,61.7735,0.015778
194.349,61.7609,0.015778
194.413,61.7480,0.015778
194.474,61.7360,0.015778
194.537,61.7234,0.015769
194.600,61.7108,0.015769
194.666,61.6977,0.015769
194.726,61.6855,0.015769
194.788,61.6733,0.015731
194.851,61.6609,0.015731
194.912,61.6482,0.015731
194.976,61.6357,0.015731
195.037,61.6234,0.015741
195.099,61.6111,0.015741
195.164,61.5981,0.015741
195.223,61.5862,0.015741
195.287,61.5734,0.015788
195.347,61.5614,0.015788
195.409,61.5490,0.015788
195.470,61.5368,0.015788
195.533,61.5241,0.015769
195.597,61.5114,0.015769
195.660,61.4989,0.015769
195.720,61.4867,0.015769
195.782,61.4744,0.015750
195.846,61.4616,0.015750
195.907,61.4495,0.015750
195.969,61.4371,0.015750
196.032,61.4246,0.015769
196.094,61.4122,0.015769
196.159,61.3990,0.015769
196.219,61.3870,0.015769
196.282,61.3745,0.015778
196.344,61.3620,0.015778
196.406,61.3497,0.015778
196.468,61.3373,0.015778
196.530,61.3248,0.015769
196.592,61.3124,0.015769
196.654,61.2999,0.015769
196.716,61.2875,0.015769
196.779,61.2749,0.015807
196.840,61.2629,0.015807
196.902,61.2506,0.015807
196.964,61.2382,0.015807
197.027,61.2255,0.015835
197.089,61.2133,0.015835
197.151,61.2005,0.015835
197.212,61.1885,0.015835
197.274,61.1760,0.015778
197.335,61.1638,0.015778
197.399,61.1510,0.015778
197.461,61.1386,0.015778
197.523,61.1262,0.015788
197.588,61.1132,0.015788
197.649,61.1009,0.015788
197.711,61.0886,0.015788
197.773,61.0761,0.015769
197.835,61.0638,0.015769
197.896,61.0517,0.015769
197.958,61.0393,0.015769
198.020,61.0268,0.015731
198.081,61.0147,0.015731
198.144,61.0022,0.015731
198.207,60.9895,0.015731
198.269,60.9771,0.015797
198.331,60.9646,0.015797
198.392,60.9523,0.015797
198.455,60.9400,0.015797
198.517,60.9275,0.015788
198.580,60.9147,0.015788
198.641,60.9027,0.015788
198.702,60.8904,0.015788
198.765,60.8779,0.015760
198.827,60.8655,0.015760
198.889,60.8531,0.015760
198.951,60.8407,0.015760
199.014,60.8280,0.015760
199.075,60.8159,0.015760
199.137,60.8034,0.015760
199.201,60.7906,0.015760
199.263,60.7783,0.015778
199.326,60.7658,0.015778
199.387,60.7535,0.015778
199.451,60.7409,0.015778
199.513,60.7284,0.015750
199.574,60.7160,0.015750
199.636,60.7035,0.015750
199.699,60.6910,0.015750
199.762,60.6783,0.015750
199.823,60.6663,0.015750
199.885,60.6538,0.015750
199.947,60.6414,0.015750
200.010,60.6289,0.015797
200.073,60.6163,0.015797
200.137,60.6033,0.015797
200.198,60.5914,0.015797
200.259,60.5790,0.015788
200.322,60.5663,0.015788
200.385,60.5537,0.015788
200.448,60.5414,0.015788
200.511,60.5288,0.015788
200.573,60.5162,0.015807
200.634,60.5041,0.015807
200.697,60.4916,0.015807
200.760,60.4790,0.015807
200.823,60.4664,0.015750
200.885,60.4539,0.015750
200.948,60.4413,0.015750
201.010,60.4289,0.015703
201.073,60.4163,0.015703
201.135,60.4040,0.015703
201.196,60.3916,0.015703
201.260,60.3788,0.015741
201.322,60.3665,0.015741
201.384,60.3540,0.015741
201.448,60.3411,0.015741
201.508,60.3292,0.015760
201.569,60.3171,0.015760
201.634,60.3042,0.015760
201.694,60.2920,0.015760
201.757,60.2795,0.015760
201.824,60.2660,0.015760
201.880,60.2549,0.015760
201.942,60.2425,0.015760
202.004,60.2302,0.015750
202.066,60.2177,0.015750
202.129,60.2052,0.015750
202.192,60.1925,0.015750
202.254,60.1800,0.015750
202.318,60.1674,0.015750
202.381,60.1548,0.015750
202.443,60.1422,0.015750
202.505,60.1299,0.015778
202.568,60.1174,0.015778
202.629,60.1051,0.015778
202.693,60.0923,0.015778
202.755,60.0799,0.015816
202.817,60.0677,0.015816
202.879,60.0552,0.015816
202.941,60.0427,0.015816
203.003,60.0303,0.015863
203.065,60.0178,0.015863
203.127,60.0055,0.015863
203.189,59.9930,0.015863
203.252,59.9805,0.015807
203.315,59.9678,0.015807
203.377,59.9554,0.015807
203.440,59.9429,0.015807
203.501,59.9309,0.015797
203.562,59.9185,0.015797
203.625,59.9058,0.015797
203.687,59.8936,0.015797
203.748,59.8814,0.015797
203.810,59.8688,0.015816
203.872,59.8563,0.015816
203.935,59.8439,0.015816
203.996,59.8316,0.015816
204.059,59.8191,0.015826
204.121,59.8067,0.015826
204.184,59.7943,0.015826
204.245,59.7819,0.015816
204.308,59.7693,0.015816
204.371,59.7567,0.015816
204.432,59.7446,0.015816
204.493,59.7323,0.015769
204.556,59.7199,0.015769
204.618,59.7071,0.015769
204.681,59.6947,0.015769
204.742,59.6824,0.015778
204.804,59.6699,0.015778
204.866,59.6575,0.015778
204.931,59.6447,0.015778
204.991,59.6326,0.015769
205.053,59.6202,0.015769
205.116,59.6078,0.015769
205.179,59.5951,0.015769
205.241,59.5826,0.015778
205.305,59.5698,0.015778
205.367,59.5574,0.015778
205.429,59.5451,0.015778
205.491,59.5326,0.015778
205.555,59.5200,0.015769
205.616,59.5076,0.015769
205.678,59.4954,0.015769
205.741,59.4826,0.015826
205.803,59.4704,0.015826
205.865,59.4580,0.015826
205.927,59.4454,0.015826
205.990,59.4329,0.015826
206.051,59.4209,0.015826
206.111,59.4087,0.015826
206.175,59.3959,0.015826
206.237,59.3837,0.015788
206.299,59.3711,0.015788
206.362,59.3586,0.015788
206.426,59.3458,0.015788
206.488,59.3334,0.015778
206.550,59.3209,0.015778
206.611,59.3088,0.015778
206.673,59.2963,0.015778
206.735,59.2838,0.015778
206.800,59.2709,0.015731
206.861,59.2588,0.015731
206.923,59.2464,0.015731
206.985,59.2340,0.015731
207.048,59.2213,0.015731
207.111,59.2085,0.015731
207.173,59.1964,0.015731
207.234,59.1841,0.015731
207.297,59.1717,0.015760
207.359,59.1592,0.015760
207.422,59.1476,0.015760
207.484,59.1392,0.015778
207.547,59.1336,0.015778
207.610,59.1310,0.015778
207.673,59.1308,0.015778
207.735,59.1308,0.015703
207.797,59.1323,0.015703
207.860,59.1367,0.015703
207.922,59.1440,0.015703
207.984,59.1545,0.015637
208.046,59.1667,0.015637
208.107,59.1790,0.015637
208.170,59.1914,0.015637
208.232,59.2038,0.015637
208.295,59.2162,0.015722
208.356,59.2286,0.015722
208.418,59.2410,0.015722
208.481,59.2534,0.015788
208.542,59.2660,0.015788
208.605,59.2785,0.015788
208.668,59.2909,0.015788
208.729,59.3032,0.015769
208.792,59.3158,0.015769
208.855,59.3283,0.015769
208.918,59.3411,0.015769
208.979,59.3533,0.015760
209.042,59.3658,0.015760
209.105,59.3785,0.015760
209.167,59.3909,0.015760
209.229,59.4033,0.015722
209.291,59.4157,0.015722
209.354,59.4281,0.015722
209.416,59.4405,0.015722
209.478,59.4530,0.015722
209.539,59.4653,0.015722
209.603,59.4779,0.015722
209.664,59.4903,0.015722
209.725,59.5025,0.015722
209.787,59.5148,0.015750
209.849,59.5273,0.015750
209.910,59.5394,0.015750
209.971,59.5516,0.015750
210.034,59.5644,0.015769
210.098,59.5770,0.015769
210.160,59.5893,0.015769
210.222,59.6018,0.015769
210.288,59.6150,0.015741
210.347,59.6269,0.015741
210.410,59.6394,0.015741
210.472,59.6518,0.015741
210.534,59.6643,0.015731
210.598,59.6770,0.015731
210.659,59.6894,0.015731
210.724,59.7025,0.015731
210.786,59.7147,0.015816
210.845,59.7265,0.015816
210.908,59.7390,0.015816
210.972,59.7519,0.015816
211.031,59.7637,0.015816
211.094,59.7762,0.015826
211.156,59.7886,0.015826
211.218,59.8010,0.015826
211.280,59.8135,0.015750
211.343,59.8262,0.015750
211.407,59.8390,0.015750
211.471,59.8519,0.015750
211.531,59.8636,0.015731
211.594,59.8762,0.015731
211.656,59.8886,0.015731
211.718,59.9011,0.015731
211.780,59.9135,0.015769
211.842,59.9259,0.015769
211.904,59.9383,0.015769
211.966,59.9506,0.015769
212.029,59.9632,0.015778
212.092,59.9757,0.015778
212.154,59.9883,0.015778
212.216,60.0007,0.015778
212.279,60.0132,0.015760
212.341,60.0257,0.015760
212.404,60.0384,0.015760
212.465,60.0504,0.015760
212.526,60.0628,0.015797
212.588,60.0751,0.015797
212.650,60.0875,0.015797
212.713,60.0999,0.015797
212.774,60.1122,0.015788
212.835,60.1243,0.015788
212.900,60.1374,0.015788
212.960,60.1494,0.015788
213.024,60.1622,0.015741
213.085,60.1744,0.015741
213.147,60.1868,0.015741
213.209,60.1992,0.015741
213.272,60.2118,0.015788
213.334,60.2242,0.015788
213.395,60.2364,0.015788
213.457,60.2488,0.015788
213.524,60.2621,0.015797
213.584,60.2742,0.015797
213.647,60.2868,0.015797
213.710,60.2992,0.015797
213.772,60.3120,0.015760
213.835,60.3243,0.015760
213.896,60.3367,0.015760
213.961,60.3494,0.015760
214.020,60.3615,0.015722
214.084,60.3741,0.015722
214.145,60.3865,0.015722
214.209,60.3992,0.015722
214.271,60.4116,0.015788
214.332,60.4237,0.015788
214.394,60.4361,0.015788
214.457,60.4488,0.015788
214.520,60.4614,0.015807
214.580,60.4736,0.015807
214.643,60.4861,0.015807
214.707,60.4988,0.015807
214.769,60.5112,0.015797
214.830,60.5233,0.015797
214.893,60.5360,0.015797
214.956,60.5485,0.015797
215.018,60.5610,0.015816
215.080,60.5733,0.015816
215.143,60.5859,0.015816
215.206,60.5985,0.015816
215.267,60.6109,0.015778
215.330,60.6233,0.015778
215.392,60.6359,0.015778
215.454,60.6483,0.015778
215.517,60.6607,0.015750
215.579,60.6730,0.015750
215.642,60.6858,0.015750
215.703,60.6979,0.015750
215.766,60.7106,0.015750
215.829,60.7232,0.015750
215.891,60.7355,0.015750
215.955,60.7484,0.015750
216.015,60.7603,0.015778
216.076,60.7726,0.015778
216.138,60.7850,0.015778
216.200,60.7974,0.015778
216.261,60.8097,0.015778
216.325,60.8225,0.015778
216.387,60.8349,0.015778
216.450,60.8474,0.015778
216.514,60.8602,0.015788
216.573,60.8721,0.015788
216.637,60.8847,0.015788
216.699,60.8972,0.015788
216.762,60.9098,0.015816
216.826,60.9227,0.015816
216.889,60.9352,0.015816
216.952,60.9477,0.015816
217.014,60.9601,0.015816
217.075,60.9723,0.015835
217.137,60.9848,0.015835
217.198,60.9972,0.015835
217.260,61.0094,0.015826
217.321,61.0218,0.015826
217.383,61.0340,0.015826
217.445,61.0463,0.015826
217.507,61.0587,0.015760
217.569,61.0710,0.015760
217.631,61.0837,0.015760
217.697,61.0969,0.015760
217.756,61.1086,0.015741
217.820,61.1214,0.015741
217.881,61.1336,0.015741
217.942,61.1458,0.015741
218.006,61.1586,0.015797
218.067,61.1708,0.015797
218.130,61.1834,0.015797
218.193,61.1959,0.015797
218.255,61.2083,0.015760
218.318,61.2208,0.015760
218.380,61.2335,0.015760
218.442,61.2457,0.015760
218.504,61.2582,0.015684
218.568,61.2711,0.015684
218.630,61.2833,0.015684
218.691,61.2956,0.015684
218.753,61.3080,0.015750
218.815,61.3204,0.015750
218.878,61.3328,0.015750
218.939,61.3452,0.015750
219.001,61.3576,0.015750
219.064,61.3703,0.015769
219.126,61.3825,0.015769
219.189,61.3952,0.015769
219.252,61.4077,0.015769
219.314,61.4203,0.015731
219.377,61.4328,0.015731
219.440,61.4453,0.015731
219.502,61.4578,0.015741
219.564,61.4701,0.015741
219.626,61.4826,0.015741
219.689,61.4950,0.015741
219.750,61.5074,0.015741
219.814,61.5202,0.015713
219.877,61.5327,0.015713
219.938,61.5450,0.015713
220.000,61.5574,0.015760
220.062,61.5697,0.015760
220.123,61.5820,0.015760
220.185,61.5944,0.015760
220.248,61.6069,0.015760
220.310,61.6194,0.015778
220.372,61.6317,0.015778
220.434,61.6442,0.015778
220.497,61.6566,0.015788
220.559,61.6692,0.015788
220.621,61.6814,0.015788
220.683,61.6940,0.015788
220.746,61.7067,0.015797
220.809,61.7191,0.015797
220.872,61.7315,0.015797
220.934,61.7441,0.015797
220.997,61.7569,0.015769
221.058,61.7689,0.015769
221.120,61.7813,0.015769
221.182,61.7937,0.015769
221.244,61.8061,0.015778
221.306,61.8186,0.015778
221.368,61.8309,0.015778
221.430,61.8434,0.015778
221.492,61.8559,0.015760
221.555,61.8685,0.015760
221.617,61.8809,0.015760
221.679,61.8933,0.015760
221.742,61.9058,0.015760
221.805,61.9186,0.015750
221.866,61.9306,0.015750
221.930,61.9434,0.015750
221.992,61.9557,0.015788
222.054,61.9681,0.015788
222.116,61.9806,0.015788
222.179,61.9932,0.015788
222.240,62.0053,0.015788
222.302,62.0178,0.015750
222.365,62.0304,0.015750
222.427,62.0427,0.015750
222.489,62.0553,0.015750
222.552,62.0677,0.015750
222.614,62.0802,0.015750
222.677,62.0927,0.015750
222.739,62.1052,0.015760
222.803,62.1180,0.015760
222.865,62.1302,0.015760
222.927,62.1427,0.015760
222.990,62.1552,0.015760
223.052,62.1679,0.015731
223.113,62.1801,0.015731
223.176,62.1925,0.015731
223.238,62.2051,0.015750
223.301,62.2177,0.015750
223.363,62.2300,0.015750
223.426,62.2424,0.015750
223.487,62.2548,0.015788
223.549,62.2672,0.015788
223.612,62.2799,0.015788
223.675,62.2923,0.015788
223.736,62.3045,0.015788
223.798,62.3172,0.015807
223.861,62.3297,0.015807
223.924,62.3421,0.015807
223.986,62.3546,0.015807
224.048,62.3670,0.015797
224.110,62.3794,0.015797
224.173,62.3919,0.015797
224.235,62.4045,0.015797
224.297,62.4167,0.015835
224.359,62.4291,0.015835
224.421,62.4416,0.015835
224.483,62.4539,0.015835
224.544,62.4663,0.015844
224.607,62.4788,0.015844
224.669,62.4911,0.015844
224.732,62.5037,0.015844
224.795,62.5162,0.015816
224.858,62.5290,0.015816
224.920,62.5414,0.015816
224.982,62.5537,0.015816
225.045,62.5665,0.015788
225.107,62.5788,0.015788
225.169,62.5910,0.015788
225.230,62.6032,0.015788
225.291,62.6157,0.015816
225.354,62.6281,0.015816
225.418,62.6409,0.015816
225.480,62.6533,0.015816
225.542,62.6656,0.015826
225.605,62.6782,0.015826
225.667,62.6906,0.015826
225.729,62.7031,0.015826
225.793,62.7158,0.015816
225.854,62.7282,0.015816
225.917,62.7406,0.015816
225.979,62.7531,0.015826
226.043,62.7659,0.015826
226.105,62.7783,0.015826
226.170,62.7915,0.015826
226.229,62.8031,0.015835
226.292,62.8156,0.015835
226.355,62.8282,0.015835
226.417,62.8407,0.015835
226.479,62.8532,0.015826
226.540,62.8654,0.015826
226.603,62.8779,0.015826
226.666,62.8905,0.015826
226.729,62.9031,0.015769
226.790,62.9154,0.015769
226.852,62.9276,0.015769
226.914,62.9403,0.015769
226.978,62.9529,0.015769
227.042,62.9658,0.015797
227.102,62.9777,0.015797
227.165,62.9904,0.015797
227.224,63.0022,0.015797
227.287,63.0146,0.015844
227.349,63.0271,0.015844
227.412,63.0399,0.015844
227.474,63.0520,0.015844
227.536,63.0647,0.015835
227.597,63.0767,0.015835
227.658,63.0889,0.015835
227.720,63.1013,0.015835
227.782,63.1127,0.015797
227.844,63.1216,0.015797
227.907,63.1276,0.015797
227.971,63.1304,0.015835
228.035,63.1307,0.015835
228.097,63.1307,0.015835
228.157,63.1307,0.015835
228.219,63.1307,0.015835
228.281,63.1307,0.015844
228.346,63.1307,0.015844
228.406,63.1307,0.015844
228.467,63.1307,0.015844
228.529,63.1307,0.015769
228.590,63.1307,0.015769
228.653,63.1307,0.015769
228.715,63.1307,0.015769
228.777,63.1307,0.015778
228.839,63.1307,0.015778
228.903,63.1307,0.015778
228.966,63.1307,0.015778
229.028,63.1307,0.015788
229.093,63.1307,0.015788
229.154,63.1307,0.015788
229.217,63.1307,0.015797
229.279,63.1307,0.015797
229.342,63.1307,0.015797
229.404,63.1307,0.015797
229.466,63.1307,0.015797
229.528,63.1307,0.015844
229.592,63.1307,0.015844
229.654,63.1307,0.015844
229.716,63.1307,0.015816
229.780,63.1307,0.015816
229.843,63.1307,0.015816
229.906,63.1307,0.015816
229.969,63.1307,0.015788
230.031,63.1307,0.015788
230.094,63.1307,0.015788
230.156,63.1307,0.015788
230.217,63.1307,0.015788
230.279,63.1307,0.015788
230.342,63.1307,0.015788
230.405,63.1307,0.015788
230.469,63.1307,0.015788
230.530,63.1307,0.015778
230.593,63.1307,0.015778
230.656,63.1307,0.015778
230.718,63.1307,0.015778
230.780,63.1307,0.015750
230.841,63.1307,0.015750
230.905,63.1307,0.015750
230.966,63.1307,0.015750
231.029,63.1307,0.015788
231.091,63.1307,0.015788
231.151,63.1307,0.015788
231.218,63.1307,0.015788
231.277,63.1307,0.015816
231.340,63.1307,0.015816
231.402,63.1307,0.015816
231.465,63.1307,0.015816
231.527,63.1307,0.015778
231.590,63.1307,0.015778
231.652,63.1307,0.015778
231.714,63.1307,0.015778
231.777,63.1307,0.015844
231.839,63.1307,0.015844
231.901,63.1307,0.015844
231.965,63.1307,0.015844
232.027,63.1307,0.015854
232.089,63.1307,0.015854
232.151,63.1307,0.015854
232.214,63.1307,0.015854
232.275,63.1307,0.015826
232.338,63.1307,0.015826
232.400,63.1307,0.015826
232.463,63.1307,0.015826
232.526,63.1307,0.015835
232.589,63.1307,0.015835
232.651,63.1307,0.015835
232.714,63.1293,0.015835
232.776,63.1251,0.015788
232.840,63.1176,0.015788
232.902,63.1075,0.015788
232.965,63.0949,0.015788
233.027,63.0827,0.015873
233.089,63.0701,0.015873
233.151,63.0579,0.015873
233.214,63.0452,0.015873
233.276,63.0328,0.015901
233.337,63.0205,0.015901
233.400,63.0079,0.015901
233.462,62.9955,0.015901
233.525,62.9829,0.015769
233.587,62.9704,0.015769
233.649,62.9580,0.015769
233.711,62.9456,0.015769
233.773,62.9333,0.015769
233.836,62.9208,0.015769
233.898,62.9083,0.015769
233.960,62.8960,0.015769
234.022,62.8835,0.015797
234.085,62.8708,0.015797
234.149,62.8581,0.015797
234.209,62.8459,0.015797
234.271,62.8336,0.015760
234.334,62.8211,0.015760
234.396,62.8088,0.015760
234.459,62.7962,0.015760
234.521,62.7838,0.015844
234.583,62.7712,0.015844
234.645,62.7590,0.015844
234.707,62.7466,0.015844
234.769,62.7342,0.015901
234.833,62.7214,0.015901
234.896,62.7089,0.015901
234.957,62.6965,0.015901
235.019,62.6840,0.015835
235.082,62.6715,0.015835
235.144,62.6591,0.015835
235.208,62.6465,0.015835
235.270,62.6339,0.015816
235.333,62.6214,0.015816
235.395,62.6089,0.015816
235.456,62.5967,0.015816
235.519,62.5841,0.015863
235.581,62.5717,0.015863
235.642,62.5595,0.015863
235.705,62.5470,0.015863
235.767,62.5345,0.015854
235.829,62.5222,0.015854
235.891,62.5097,0.015854
235.953,62.4974,0.015854
236.016,62.4847,0.015778
236.080,62.4718,0.015778
236.141,62.4597,0.015778
236.205,62.4468,0.015778
236.264,62.4351,0.015760
236.327,62.4224,0.015760
236.392,62.4095,0.015760
236.451,62.3977,0.015760
236.513,62.3853,0.015750
236.576,62.3728,0.015750
236.641,62.3596,0.015750
236.703,62.3475,0.015750
236.765,62.3350,0.015816
236.826,62.3226,0.015816
236.890,62.3100,0.015816
236.950,62.2978,0.015816
237.013,62.2854,0.015844
237.074,62.2730,0.015844
237.136,62.2606,0.015844
237.202,62.2476,0.015844
237.261,62.2357,0.015807
237.323,62.2234,0.015807
237.387,62.2104,0.015807
237.447,62.1984,0.015807
237.510,62.1858,0.015807
237.573,62.1732,0.015807
237.635,62.1608,0.015807
237.699,62.1479,0.015807
237.762,62.1352,0.015769
237.822,62.1235,0.015769
237.886,62.1108,0.015769
237.948,62.0984,0.015769
238.009,62.0861,0.015769
238.072,62.0736,0.015760
238.134,62.0612,0.015760
238.196,62.0487,0.015760
238.259,62.0362,0.015788
238.321,62.0237,0.015788
238.384,62.0111,0.015788
238.445,61.9989,0.015788
238.508,61.9865,0.015816
238.569,61.9741,0.015816
238.631,61.9619,0.015816
238.694,61.9492,0.015816
238.756,61.9368,0.015835
238.817,61.9245,0.015835
238.880,61.9120,0.015835
238.942,61.8996,0.015835
239.005,61.8870,0.015835
239.068,61.8743,0.015835
239.131,61.8618,0.015835
239.193,61.8494,0.015835
239.255,61.8368,0.015835
239.318,61.8243,0.015844
239.379,61.8122,0.015844
239.441,61.7999,0.015844
239.503,61.7874,0.015835
239.566,61.7748,0.015835
239.628,61.7624,0.015835
239.692,61.7495,0.015835
239.755,61.7370,0.015826
239.816,61.7247,0.015826
239.878,61.7123,0.015826
239.941,61.6999,0.015826
240.003,61.6874,0.015769
240.065,61.6750,0.015769
240.127,61.6626,0.015769
240.190,61.6501,0.015769
240.251,61.6378,0.015750
240.313,61.6254,0.015750
240.375,61.6130,0.015750
240.437,61.6006,0.015750
240.500,61.5881,0.015835
240.562,61.5757,0.015835
240.624,61.5631,0.015835
240.686,61.5507,0.015835
240.749,61.5382,0.015826
240.812,61.5257,0.015826
240.873,61.5135,0.015826
240.935,61.5010,0.015826
240.997,61.4883,0.015807
241.059,61.4761,0.015807
241.123,61.4633,0.015807
241.186,61.4506,0.015807
241.250,61.4379,0.015835
241.311,61.4257,0.015835
241.375,61.4129,0.015835
241.437,61.4005,0.015835
241.501,61.3878,0.015778
241.563,61.3755,0.015778
241.625,61.3630,0.015778
241.689,61.3502,0.015778
241.751,61.3378,0.015722
241.813,61.3254,0.015722
241.876,61.3127,0.015722
241.939,61.3002,0.015722
242.001,61.2878,0.015807
242.063,61.2751,0.015807
242.126,61.2626,0.015807
242.190,61.2500,0.015807
242.251,61.2379,0.015807
242.313,61.2253,0.015826
242.377,61.2125,0.015826
242.440,61.1999,0.015826
242.503,61.1875,0.015788
242.568,61.1744,0.015788
242.629,61.1620,0.015788
242.692,61.1496,0.015788
242.756,61.1367,0.015788
242.818,61.1243,0.015788
242.881,61.1118,0.015788
242.944,61.0992,0.015788
243.007,61.0866,0.015807
243.069,61.0743,0.015807
243.130,61.0621,0.015807
243.193,61.0494,0.015807
243.256,61.0368,0.015816
243.319,61.0241,0.015816
243.382,61.0116,0.015816
243.445,60.9989,0.015816
243.507,60.9864,0.015844
243.569,60.9741,0.015844
243.631,60.9617,0.015844
243.693,60.9493,0.015844
243.756,60.9369,0.015835
243.817,60.9245,0.015835
243.880,60.9121,0.015835
243.942,60.8997,0.015835
244.004,60.8873,0.015816
244.065,60.8749,0.015816
244.127,60.8625,0.015816
244.192,60.8496,0.015816
244.252,60.8377,0.015797
244.314,60.8251,0.015797
244.377,60.8127,0.015797
244.439,60.8003,0.015797
244.500,60.7880,0.015769
244.563,60.7755,0.015769
244.625,60.7631,0.015769
244.688,60.7504,0.015769
244.749,60.7381,0.015778
244.812,60.7255,0.015778
244.876,60.7127,0.015778
244.936,60.7007,0.015778
244.999,60.6881,0.015816
245.062,60.6756,0.015816
245.124,60.6632,0.015816
245.186,60.6508,0.015816
245.249,60.6382,0.015854
245.311,60.6259,0.015854
245.374,60.6132,0.015854
245.437,60.6007,0.015854
245.499,60.5883,0.015797
245.561,60.5759,0.015797
245.625,60.5630,0.015797
245.687,60.5506,0.015797
245.748,60.5384,0.015750
245.810,60.5260,0.015750
245.872,60.5136,0.015750
245.935,60.5011,0.015750
245.996,60.4888,0.015788
246.059,60.4763,0.015788
246.121,60.4639,0.015788
246.183,60.4515,0.015788
246.245,60.4387,0.015854
246.308,60.4262,0.015854
246.372,60.4137,0.015854
246.435,60.4012,0.015854
246.497,60.3886,0.015873
246.560,60.3760,0.015873
246.622,60.3637,0.015873
246.683,60.3515,0.015873
246.745,60.3391,0.015826
246.807,60.3267,0.015826
246.870,60.3140,0.015826
246.932,60.3018,0.015826
246.994,60.2892,0.015769
247.057,60.2768,0.015769
247.119,60.2642,0.015769
247.182,60.2516,0.015769
247.244,60.2392,0.015797
247.306,60.2268,0.015797
247.367,60.2147,0.015797
247.428,60.2023,0.015797
247.490,60.1899,0.015882
247.552,60.1777,0.015882
247.614,60.1650,0.015882
247.678,60.1524,0.015882
247.740,60.1398,0.015873
247.803,60.1273,0.015873
247.866,60.1148,0.015873
247.929,60.1024,0.015873
247.990,60.0901,0.015835
248.051,60.0778,0.015835
248.114,60.0652,0.015835
248.176,60.0529,0.015835
248.237,60.0405,0.015835
248.302,60.0276,0.015797
248.363,60.0154,0.015797
248.426,60.0029,0.015797
248.489,59.9903,0.015769
248.550,59.9780,0.015769
248.611,59.9658,0.015769
248.673,59.9534,0.015769
248.735,59.9410,0.015788
248.797,59.9286,0.015788
248.860,59.9161,0.015788
248.922,59.9036,0.015788
248.984,59.8912,0.015788
249.045,59.8790,0.015788
249.108,59.8664,0.015788
249.172,59.8536,0.015788
249.231,59.8418,0.015788
249.292,59.8297,0.015788
249.355,59.8171,0.015788
249.418,59.8046,0.015788
249.480,59.7918,0.015835
249.539,59.7800,0.015835
249.603,59.7674,0.015835
249.663,59.7556,0.015835
249.725,59.7431,0.015844
249.787,59.7306,0.015844
249.850,59.7182,0.015844
249.911,59.7059,0.015844
249.975,59.6932,0.015844
250.036,59.6807,0.015816
250.099,59.6683,0.015816
250.162,59.6556,0.015816
250.225,59.6430,0.015816
250.288,59.6305,0.015873
250.349,59.6183,0.015873
250.412,59.6055,0.015873
250.474,59.5934,0.015873
250.536,59.5809,0.015882
250.599,59.5682,0.015882
250.662,59.5556,0.015882
250.724,59.5430,0.015882
250.785,59.5310,0.015882
250.848,59.5185,0.015882
250.910,59.5059,0.015882
250.972,59.4934,0.015882
251.036,59.4808,0.015816
251.099,59.4682,0.015816
251.162,59.4552,0.015816
251.224,59.4433,0.015722
251.287,59.4307,0.015722
251.347,59.4188,0.015722
251.408,59.4065,0.015722
251.470,59.3941,0.015741
251.533,59.3813,0.015741
251.598,59.3685,0.015741
251.659,59.3563,0.015741
251.721,59.3439,0.015741
251.782,59.3317,0.015788
251.845,59.3190,0.015788
251.907,59.3066,0.015788
251.971,59.2937,0.015788
252.031,59.2818,0.015807
252.094,59.2692,0.015807
252.157,59.2567,0.015807
252.220,59.2439,0.015807
252.281,59.2319,0.015863
252.343,59.2195,0.015863
252.405,59.2069,0.015863
252.470,59.1940,0.015863
252.530,59.1820,0.015863
252.594,59.1693,0.015863
252.654,59.1572,0.015863
252.716,59.1449,0.015863
252.777,59.1326,0.015797
252.838,59.1205,0.015797
252.900,59.1080,0.015797
252.963,59.0967,0.015797
253.026,59.0885,0.015826
253.089,59.0830,0.015826
253.152,59.0808,0.015826
253.215,59.0807,0.015826
253.276,59.0807,0.015760
253.338,59.0807,0.015760
253.400,59.0807,0.015760
253.464,59.0807,0.015760
253.523,59.0807,0.015760
253.585,59.0807,0.015760
253.647,59.0807,0.015760
253.710,59.0807,0.015760
253.772,59.0808,0.015807
253.835,59.0832,0.015807
253.896,59.0881,0.015807
253.957,59.0962,0.015807
254.019,59.1068,0.015722
254.083,59.1200,0.015722
254.144,59.1321,0.015722
254.206,59.1447,0.015722
254.268,59.1571,0.015731
254.331,59.1696,0.015731
254.394,59.1821,0.015731
254.457,59.1948,0.015731
254.520,59.2074,0.015769
254.585,59.2203,0.015769
254.647,59.2326,0.015769
254.707,59.2446,0.015769
254.770,59.2573,0.015760
254.832,59.2696,0.015760
254.894,59.2820,0.015760
254.956,59.2945,0.015760
255.019,59.3069,0.015788
255.082,59.3198,0.015788
255.141,59.3316,0.015788
255.204,59.3440,0.015788
255.267,59.3566,0.015816
255.329,59.3690,0.015816
255.392,59.3817,0.015816
255.455,59.3941,0.015816
255.516,59.4066,0.015788
255.579,59.4189,0.015788
255.641,59.4314,0.015788
255.702,59.4437,0.015788
255.768,59.4568,0.015778
255.828,59.4686,0.015778
255.890,59.4813,0.015778
255.953,59.4938,0.015778
256.015,59.5064,0.015816
256.077,59.5187,0.015816
256.139,59.5311,0.015816
256.201,59.5434,0.015816
256.264,59.5559,0.015826
256.326,59.5685,0.015826
256.389,59.5810,0.015826
256.452,59.5938,0.015826
256.517,59.6069,0.015778
256.577,59.6187,0.015778
256.640,59.6311,0.015778
256.703,59.6436,0.015778
256.764,59.6560,0.015835
256.827,59.6687,0.015835
256.888,59.6808,0.015835
256.953,59.6940,0.015835
257.011,59.7056,0.015863
257.074,59.7182,0.015863
257.135,59.7302,0.015863
257.197,59.7426,0.015863
257.258,59.7549,0.015816
257.321,59.7673,0.015816
257.383,59.7799,0.015816
257.447,59.7928,0.015816
257.509,59.8051,0.015882
257.572,59.8177,0.015882
257.633,59.8299,0.015882
257.695,59.8423,0.015882
257.758,59.8550,0.015891
257.826,59.8687,0.015891
257.883,59.8799,0.015891
257.944,59.8920,0.015891
258.007,59.9047,0.015835
258.068,59.9168,0.015835
258.131,59.9296,0.015835
258.191,59.9414,0.015835
258.254,59.9538,0.015835
258.315,59.9663,0.015835
258.377,59.9787,0.015835
258.440,59.9914,0.015835
258.503,60.0039,0.015835
258.564,60.0161,0.015835
258.626,60.0286,0.015835
258.688,60.0410,0.015835
258.751,60.0533,0.015835
258.813,60.0658,0.015797
258.876,60.0784,0.015797
258.938,60.0907,0.015797
259.001,60.1035,0.015788
259.064,60.1161,0.015788
259.125,60.1284,0.015788
259.188,60.1408,0.015788
259.250,60.1534,0.015863
259.316,60.1664,0.015863
259.376,60.1784,0.015863
259.438,60.1907,0.015863
259.499,60.2030,0.015873
259.561,60.2154,0.015873
259.623,60.2276,0.015873
259.685,60.2402,0.015873
259.747,60.2526,0.015873
259.809,60.2648,0.015873
259.872,60.2776,0.015873
259.934,60.2899,0.015873
259.997,60.3026,0.015854
260.061,60.3153,0.015854
260.122,60.3275,0.015854
260.185,60.3401,0.015854
260.245,60.3524,0.015835
260.308,60.3647,0.015835
260.371,60.3772,0.015835
260.433,60.3896,0.015835
260.495,60.4020,0.015844
260.557,60.4145,0.015844
260.619,60.4271,0.015844
260.682,60.4396,0.015844
260.744,60.4519,0.015826
260.805,60.4642,0.015826
260.867,60.4766,0.015826
260.930,60.4891,0.015826
260.993,60.5017,0.015816
261.054,60.5140,0.015816
261.118,60.5268,0.015816
261.180,60.5392,0.015816
261.243,60.5516,0.015844
261.305,60.5642,0.015844
261.367,60.5764,0.015844
261.428,60.5887,0.015844
261.492,60.6017,0.015873
261.553,60.6137,0.015873
261.616,60.6263,0.015873
261.678,60.6388,0.015873
261.740,60.6511,0.015797
261.803,60.6637,0.015797
261.865,60.6761,0.015797
261.926,60.6885,0.015797
261.989,60.7008,0.015778
262.051,60.7134,0.015778
262.114,60.7261,0.015778
262.176,60.7385,0.015778
262.237,60.7508,0.015788
262.301,60.7634,0.015788
262.364,60.7759,0.015788
262.426,60.7885,0.015788
262.489,60.8011,0.015788
262.553,60.8137,0.015788
262.611,60.8254,0.015788
262.673,60.8376,0.015788
262.736,60.8504,0.015797
262.799,60.8630,0.015797
262.863,60.8757,0.015797
262.925,60.8881,0.015797
262.987,60.9005,0.015760
263.048,60.9129,0.015760
263.110,60.9253,0.015760
263.172,60.9376,0.015760
263.235,60.9502,0.015741
263.298,60.9629,0.015741
263.361,60.9754,0.015741
263.423,60.9879,0.015741
263.487,61.0007,0.015788
263.550,61.0131,0.015788
263.611,61.0255,0.015788
263.673,61.0378,0.015788
263.735,61.0502,0.015807
263.797,61.0626,0.015807
263.860,61.0752,0.015807
263.922,61.0877,0.015807
263.985,61.1000,0.015797
264.046,61.1124,0.015797
264.109,61.1250,0.015797
264.171,61.1374,0.015797
264.233,61.1498,0.015807
264.296,61.1623,0.015807
264.359,61.1749,0.015807
264.421,61.1873,0.015807
264.484,61.2000,0.015816
264.547,61.2125,0.015816
264.607,61.2244,0.015816
264.669,61.2368,0.015816
264.730,61.2493,0.015816
264.792,61.2617,0.015816
264.855,61.2743,0.015816
264.916,61.2864,0.015816
264.980,61.2992,0.015816
265.041,61.3114,0.015826
265.104,61.3239,0.015826
265.167,61.3367,0.015826
265.228,61.3486,0.015826
265.289,61.3610,0.015778
265.351,61.3734,0.015778
265.414,61.3860,0.015778
265.478,61.3988,0.015778
265.542,61.4114,0.015778
265.603,61.4237,0.015778
265.664,61.4361,0.015778
265.727,61.4484,0.015778
265.788,61.4608,0.015844
265.850,61.4731,0.015844
265.912,61.4856,0.015844
265.974,61.4979,0.015844
266.037,61.5105,0.015807
266.098,61.5227,0.015807
266.162,61.5355,0.015807
266.224,61.5479,0.015807
266.286,61.5604,0.015797
266.348,61.5727,0.015797
266.410,61.5850,0.015797
266.471,61.5974,0.015797
266.533,61.6098,0.015844
266.595,61.6222,0.015844
266.658,61.6348,0.015844
266.721,61.6473,0.015844
266.785,61.6601,0.015882
266.846,61.6723,0.015882
266.910,61.6852,0.015882
266.970,61.6971,0.015882
267.032,61.7096,0.015854
267.095,61.7220,0.015854
267.157,61.7347,0.015854
267.219,61.7469,0.015816
267.282,61.7595,0.015816
267.343,61.7717,0.015816
267.404,61.7839,0.015816
267.466,61.7964,0.015816
267.528,61.8088,0.015863
267.590,61.8211,0.015863
267.652,61.8335,0.015863
267.715,61.8460,0.015863
267.777,61.8584,0.015816
267.840,61.8711,0.015816
267.903,61.8836,0.015816
267.965,61.8961,0.015816
268.026,61.9083,0.015769
268.088,61.9208,0.015769
268.150,61.9331,0.015769
268.212,61.9455,0.015769
268.275,61.9580,0.015807
268.337,61.9704,0.015807
268.398,61.9828,0.015807
268.461,61.9953,0.015807
268.523,62.0077,0.015835
268.585,62.0202,0.015835
268.648,62.0327,0.015835
268.708,62.0448,0.015835
268.773,62.0576,0.015788
268.836,62.0701,0.015788
268.897,62.0825,0.015788
268.961,62.0953,0.015788
269.022,62.1075,0.015816
269.083,62.1199,0.015816
269.145,62.1320,0.015816
269.206,62.1443,0.015816
269.268,62.1566,0.015863
269.330,62.1691,0.015863
269.393,62.1816,0.015863
269.454,62.1939,0.015863
269.516,62.2064,0.015863
269.579,62.2190,0.015854
269.640,62.2311,0.015854
269.702,62.2435,0.015854
269.763,62.2558,0.015807
269.826,62.2683,0.015807
269.890,62.2811,0.015807
269.950,62.2930,0.015807
270.012,62.3055,0.015807
270.074,62.3179,0.015844
270.136,62.3305,0.015844
270.197,62.3426,0.015844
270.259,62.3548,0.015882
270.321,62.3673,0.015882
270.383,62.3797,0.015882
270.445,62.3921,0.015882
270.508,62.4045,0.015816
270.570,62.4169,0.015816
270.631,62.4292,0.015816
270.693,62.4417,0.015816
270.756,62.4542,0.015826
270.818,62.4666,0.015826
270.880,62.4792,0.015826
270.943,62.4918,0.015826
271.005,62.5040,0.015835
271.068,62.5165,0.015835
271.130,62.5291,0.015835
271.191,62.5413,0.015835
271.254,62.5538,0.015769
271.316,62.5664,0.015769
271.379,62.5789,0.015769
271.441,62.5913,0.015769
271.502,62.6034,0.015741
271.564,62.6158,0.015741
271.626,62.6282,0.015741
271.688,62.6405,0.015741
271.750,62.6532,0.015816
271.813,62.6658,0.015816
271.874,62.6781,0.015816
271.937,62.6906,0.015816
272.000,62.7033,0.015835
272.063,62.7158,0.015835
272.125,62.7281,0.015835
272.186,62.7404,0.015835
272.248,62.7526,0.015816
272.310,62.7652,0.015816
272.372,62.7774,0.015816
272.434,62.7900,0.015816
272.496,62.8022,0.015797
272.559,62.8148,0.015797
272.622,62.8273,0.015797
272.685,62.8402,0.015797
272.747,62.8523,0.015797
272.808,62.8649,0.015797
272.871,62.8774,0.015797
272.934,62.8899,0.015797
272.997,62.9026,0.015844
273.059,62.9150,0.015844
273.121,62.9275,0.015844
273.182,62.9395,0.015844
273.244,62.9519,0.015854
273.306,62.9642,0.015854
273.368,62.9767,0.015854
273.431,62.9893,0.015854
273.496,63.0024,0.015826
273.557,63.0144,0.015826
273.618,63.0266,0.015826
273.679,63.0390,0.015826
273.743,63.0518,0.015826
273.807,63.0637,0.015826
273.868,63.0719,0.015826
273.929,63.0776,0.015826
273.990,63.0803,0.015891
274.053,63.0807,0.015891
274.115,63.0807,0.015891
274.177,63.0807,0.015891
274.241,63.0807,0.015891
274.302,63.0807,0.015873
274.365,63.0807,0.015873
274.428,63.0807,0.015873
274.489,63.0807,0.015873
274.550,63.0807,0.015863
